sample name	sample
index	1408
start time	 05-10-2021  11:31:39 AM


Wavelength (nm)	Absorbance
494.344910	0.121777
494.563924	0.121777
494.782919	0.121777
495.001897	0.007945
495.220856	0.050621
495.439797	0.028637
495.658719	0.014658
495.877624	-0.004633
496.096510	-0.001938
496.315378	-0.010193
496.534227	-0.012788
496.753059	-0.025304
496.971872	-0.025112
497.190667	0.065970
497.409444	0.107649
497.628203	0.120058
497.846943	0.126287
498.065665	0.130233
498.284369	0.133183
498.503055	0.133856
498.721723	0.136377
498.940372	0.136879
499.159003	0.136378
499.377616	0.135657
499.596210	0.135472
499.814787	0.135196
500.033345	0.135996
500.251885	0.136668
500.470406	0.138709
500.688910	0.138513
500.907395	0.139260
501.125862	0.139276
501.344311	0.139962
501.562742	0.140777
501.781154	0.141863
501.999548	0.140277
502.217924	0.139907
502.436282	0.137748
502.654621	0.138593
502.872942	0.138733
503.091245	0.140738
503.309530	0.139679
503.527797	0.139548
503.746045	0.140216
503.964275	0.140935
504.182487	0.140610
504.400681	0.141512
504.618856	0.141987
504.837013	0.142777
505.055152	0.140608
505.273273	0.141541
505.491376	0.141231
505.709460	0.140367
505.927526	0.141009
506.145574	0.141958
506.363604	0.142553
506.581615	0.141996
506.799608	0.141689
507.017583	0.142634
507.235540	0.141406
507.453478	0.142224
507.671399	0.141706
507.889301	0.142369
508.107185	0.141948
508.325050	0.142078
508.542898	0.141444
508.760727	0.141800
508.978538	0.142253
509.196330	0.143288
509.414105	0.143405
509.631861	0.144512
509.849599	0.143679
510.067319	0.143737
510.285021	0.143994
510.502704	0.144237
510.720369	0.143685
510.938016	0.144006
511.155645	0.144479
511.373255	0.144194
511.590848	0.144565
511.808422	0.144467
512.025977	0.144168
512.243515	0.144813
512.461034	0.145775
512.678536	0.146858
512.896018	0.146947
513.113483	0.146777
513.330930	0.146177
513.548358	0.145830
513.765768	0.146819
513.983160	0.147685
514.200533	0.147051
514.417889	0.147544
514.635226	0.147316
514.852545	0.147958
515.069845	0.148686
515.287128	0.149157
515.504392	0.150317
515.721638	0.149662
515.938866	0.149196
516.156075	0.149532
516.373267	0.148676
516.590440	0.149477
516.807594	0.148934
517.024731	0.148718
517.241850	0.149966
517.458950	0.149340
517.676032	0.149944
517.893095	0.149934
518.110141	0.150120
518.327168	0.150799
518.544177	0.150501
518.761168	0.150619
518.978141	0.150738
519.195095	0.150393
519.412031	0.150199
519.628949	0.150752
519.845849	0.151470
520.062731	0.151127
520.279594	0.150969
520.496439	0.151022
520.713266	0.151042
520.930074	0.151275
521.146865	0.151455
521.363637	0.152419
521.580391	0.151767
521.797127	0.152024
522.013844	0.152220
522.230543	0.152944
522.447224	0.152913
522.663887	0.153420
522.880532	0.153855
523.097158	0.153866
523.313766	0.153249
523.530356	0.153950
523.746928	0.154157
523.963481	0.154899
524.180017	0.154190
524.396534	0.154429
524.613032	0.154151
524.829513	0.153996
525.045975	0.154265
525.262420	0.155049
525.478845	0.154902
525.695253	0.155154
525.911643	0.155256
526.128014	0.155751
526.344367	0.155929
526.560702	0.156799
526.777018	0.156869
526.993316	0.156547
527.209597	0.156208
527.425858	0.156758
527.642102	0.155640
527.858328	0.155322
528.074535	0.155322
528.290724	0.155807
528.506894	0.156137
528.723047	0.156793
528.939181	0.157481
529.155297	0.157565
529.371395	0.157295
529.587475	0.158337
529.803536	0.159004
530.019579	0.159610
530.235604	0.158989
530.451611	0.159424
530.667600	0.159371
530.883570	0.159920
531.099522	0.160528
531.315456	0.160737
531.531372	0.161293
531.747269	0.161027
531.963148	0.161275
532.179009	0.162162
532.394852	0.161280
532.610676	0.161855
532.826482	0.162145
533.042271	0.163084
533.258040	0.164194
533.473792	0.164219
533.689525	0.165210
533.905240	0.165478
534.120937	0.166097
534.336616	0.166721
534.552277	0.166890
534.767919	0.166400
534.983543	0.166286
535.199149	0.166023
535.414736	0.166580
535.630306	0.166170
535.845857	0.166555
536.061390	0.166791
536.276904	0.167017
536.492401	0.167100
536.707879	0.167375
536.923339	0.166858
537.138781	0.166502
537.354204	0.166613
537.569610	0.166738
537.784997	0.166543
538.000366	0.166173
538.215716	0.166386
538.431049	0.166355
538.646363	0.166551
538.861659	0.166922
539.076937	0.167860
539.292196	0.168076
539.507438	0.169006
539.722661	0.169811
539.937866	0.170159
540.153052	0.170515
540.368221	0.170670
540.583371	0.171230
540.798503	0.171779
541.013617	0.171601
541.228712	0.171796
541.443789	0.171914
541.658848	0.171236
541.873889	0.171622
542.088912	0.171527
542.303916	0.172121
542.518902	0.172113
542.733870	0.172162
542.948820	0.172232
543.163752	0.171946
543.378665	0.171757
543.593560	0.172239
543.808437	0.172560
544.023295	0.172554
544.238136	0.172430
544.452958	0.172696
544.667762	0.172691
544.882548	0.172988
545.097315	0.172978
545.312064	0.173392
545.526795	0.173562
545.741508	0.173250
545.956203	0.173686
546.170879	0.173970
546.385537	0.174508
546.600177	0.174957
546.814799	0.175391
547.029402	0.175833
547.243988	0.175890
547.458555	0.176062
547.673103	0.176429
547.887634	0.176892
548.102146	0.177073
548.316640	0.176837
548.531116	0.177091
548.745574	0.177177
548.960013	0.177846
549.174435	0.177603
549.388838	0.177792
549.603222	0.178000
549.817589	0.178319
550.031937	0.178838
550.246267	0.179276
550.460579	0.179195
550.674873	0.179133
550.889148	0.179066
551.103405	0.179479
551.317644	0.179645
551.531865	0.179561
551.746068	0.179057
551.960252	0.178208
552.174418	0.178035
552.388566	0.177858
552.602696	0.177714
552.816807	0.177637
553.030900	0.178225
553.244975	0.178027
553.459032	0.178120
553.673070	0.178180
553.887091	0.178625
554.101093	0.178705
554.315077	0.178987
554.529042	0.180094
554.742990	0.180417
554.956919	0.180134
555.170830	0.180080
555.384722	0.179924
555.598597	0.179867
555.812453	0.180493
556.026291	0.180673
556.240111	0.181174
556.453913	0.180479
556.667696	0.180777
556.881461	0.181266
557.095208	0.181908
557.308937	0.182271
557.522647	0.182575
557.736339	0.182099
557.950013	0.182228
558.163669	0.182226
558.377307	0.182758
558.590926	0.182843
558.804527	0.182964
559.018110	0.183163
559.231675	0.183568
559.445221	0.183726
559.658749	0.184249
559.872259	0.184519
560.085751	0.184370
560.299225	0.184491
560.512680	0.184523
560.726117	0.184529
560.939536	0.184641
561.152937	0.184870
561.366319	0.185256
561.579683	0.185129
561.793029	0.185047
562.006357	0.185081
562.219667	0.184876
562.432958	0.184511
562.646231	0.184561
562.859486	0.184495
563.072723	0.184315
563.285941	0.184405
563.499141	0.184748
563.712323	0.185001
563.925487	0.185467
564.138632	0.185662
564.351760	0.185774
564.564869	0.185655
564.777960	0.185457
564.991032	0.185763
565.204087	0.185729
565.417123	0.185560
565.630141	0.185645
565.843140	0.185506
566.056122	0.185238
566.269085	0.185620
566.482030	0.185472
566.694957	0.185552
566.907866	0.185265
567.120756	0.185486
567.333628	0.185542
567.546482	0.185330
567.759318	0.185313
567.972135	0.185641
568.184935	0.185649
568.397716	0.186032
568.610478	0.186469
568.823223	0.186765
569.035949	0.186907
569.248657	0.187103
569.461347	0.187730
569.674019	0.188030
569.886672	0.188235
570.099308	0.188573
570.311925	0.188911
570.524523	0.189528
570.737104	0.189947
570.949666	0.190101
571.162210	0.190330
571.374736	0.190219
571.587244	0.190301
571.799733	0.190550
572.012205	0.190770
572.224658	0.190734
572.437092	0.190427
572.649509	0.190473
572.861907	0.190702
573.074287	0.190651
573.286649	0.190678
573.498993	0.190953
573.711318	0.190972
573.923625	0.190920
574.135914	0.191166
574.348185	0.191083
574.560438	0.191044
574.772672	0.190813
574.984888	0.190939
575.197086	0.191125
575.409266	0.191230
575.621427	0.191521
575.833570	0.191576
576.045695	0.191571
576.257802	0.192013
576.469890	0.192119
576.681961	0.192580
576.894013	0.192871
577.106046	0.192739
577.318062	0.192769
577.530059	0.192652
577.742039	0.193279
577.954000	0.193048
578.165942	0.193359
578.377867	0.193728
578.589773	0.193679
578.801661	0.193725
579.013531	0.194206
579.225382	0.194428
579.437216	0.194895
579.649031	0.194505
579.860828	0.195122
580.072606	0.194815
580.284367	0.194705
580.496109	0.194623
580.707833	0.195003
580.919539	0.195289
581.131227	0.195359
581.342896	0.195231
581.554547	0.195491
581.766180	0.195287
581.977795	0.195752
582.189391	0.195627
582.400969	0.195808
582.612529	0.196138
582.824071	0.195789
583.035595	0.196097
583.247100	0.196449
583.458587	0.196673
583.670056	0.197108
583.881506	0.197252
584.092939	0.197910
584.304353	0.198254
584.515749	0.198372
584.727127	0.198637
584.938486	0.198903
585.149828	0.198820
585.361151	0.198758
585.572456	0.198718
585.783742	0.198752
585.995011	0.198892
586.206261	0.198891
586.417493	0.198586
586.628706	0.198571
586.839902	0.198319
587.051079	0.198266
587.262238	0.198214
587.473379	0.198410
587.684502	0.197992
587.895606	0.197567
588.106692	0.197770
588.317760	0.197912
588.528810	0.198356
588.739841	0.198683
588.950855	0.199170
589.161850	0.199473
589.372827	0.199719
589.583785	0.200281
589.794726	0.200976
590.005648	0.201345
590.216552	0.201900
590.427437	0.202081
590.638305	0.201992
590.849154	0.201880
591.059985	0.202268
591.270798	0.202467
591.481592	0.202492
591.692369	0.202222
591.903127	0.201739
592.113867	0.201340
592.324588	0.201382
592.535292	0.201518
592.745977	0.201628
592.956644	0.201786
593.167293	0.201698
593.377923	0.201830
593.588536	0.202081
593.799130	0.202706
594.009706	0.203221
594.220263	0.203305
594.430803	0.203583
594.641324	0.203962
594.851827	0.203774
595.062312	0.204135
595.272778	0.204228
595.483227	0.204194
595.693657	0.204187
595.904069	0.204165
596.114462	0.204264
596.324838	0.204661
596.535195	0.204557
596.745534	0.204752
596.955855	0.204676
597.166157	0.205280
597.376441	0.205697
597.586707	0.206046
597.796955	0.206148
598.007185	0.205926
598.217396	0.205664
598.427589	0.205723
598.637764	0.205866
598.847921	0.206115
599.058060	0.205713
599.268180	0.205467
599.478282	0.205292
599.688366	0.205368
599.898431	0.205839
600.108479	0.206129
600.318508	0.206416
600.528519	0.206374
600.738511	0.206193
600.948486	0.206438
601.158442	0.206660
601.368380	0.206716
601.578300	0.206783
601.788202	0.206686
601.998085	0.206496
602.207950	0.206505
602.417797	0.206486
602.627626	0.206668
602.837436	0.206948
603.047228	0.207260
603.257002	0.207684
603.466758	0.207947
603.676496	0.207939
603.886215	0.207777
604.095916	0.207594
604.305599	0.207824
604.515264	0.208192
604.724910	0.208319
604.934538	0.208422
605.144148	0.208444
605.353740	0.208769
605.563314	0.209115
605.772869	0.209865
605.982406	0.209937
606.191925	0.210347
606.401425	0.210152
606.610908	0.210139
606.820372	0.209971
607.029818	0.210218
607.239246	0.209989
607.448655	0.210462
607.658047	0.210671
607.867420	0.210869
608.076775	0.210605
608.286111	0.210644
608.495430	0.210471
608.704730	0.210492
608.914012	0.210619
609.123275	0.210862
609.332521	0.210579
609.541748	0.210544
609.750957	0.211084
609.960148	0.211245
610.169321	0.211798
610.378475	0.212223
610.587611	0.212609
610.796729	0.212357
611.005829	0.212451
611.214910	0.212546
611.423974	0.212436
611.633019	0.212649
611.842045	0.212810
612.051054	0.212803
612.260044	0.212925
612.469017	0.213024
612.677970	0.213152
612.886906	0.213092
613.095824	0.213467
613.304723	0.213702
613.513604	0.213346
613.722467	0.213572
613.931311	0.213315
614.140138	0.213276
614.348946	0.213034
614.557736	0.213237
614.766507	0.213574
614.975261	0.213460
615.183996	0.213473
615.392713	0.213786
615.601412	0.213841
615.810092	0.214248
616.018754	0.214576
616.227399	0.215122
616.436024	0.215325
616.644632	0.215222
616.853222	0.215294
617.061793	0.215364
617.270346	0.215478
617.478880	0.215537
617.687397	0.215551
617.895895	0.215356
618.104375	0.215492
618.312837	0.215457
618.521281	0.215741
618.729706	0.215912
618.938113	0.216027
619.146502	0.216202
619.354873	0.216610
619.563226	0.216825
619.771560	0.216879
619.979876	0.216970
620.188174	0.217170
620.396453	0.217114
620.604715	0.217452
620.812958	0.217563
621.021183	0.217487
621.229390	0.217378
621.437578	0.217323
621.645748	0.217683
621.853900	0.217582
622.062034	0.217808
622.270150	0.218104
622.478247	0.217954
622.686326	0.218198
622.894387	0.218306
623.102430	0.218332
623.310454	0.218201
623.518461	0.218226
623.726449	0.218508
623.934418	0.218690
624.142370	0.218851
624.350303	0.218865
624.558218	0.218882
624.766115	0.218921
624.973994	0.219127
625.181855	0.219321
625.389697	0.219434
625.597521	0.219437
625.805327	0.219443
626.013114	0.219623
626.220883	0.220020
626.428634	0.220197
626.636367	0.220511
626.844082	0.220395
627.051778	0.220892
627.259457	0.220912
627.467117	0.221079
627.674758	0.220623
627.882382	0.220380
628.089987	0.220090
628.297574	0.220074
628.505143	0.220031
628.712694	0.219974
628.920226	0.219775
629.127740	0.219485
629.335236	0.219242
629.542714	0.219622
629.750174	0.219411
629.957615	0.219377
630.165038	0.219479
630.372443	0.219547
630.579829	0.219827
630.787198	0.219971
630.994548	0.220235
631.201880	0.220187
631.409194	0.220361
631.616489	0.220678
631.823766	0.220928
632.031025	0.220660
632.238266	0.221015
632.445489	0.221167
632.652693	0.221339
632.859879	0.221377
633.067047	0.221854
633.274197	0.221700
633.481329	0.221581
633.688442	0.221755
633.895537	0.222417
634.102614	0.222432
634.309672	0.222727
634.516713	0.222748
634.723735	0.223311
634.930739	0.223259
635.137724	0.223639
635.344692	0.224131
635.551641	0.224295
635.758572	0.224263
635.965485	0.224234
636.172379	0.224063
636.379256	0.224199
636.586114	0.224089
636.792954	0.224426
636.999775	0.224556
637.206579	0.224814
637.413364	0.225074
637.620131	0.225085
637.826880	0.225221
638.033610	0.225579
638.240323	0.225849
638.447017	0.226298
638.653692	0.226238
638.860350	0.226602
639.066990	0.226638
639.273611	0.226799
639.480214	0.227022
639.686798	0.227224
639.893365	0.227466
640.099913	0.227518
640.306443	0.227716
640.512955	0.228067
640.719449	0.228073
640.925924	0.228001
641.132381	0.227989
641.338820	0.228121
641.545241	0.228341
641.751644	0.228366
641.958028	0.228472
642.164394	0.228263
642.370742	0.228340
642.577071	0.228408
642.783383	0.228652
642.989676	0.228543
643.195951	0.228411
643.402207	0.228314
643.608446	0.228443
643.814666	0.228429
644.020868	0.228465
644.227052	0.228539
644.433218	0.228597
644.639365	0.228889
644.845494	0.229556
645.051605	0.230043
645.257698	0.230242
645.463772	0.230485
645.669828	0.230940
645.875866	0.231103
646.081886	0.231471
646.287888	0.231602
646.493871	0.231231
646.699836	0.230723
646.905783	0.230576
647.111712	0.230895
647.317622	0.230827
647.523514	0.230490
647.729388	0.230599
647.935244	0.230407
648.141082	0.230478
648.346901	0.230937
648.552702	0.231116
648.758485	0.231174
648.964250	0.230955
649.169996	0.230865
649.375724	0.231287
649.581434	0.231215
649.787126	0.231271
649.992800	0.231541
650.198455	0.231439
650.404092	0.231561
650.609711	0.231700
650.815311	0.231885
651.020894	0.232090
651.226458	0.231963
651.432004	0.232154
651.637532	0.232221
651.843041	0.232037
652.048532	0.232402
652.254006	0.232721
652.459460	0.232744
652.664897	0.232761
652.870315	0.233017
653.075716	0.233313
653.281097	0.233462
653.486461	0.233739
653.691807	0.234029
653.897134	0.233998
654.102443	0.234112
654.307734	0.234417
654.513006	0.234752
654.718261	0.234738
654.923497	0.234661
655.128715	0.234722
655.333915	0.234710
655.539096	0.234699
655.744259	0.234806
655.949404	0.234875
656.154531	0.235036
656.359640	0.235304
656.564730	0.235495
656.769802	0.235858
656.974856	0.236095
657.179892	0.236286
657.384909	0.236695
657.589908	0.236854
657.794889	0.237071
657.999852	0.237275
658.204797	0.237104
658.409723	0.237155
658.614631	0.237189
658.819521	0.237483
659.024393	0.237639
659.229246	0.237638
659.434081	0.237597
659.638898	0.237772
659.843697	0.237958
660.048478	0.238179
660.253240	0.238425
660.457984	0.238508
660.662710	0.238722
660.867417	0.238861
661.072107	0.239010
661.276778	0.239404
661.481431	0.239619
661.686066	0.239573
661.890682	0.239805
662.095281	0.239700
662.299861	0.239813
662.504422	0.239617
662.708966	0.239661
662.913491	0.239683
663.117999	0.239791
663.322488	0.239880
663.526958	0.239770
663.731411	0.239988
663.935845	0.240167
664.140261	0.240354
664.344659	0.240484
664.549038	0.240677
664.753400	0.240827
664.957743	0.240920
665.162068	0.241189
665.366375	0.241499
665.570663	0.241500
665.774933	0.241512
665.979185	0.241597
666.183419	0.241720
666.387635	0.241928
666.591832	0.242246
666.796011	0.242365
667.000172	0.242368
667.204315	0.242784
667.408439	0.242793
667.612545	0.243237
667.816634	0.243408
668.020703	0.243653
668.224755	0.243803
668.428788	0.243797
668.632803	0.244239
668.836800	0.244442
669.040779	0.244413
669.244739	0.244624
669.448681	0.244972
669.652605	0.245085
669.856511	0.245341
670.060399	0.245686
670.264268	0.245749
670.468119	0.245671
670.671952	0.245467
670.875767	0.245516
671.079563	0.245737
671.283341	0.245355
671.487101	0.245833
671.690843	0.246246
671.894567	0.246420
672.098272	0.246779
672.301959	0.246921
672.505628	0.247116
672.709278	0.247557
672.912911	0.247596
673.116525	0.247907
673.320121	0.247860
673.523699	0.247761
673.727258	0.247531
673.930799	0.247604
674.134322	0.247688
674.337827	0.247960
674.541314	0.247806
674.744782	0.247945
674.948232	0.248151
675.151664	0.248393
675.355078	0.248413
675.558474	0.248670
675.761851	0.248790
675.965210	0.248831
676.168551	0.248920
676.371873	0.249278
676.575178	0.249364
676.778464	0.249696
676.981732	0.249576
677.184981	0.249844
677.388213	0.250138
677.591426	0.250465
677.794621	0.250908
677.997798	0.251329
678.200956	0.251496
678.404097	0.251620
678.607219	0.251667
678.810323	0.251874
679.013408	0.251831
679.216476	0.251736
679.419525	0.251630
679.622556	0.251620
679.825569	0.251582
680.028563	0.251561
680.231540	0.251820
680.434498	0.251780
680.637438	0.251932
680.840359	0.252119
681.043263	0.252499
681.246148	0.252687
681.449015	0.252692
681.651864	0.252762
681.854694	0.253060
682.057506	0.253120
682.260301	0.253551
682.463076	0.253563
682.665834	0.253578
682.868573	0.253555
683.071295	0.253512
683.273998	0.253813
683.476682	0.254122
683.679349	0.254202
683.881997	0.254375
684.084627	0.254368
684.287239	0.254552
684.489833	0.254875
684.692408	0.254792
684.894965	0.254935
685.097504	0.255039
685.300025	0.255108
685.502527	0.255114
685.705012	0.255294
685.907478	0.255152
686.109925	0.255335
686.312355	0.255253
686.514766	0.255504
686.717159	0.255562
686.919534	0.255508
687.121891	0.255338
687.324230	0.255171
687.526550	0.255036
687.728852	0.255223
687.931136	0.255224
688.133401	0.255377
688.335649	0.255370
688.537878	0.255558
688.740089	0.255697
688.942281	0.255756
689.144456	0.255995
689.346612	0.256159
689.548750	0.256247
689.750870	0.256422
689.952971	0.256390
690.155055	0.256532
690.357120	0.256459
690.559167	0.256563
690.761195	0.256855
690.963206	0.257118
691.165198	0.257236
691.367172	0.257575
691.569128	0.257461
691.771065	0.257626
691.972984	0.257743
692.174885	0.258186
692.376768	0.258494
692.578633	0.258558
692.780479	0.258651
692.982308	0.258731
693.184118	0.258756
693.385909	0.258852
693.587683	0.259200
693.789438	0.259365
693.991175	0.259519
694.192894	0.259533
694.394595	0.259879
694.596277	0.260060
694.797941	0.260458
694.999587	0.260621
695.201215	0.260961
695.402824	0.260811
695.604416	0.260979
695.805989	0.261172
696.007543	0.261375
696.209080	0.261367
696.410598	0.261428
696.612099	0.261364
696.813580	0.261181
697.015044	0.261216
697.216490	0.261484
697.417917	0.261770
697.619326	0.261553
697.820717	0.261477
698.022089	0.261456
698.223444	0.261536
698.424780	0.261811
698.626098	0.262192
698.827397	0.262422
699.028679	0.262313
699.229942	0.262313
699.431187	0.262484
699.632414	0.262932
699.833622	0.263001
700.034813	0.263317
700.235985	0.263313
700.437139	0.263280
700.638274	0.263302
700.839392	0.263543
701.040491	0.263454
701.241572	0.263419
701.442635	0.263043
701.643679	0.263139
701.844706	0.263125
702.045714	0.263006
702.246704	0.262980
702.447675	0.263048
702.648629	0.262960
702.849564	0.262950
703.050481	0.263046
703.251380	0.263150
703.452260	0.263110
703.653122	0.262977
703.853966	0.262870
704.054792	0.263105
704.255600	0.263025
704.456389	0.263082
704.657160	0.263097
704.857913	0.263086
705.058648	0.263179
705.259365	0.263331
705.460063	0.263370
705.660743	0.263544
705.861405	0.263587
706.062048	0.263648
706.262674	0.263972
706.463281	0.264029
706.663870	0.264176
706.864441	0.264445
707.064993	0.264392
707.265527	0.264519
707.466043	0.264642
707.666541	0.264766
707.867021	0.264803
708.067482	0.264909
708.267925	0.265031
708.468350	0.265107
708.668757	0.264886
708.869145	0.264760
709.069516	0.264646
709.269868	0.264643
709.470201	0.264444
709.670517	0.264542
709.870814	0.264411
710.071093	0.264551
710.271354	0.264397
710.471597	0.264470
710.671821	0.264812
710.872028	0.264587
711.072216	0.264654
711.272385	0.264698
711.472537	0.264665
711.672670	0.264572
711.872785	0.264245
712.072882	0.264189
712.272961	0.264205
712.473021	0.263957
712.673063	0.263967
712.873087	0.264152
713.073093	0.264030
713.273081	0.264038
713.473050	0.263927
713.673001	0.263944
713.872934	0.264175
714.072849	0.264154
714.272745	0.264392
714.472623	0.264665
714.672483	0.264410
714.872325	0.264290
715.072148	0.264473
715.271954	0.264765
715.471741	0.264852
715.671509	0.264755
715.871260	0.264887
716.070992	0.264816
716.270707	0.264684
716.470403	0.264778
716.670080	0.265015
716.869740	0.264749
717.069381	0.264504
717.269004	0.264506
717.468609	0.264363
717.668195	0.263989
717.867764	0.263921
718.067314	0.263915
718.266846	0.263776
718.466360	0.263621
718.665855	0.263479
718.865332	0.263334
719.064791	0.263152
719.264232	0.263143
719.463655	0.263465
719.663059	0.263242
719.862445	0.263035
720.061813	0.263143
720.261163	0.263257
720.460494	0.263505
720.659807	0.263728
720.859102	0.263619
721.058379	0.263727
721.257638	0.263485
721.456878	0.263806
721.656100	0.263970
721.855304	0.263693
722.054490	0.263486
722.253657	0.263264
722.452806	0.263209
722.651937	0.263378
722.851050	0.263166
723.050145	0.262888
723.249221	0.262662
723.448279	0.262459
723.647319	0.262313
723.846340	0.262397
724.045344	0.262500
724.244329	0.262258
724.443296	0.262140
724.642245	0.262169
724.841175	0.262203
725.040088	0.261968
725.238982	0.261810
725.437857	0.261760
725.636715	0.261493
725.835554	0.261344
726.034376	0.261167
726.233179	0.261117
726.431963	0.261172
726.630730	0.261352
726.829478	0.261512
727.028208	0.261641
727.226920	0.261482
727.425614	0.261741
727.624289	0.261676
727.822946	0.261736
728.021585	0.261883
728.220206	0.261578
728.418808	0.261202
728.617392	0.261015
728.815958	0.261060
729.014506	0.261055
729.213036	0.260823
729.411547	0.260494
729.610040	0.260446
729.808515	0.260164
730.006972	0.260078
730.205410	0.259964
730.403831	0.259894
730.602233	0.259724
730.800616	0.259807
730.998982	0.259613
731.197329	0.259716
731.395658	0.259631
731.593969	0.259420
731.792262	0.259237
731.990536	0.259210
732.188793	0.259014
732.387031	0.258721
732.585250	0.258609
732.783452	0.258608
732.981635	0.258593
733.179800	0.258363
733.377947	0.258550
733.576076	0.258721
733.774186	0.258633
733.972278	0.258570
734.170352	0.258585
734.368408	0.258687
734.566446	0.258613
734.764465	0.258469
734.962466	0.258413
735.160449	0.257964
735.358413	0.257557
735.556360	0.257600
735.754288	0.257450
735.952198	0.257303
736.150090	0.256888
736.347963	0.256889
736.545818	0.256686
736.743655	0.256807
736.941474	0.256967
737.139275	0.257056
737.337057	0.256758
737.534821	0.256641
737.732567	0.256735
737.930295	0.256821
738.128005	0.256705
738.325696	0.256540
738.523369	0.256233
738.721024	0.256049
738.918660	0.255947
739.116279	0.256117
739.313879	0.256045
739.511461	0.255833
739.709024	0.255778
739.906570	0.255694
740.104097	0.255686
740.301606	0.255561
740.499097	0.255351
740.696569	0.255284
740.894024	0.254998
741.091460	0.254938
741.288878	0.254908
741.486277	0.254531
741.683659	0.254405
741.881022	0.254311
742.078367	0.254319
742.275694	0.254550
742.473002	0.254563
742.670293	0.254364
742.867565	0.254327
743.064819	0.254159
743.262054	0.253942
743.459272	0.253448
743.656471	0.253383
743.853652	0.253035
744.050815	0.252710
744.247959	0.252306
744.445085	0.252310
744.642194	0.252006
744.839283	0.251752
745.036355	0.251960
745.233408	0.252126
745.430444	0.251804
745.627461	0.251750
745.824459	0.251450
746.021440	0.251496
746.218402	0.250902
746.415346	0.250937
746.612272	0.250959
746.809180	0.250731
747.006069	0.250371
747.202940	0.250264
747.399793	0.250114
747.596628	0.250100
747.793444	0.250066
747.990243	0.250157
748.187023	0.249804
748.383784	0.249226
748.580528	0.249044
748.777253	0.249027
748.973960	0.248945
749.170649	0.248930
749.367320	0.248790
749.563973	0.248639
749.760607	0.248612
749.957223	0.248864
750.153821	0.249061
750.350400	0.248989
750.546962	0.248882
750.743505	0.248575
750.940030	0.248295
751.136536	0.248208
751.333025	0.247746
751.529495	0.247763
751.725947	0.247474
751.922381	0.247307
752.118796	0.246870
752.315194	0.246897
752.511573	0.247082
752.707934	0.247029
752.904276	0.246917
753.100601	0.247094
753.296907	0.246747
753.493195	0.246402
753.689465	0.246282
753.885716	0.246563
754.081949	0.246202
754.278164	0.246164
754.474361	0.245973
754.670540	0.245970
754.866700	0.245733
755.062843	0.245744
755.258967	0.245570
755.455072	0.245542
755.651160	0.245222
755.847229	0.245167
756.043280	0.245015
756.239313	0.245304
756.435328	0.245137
756.631324	0.245150
756.827302	0.245050
757.023262	0.245219
757.219204	0.244913
757.415127	0.244996
757.611033	0.244934
757.806920	0.244776
758.002788	0.244213
758.198639	0.243993
758.394471	0.243911
758.590286	0.243642
758.786081	0.243299
758.981859	0.243324
759.177619	0.243022
759.373360	0.242838
759.569083	0.242574
759.764788	0.242451
759.960474	0.242109
760.156143	0.241453
760.351793	0.241652
760.547425	0.241641
760.743038	0.241515
760.938634	0.241300
761.134211	0.240959
761.329770	0.240798
761.525311	0.240836
761.720833	0.240874
761.916338	0.241022
762.111824	0.240670
762.307292	0.240450
762.502741	0.240592
762.698173	0.240345
762.893586	0.240342
763.088981	0.240483
763.284358	0.240299
763.479716	0.240226
763.675057	0.239934
763.870379	0.239956
764.065683	0.240004
764.260968	0.239666
764.456236	0.239885
764.651485	0.239758
764.846716	0.239657
765.041929	0.239707
765.237123	0.239560
765.432299	0.239756
765.627457	0.239837
765.822597	0.239743
766.017719	0.239665
766.212822	0.239776
766.407907	0.239777
766.602974	0.239414
766.798023	0.239233
766.993054	0.239017
767.188066	0.238918
767.383060	0.238787
767.578036	0.238640
767.772993	0.238536
767.967933	0.238547
768.162854	0.238528
768.357757	0.238488
768.552642	0.238367
768.747508	0.238455
768.942356	0.238485
769.137186	0.238028
769.331998	0.238051
769.526792	0.237902
769.721567	0.237215
769.916324	0.237188
770.111063	0.237122
770.305784	0.237034
770.500486	0.236899
770.695171	0.236680
770.889837	0.236954
771.084484	0.237213
771.279114	0.237253
771.473725	0.237468
771.668318	0.237622
771.862893	0.237633
772.057450	0.237675
772.251988	0.237857
772.446509	0.237897
772.641011	0.237416
772.835494	0.236908
773.029960	0.236783
773.224407	0.236860
773.418836	0.236611
773.613247	0.236598
773.807640	0.236453
774.002014	0.236401
774.196370	0.236485
774.390708	0.236866
774.585028	0.236871
774.779330	0.237133
774.973613	0.237012
775.167878	0.237085
775.362125	0.237244
775.556354	0.237631
775.750564	0.237671
775.944756	0.237549
776.138930	0.237605
776.333086	0.237915
776.527223	0.237723
776.721343	0.237847
776.915444	0.237917
777.109526	0.237735
777.303591	0.237583
777.497637	0.237629
777.691666	0.237706
777.885676	0.237357
778.079667	0.237223
778.273641	0.237255
778.467596	0.237231
778.661533	0.237096
778.855452	0.237239
779.049352	0.237128
779.243235	0.236864
779.437099	0.236889
779.630945	0.236905
779.824773	0.236913
780.018582	0.236857
780.212373	0.236858
780.406146	0.236871
780.599901	0.236710
780.793638	0.236752
780.987356	0.237185
781.181056	0.237250
781.374738	0.237808
781.568402	0.237869
781.762047	0.238053
781.955674	0.238010
782.149283	0.238004
782.342874	0.238207
782.536447	0.238144
782.730001	0.237963
782.923537	0.238100
783.117055	0.237871
783.310555	0.237796
783.504036	0.237678
783.697499	0.237949
783.890944	0.237850
784.084371	0.237944
784.277780	0.238122
784.471170	0.238107
784.664542	0.238032
784.857896	0.237981
785.051231	0.238062
785.244549	0.238122
785.437848	0.238090
785.631129	0.238158
785.824392	0.238126
786.017636	0.237966
786.210863	0.238182
786.404071	0.238119
786.597260	0.238194
786.790432	0.238345
786.983585	0.238440
787.176721	0.238341
787.369838	0.238526
787.562936	0.238679
787.756017	0.238908
787.949079	0.238879
788.142123	0.239096
788.335149	0.239002
788.528156	0.239112
788.721146	0.239293
788.914117	0.239356
789.107070	0.239376
789.300005	0.239373
789.492921	0.239664
789.685819	0.239848
789.878699	0.239885
790.071561	0.240299
790.264405	0.240558
790.457230	0.240394
790.650037	0.240657
790.842826	0.240815
791.035597	0.240869
791.228349	0.240617
791.421084	0.240516
791.613800	0.240668
791.806497	0.240700
791.999177	0.240597
792.191838	0.240796
792.384481	0.240845
792.577106	0.240692
792.769713	0.240923
792.962301	0.241148
793.154871	0.241281
793.347423	0.241127
793.539957	0.241300
793.732473	0.241451
793.924970	0.241471
794.117449	0.241609
794.309910	0.241885
794.502353	0.241721
794.694777	0.241836
794.887183	0.241727
795.079571	0.242014
795.271941	0.242031
795.464293	0.241883
795.656626	0.241941
795.848941	0.242078
796.041238	0.242208
796.233516	0.242285
796.425777	0.242736
796.618019	0.243167
796.810243	0.243284
797.002449	0.243326
797.194636	0.243746
797.386805	0.243897
797.578956	0.244036
797.771089	0.244389
797.963204	0.244625
798.155300	0.244452
798.347378	0.244496
798.539438	0.244683
798.731480	0.245152
798.923503	0.245276
799.115509	0.245738
799.307496	0.245827
799.499465	0.245975
799.691415	0.246370
799.883348	0.246751
800.075262	0.246872
800.267158	0.246974
800.459035	0.246925
800.650895	0.246954
800.842736	0.247149
801.034559	0.247238
801.226364	0.247543
801.418150	0.247464
801.609919	0.247286
801.801669	0.247406
801.993401	0.247633
802.185114	0.247812
802.376810	0.247889
802.568487	0.248223
802.760146	0.248841
802.951787	0.248727
803.143409	0.249005
803.335014	0.249381
803.526600	0.249813
803.718168	0.250123
803.909717	0.250130
804.101249	0.250351
804.292762	0.250385
804.484257	0.250166
804.675734	0.250655
804.867192	0.250837
805.058632	0.250945
805.250054	0.250958
805.441458	0.251020
805.632844	0.251281
805.824211	0.251522
806.015561	0.251586
806.206891	0.251981
806.398204	0.252121
806.589499	0.252458
806.780775	0.252739
806.972033	0.253089
807.163273	0.253391
807.354495	0.253782
807.545698	0.254123
807.736883	0.254456
807.928050	0.254461
808.119199	0.254711
808.310329	0.254884
808.501441	0.255164
808.692535	0.255327
808.883611	0.255410
809.074669	0.255437
809.265708	0.255479
809.456729	0.255461
809.647732	0.255636
809.838717	0.255903
810.029683	0.256206
810.220632	0.256352
810.411562	0.256491
810.602474	0.256568
810.793367	0.256889
810.984242	0.257073
811.175100	0.257448
811.365938	0.257759
811.556759	0.257778
811.747562	0.257812
811.938346	0.258177
812.129112	0.258698
812.319860	0.259274
812.510589	0.259317
812.701300	0.259755
812.891994	0.260193
813.082668	0.260476
813.273325	0.260626
813.463964	0.260775
813.654584	0.260860
813.845186	0.260952
814.035769	0.261192
814.226335	0.261609
814.416882	0.261935
814.607411	0.262290
814.797922	0.262629
814.988415	0.262953
815.178889	0.263405
815.369345	0.263747
815.559783	0.263792
815.750203	0.264003
815.940605	0.264454
816.130988	0.264860
816.321353	0.265054
816.511700	0.265408
816.702028	0.265540
816.892339	0.266076
817.082631	0.266389
817.272905	0.266965
817.463161	0.267238
817.653398	0.267503
817.843617	0.267732
818.033819	0.268053
818.224001	0.268459
818.414166	0.268991
818.604312	0.268944
818.794440	0.269416
818.984550	0.269575
819.174642	0.269956
819.364716	0.270306
819.554771	0.270383
819.744808	0.270748
819.934827	0.270644
820.124827	0.270680
820.314810	0.271025
820.504774	0.270849
820.694720	0.271153
820.884647	0.271325
821.074557	0.271454
821.264448	0.271845
821.454321	0.271756
821.644176	0.272114
821.834012	0.272448
822.023831	0.272357
822.213631	0.272829
822.403413	0.273087
822.593176	0.272954
822.782922	0.273024
822.972649	0.272994
823.162358	0.273446
823.352049	0.273775
823.541721	0.274189
823.731376	0.274702
823.921012	0.274739
824.110629	0.275343
824.300229	0.275917
824.489811	0.276599
824.679374	0.277295
824.868919	0.277509
825.058445	0.277656
825.247954	0.277958
825.437444	0.278342
825.626916	0.279202
825.816370	0.279172
826.005806	0.279275
826.195223	0.279222
826.384622	0.279141
826.574003	0.279356
826.763366	0.279642
826.952711	0.279694
827.142037	0.279912
827.331345	0.280142
827.520635	0.280504
827.709906	0.281198
827.899160	0.281711
828.088395	0.282231
828.277612	0.282621
828.466810	0.282975
828.655991	0.283581
828.845153	0.284127
829.034297	0.284418
829.223423	0.284856
829.412531	0.285035
829.601620	0.285240
829.790691	0.285411
829.979744	0.285817
830.168779	0.286208
830.357795	0.286475
830.546793	0.286820
830.735773	0.286944
830.924735	0.287054
831.113679	0.287453
831.302604	0.287896
831.491511	0.288335
831.680400	0.288632
831.869271	0.289203
832.058123	0.289424
832.246957	0.289763
832.435773	0.289984
832.624571	0.290521
832.813351	0.290980
833.002112	0.291571
833.190855	0.292119
833.379580	0.292516
833.568287	0.292718
833.756975	0.293483
833.945645	0.294071
834.134297	0.294901
834.322931	0.295406
834.511547	0.295639
834.700144	0.295874
834.888723	0.296273
835.077284	0.296586
835.265826	0.297246
835.454351	0.297218
835.642857	0.297332
835.831345	0.297447
836.019815	0.297768
836.208266	0.298448
836.396699	0.298887
836.585114	0.298928
836.773511	0.299395
836.961890	0.299871
837.150250	0.300498
837.338592	0.300998
837.526916	0.301571
837.715222	0.301559
837.903510	0.301785
838.091779	0.302081
838.280030	0.302664
838.468263	0.303311
838.656477	0.303166
838.844674	0.303576
839.032852	0.303992
839.221012	0.304222
839.409153	0.304827
839.597277	0.305218
839.785382	0.305434
839.973469	0.305644
840.161538	0.305867
840.349589	0.306044
840.537621	0.306336
840.725635	0.306626
840.913631	0.306701
841.101609	0.306920
841.289568	0.307099
841.477509	0.307479
841.665432	0.308020
841.853337	0.307960
842.041224	0.308703
842.229092	0.309103
842.416942	0.309511
842.604774	0.310155
842.792588	0.310802
842.980383	0.311069
843.168160	0.311981
843.355919	0.312474
843.543660	0.312935
843.731382	0.313336
843.919087	0.313561
844.106773	0.313638
844.294441	0.314043
844.482090	0.314640
844.669722	0.315045
844.857335	0.315295
845.044930	0.315910
845.232507	0.316600
845.420065	0.317121
845.607605	0.317661
845.795127	0.318373
845.982631	0.318762
846.170117	0.319101
846.357584	0.319544
846.545033	0.319539
846.732464	0.319456
846.919877	0.319834
847.107272	0.320146
847.294648	0.320343
847.482006	0.320747
847.669346	0.320941
847.856667	0.321060
848.043971	0.321545
848.231256	0.322068
848.418523	0.322543
848.605771	0.322783
848.793002	0.323176
848.980214	0.323527
849.167408	0.323770
849.354584	0.324206
849.541742	0.324797
849.728881	0.325179
849.916002	0.325339
850.103105	0.325696
850.290190	0.325894
850.477256	0.326255
850.664304	0.326645
850.851334	0.326800
851.038346	0.327006
851.225340	0.327151
851.412315	0.327540
851.599272	0.327989
851.786211	0.328161
851.973132	0.328314
852.160034	0.328313
852.346918	0.328633
852.533784	0.329384
852.720632	0.329749
852.907462	0.329758
853.094273	0.330093
853.281066	0.330452
853.467841	0.331236
853.654598	0.331758
853.841336	0.332464
854.028056	0.333164
854.214758	0.333102
854.401442	0.333559
854.588107	0.334441
854.774755	0.334540
854.961384	0.334845
855.147995	0.334962
855.334587	0.335545
855.521162	0.335616
855.707718	0.335569
855.894256	0.336138
856.080775	0.336592
856.267277	0.336532
856.453760	0.337257
856.640225	0.337609
856.826672	0.338260
857.013101	0.338272
857.199511	0.338493
857.385903	0.339046
857.572277	0.339076
857.758633	0.339379
857.944970	0.339925
858.131290	0.340210
858.317591	0.340605
858.503873	0.340851
858.690138	0.341542
858.876384	0.341919
859.062612	0.342050
859.248822	0.342311
859.435014	0.342865
859.621188	0.343044
859.807343	0.343118
859.993480	0.343391
860.179599	0.343848
860.365699	0.344272
860.551781	0.344576
860.737846	0.344851
860.923891	0.345614
861.109919	0.345750
861.295929	0.346312
861.481920	0.346974
861.667893	0.347338
861.853848	0.347423
862.039784	0.347477
862.225702	0.348092
862.411603	0.348734
862.597484	0.349082
862.783348	0.349633
862.969193	0.349754
863.155021	0.349935
863.340830	0.350331
863.526620	0.350299
863.712393	0.350777
863.898147	0.350928
864.083883	0.351192
864.269601	0.351543
864.455301	0.351938
864.640982	0.352248
864.826645	0.352796
865.012290	0.352979
865.197917	0.353419
865.383526	0.353558
865.569116	0.353772
865.754688	0.353934
865.940242	0.353860
866.125777	0.353486
866.311295	0.353607
866.496794	0.353467
866.682275	0.353527
866.867737	0.353704
867.053182	0.353727
867.238608	0.354542
867.424016	0.354923
867.609406	0.355649
867.794778	0.356588
867.980131	0.356982
868.165466	0.357529
868.350783	0.357987
868.536082	0.358253
868.721362	0.359235
868.906625	0.358940
869.091869	0.358740
869.277094	0.358400
869.462302	0.358188
869.647491	0.358403
869.832662	0.358218
870.017815	0.358536
870.202950	0.358883
870.388066	0.358394
870.573165	0.358603
870.758245	0.359502
870.943306	0.360174
871.128350	0.360807
871.313375	0.361554
871.498382	0.362325
871.683371	0.362666
871.868342	0.363487
872.053294	0.364628
872.238229	0.365417
872.423144	0.365647
872.608042	0.365599
872.792922	0.365838
872.977783	0.365512
873.162626	0.365748
873.347451	0.365818
873.532258	0.365476
873.717046	0.365376
873.901816	0.365202
874.086568	0.365287
874.271302	0.365596
874.456017	0.365382
874.640715	0.365364
874.825394	0.365039
875.010055	0.365119
875.194697	0.365292
875.379322	0.365065
875.563928	0.365303
875.748516	0.365675
875.933085	0.365331
876.117637	0.365490
876.302170	0.365839
876.486685	0.366083
876.671182	0.366426
876.855661	0.366850
877.040121	0.367094
877.224563	0.367579
877.408987	0.367328
877.593393	0.368486
877.777780	0.368925
877.962150	0.369198
878.146501	0.369753
878.330833	0.370136
878.515148	0.370165
878.699444	0.370729
878.883722	0.370266
879.067982	0.370497
879.252224	0.370139
879.436447	0.369973
879.620653	0.370174
879.804840	0.370254
879.989008	0.370168
880.173159	0.370473
880.357291	0.370644
880.541405	0.371161
880.725501	0.371860
880.909579	0.372029
881.093638	0.372250
881.277680	0.372263
881.461703	0.372323
881.645707	0.372463
881.829694	0.372599
882.013662	0.372143
882.197612	0.372067
882.381544	0.371974
882.565458	0.372139
882.749353	0.372414
882.933230	0.372541
883.117089	0.372345
883.300930	0.372341
883.484753	0.372464
883.668557	0.373213
883.852343	0.373663
884.036111	0.373401
884.219861	0.373310
884.403592	0.373430
884.587305	0.373785
884.771000	0.373917
884.954677	0.373918
885.138335	0.373895
885.321976	0.373671
885.505598	0.373663
885.689201	0.373749
885.872787	0.374117
886.056354	0.374187
886.239904	0.374412
886.423434	0.374867
886.606947	0.375454
886.790442	0.375392
886.973918	0.375595
887.157376	0.375412
887.340816	0.375270
887.524237	0.374778
887.707641	0.374303
887.891026	0.373963
888.074393	0.373537
888.257741	0.374053
888.441072	0.373797
888.624384	0.373672
888.807678	0.374072
888.990954	0.374275
889.174211	0.374389
889.357451	0.375249
889.540672	0.375452
889.723875	0.375508
889.907059	0.374665
890.090226	0.374931
890.273374	0.374458
890.456504	0.374048
890.639616	0.373830
890.822709	0.373563
891.005785	0.372952
891.188842	0.373293
891.371881	0.373334
891.554901	0.373277
891.737904	0.372917
891.920888	0.373117
892.103854	0.373069
892.286802	0.372682
892.469731	0.373121
892.652643	0.372997
892.835536	0.372248
893.018410	0.372063
893.201267	0.371807
893.384106	0.372274
893.566926	0.372473
893.749728	0.372424
893.932511	0.372127
894.115277	0.372048
894.298024	0.372164
894.480753	0.372076
894.663464	0.372316
894.846157	0.372950
895.028831	0.372287
895.211487	0.371881
895.394125	0.372153
895.576745	0.373214
895.759346	0.373373
895.941930	0.372955
896.124495	0.372905
896.307041	0.372760
896.489570	0.372397
896.672080	0.372465
896.854573	0.372106
897.037046	0.372214
897.219502	0.371296
897.401940	0.371108
897.584359	0.371485
897.766760	0.371186
897.949143	0.370907
898.131507	0.370371
898.313854	0.370467
898.496182	0.370816
898.678492	0.369987
898.860783	0.369882
899.043057	0.369492
899.225312	0.369490
899.407549	0.369617
899.589768	0.369368
899.771968	0.368948
899.954151	0.368883
900.136315	0.368700
900.318461	0.368816
900.500588	0.368510
900.682698	0.368769
900.864789	0.368238
901.046862	0.367898
901.228917	0.368104
901.410953	0.368299
901.592971	0.367770
901.774972	0.367512
901.956953	0.366839
902.138917	0.367113
902.320862	0.366365
902.502790	0.366045
902.684699	0.365897
902.866589	0.365509
903.048462	0.364916
903.230316	0.364490
903.412152	0.364241
903.593970	0.364202
903.775770	0.363992
903.957551	0.363496
904.139314	0.362893
904.321059	0.362588
904.502786	0.361545
904.684494	0.361025
904.866185	0.360599
905.047857	0.359561
905.229510	0.358767
905.411146	0.358499
905.592763	0.358831
905.774363	0.358807
905.955943	0.357898
906.137506	0.357594
906.319051	0.357217
906.500577	0.357375
906.682085	0.357558
906.863575	0.357369
907.045046	0.356803
907.226500	0.355854
907.407935	0.355237
907.589352	0.355535
907.770750	0.355532
907.952131	0.355746
908.133493	0.355092
908.314837	0.354471
908.496163	0.354399
908.677470	0.353763
908.858760	0.353514
909.040031	0.353568
909.221284	0.352663
909.402518	0.352400
909.583735	0.351830
909.764933	0.351471
909.946113	0.351134
910.127275	0.351013
910.308418	0.350480
910.489544	0.350002
910.670651	0.349765
910.851740	0.349311
911.032810	0.348501
911.213863	0.348376
911.394897	0.347717
911.575913	0.347009
911.756911	0.345917
911.937890	0.345667
912.118851	0.344904
912.299794	0.344372
912.480719	0.344186
912.661626	0.344055
912.842514	0.343968
913.023384	0.343395
913.204236	0.343827
913.385070	0.343288
913.565886	0.343239
913.746683	0.343584
913.927462	0.342650
914.108223	0.342586
914.288965	0.341751
914.469690	0.340543
914.650396	0.340440
914.831084	0.339334
915.011754	0.339178
915.192405	0.338532
915.373038	0.337273
915.553653	0.336917
915.734250	0.336447
915.914829	0.336459
916.095389	0.336024
916.275931	0.335519
916.456455	0.335308
916.636961	0.335395
916.817448	0.334473
916.997917	0.333985
917.178368	0.333028
917.358801	0.332121
917.539216	0.331296
917.719612	0.330044
917.899990	0.329211
918.080350	0.328847
918.260692	0.327581
918.441015	0.327133
918.621320	0.325970
918.801607	0.325701
918.981876	0.325417
919.162127	0.324994
919.342359	0.324801
919.522573	0.324416
919.702769	0.323770
919.882947	0.322935
920.063106	0.322427
920.243247	0.322473
920.423370	0.321354
920.603475	0.320293
920.783562	0.319410
920.963630	0.319218
921.143680	0.318290
921.323712	0.316837
921.503725	0.316293
921.683721	0.315834
921.863698	0.315344
922.043657	0.314496
922.223598	0.314178
922.403520	0.313140
922.583424	0.311926
922.763311	0.311546
922.943178	0.310401
923.123028	0.309976
923.302859	0.308671
923.482673	0.307850
923.662467	0.307637
923.842244	0.306714
924.022003	0.306448
924.201743	0.305601
924.381465	0.304670
924.561169	0.304510
924.740854	0.303436
924.920522	0.302900
925.100171	0.302023
925.279802	0.301100
925.459414	0.300331
925.639009	0.299139
925.818585	0.298798
925.998143	0.298390
926.177683	0.297660
926.357205	0.297094
926.536708	0.296428
926.716193	0.295665
926.895660	0.294774
927.075109	0.293778
927.254539	0.294175
927.433951	0.293297
927.613345	0.292365
927.792721	0.291378
927.972079	0.290222
928.151418	0.289999
928.330739	0.289198
928.510042	0.289068
928.689327	0.288080
928.868593	0.285493
929.047841	0.285261
929.227071	0.283896
929.406283	0.283500
929.585476	0.282754
929.764652	0.281470
929.943809	0.280429
930.122948	0.279651
930.302068	0.279275
930.481171	0.280288
930.660255	0.277976
930.839321	0.277568
931.018369	0.276228
931.197398	0.275786
931.376409	0.274545
931.555402	0.274418
931.734377	0.273218
931.913334	0.271307
932.092272	0.269308
932.271192	0.269471
932.450094	0.268086
932.628978	0.268589
932.807844	0.267650
932.986691	0.266946
933.165520	0.265835
933.344331	0.265044
933.523123	0.265235
933.701898	0.264531
933.880654	0.264105
934.059392	0.263658
934.238111	0.261209
934.416813	0.260357
934.595496	0.259241
934.774161	0.258109
934.952808	0.257582
935.131437	0.256712
935.310047	0.256465
935.488639	0.255713
935.667213	0.254537
935.845769	0.254819
936.024306	0.253435
936.202825	0.252702
936.381326	0.251420
936.559809	0.250262
936.738274	0.248727
936.916720	0.247688
937.095148	0.245322
937.273558	0.245220
937.451950	0.242814
937.630323	0.241925
937.808678	0.240318
937.987015	0.240019
938.165334	0.238658
938.343635	0.237804
938.521917	0.236084
938.700181	0.236036
938.878427	0.234164
939.056655	0.233938
939.234864	0.233470
939.413055	0.233247
939.591228	0.232217
939.769383	0.231197
939.947519	0.230823
940.125638	0.230660
940.303738	0.229670
940.481820	0.228040
940.659883	0.226323
940.837929	0.224126
941.015956	0.223372
941.193965	0.222320
941.371955	0.222072
941.549928	0.220975
941.727882	0.218566
941.905818	0.216926
942.083736	0.217180
942.261636	0.217185
942.439517	0.218593
942.617380	0.217479
942.795225	0.216206
942.973052	0.215984
943.150860	0.215401
943.328651	0.215661
943.506423	0.214801
943.684176	0.213885
943.861912	0.212979
944.039629	0.210285
944.217328	0.209428
944.395009	0.208423
944.572672	0.206059
944.750317	0.203907
944.927943	0.202265
945.105551	0.202114
945.283141	0.200504
945.460712	0.198572
945.638265	0.197857
945.815801	0.196919
945.993317	0.195836
946.170816	0.193980
946.348297	0.193226
946.525759	0.192532
946.703203	0.191202
946.880629	0.189669
947.058036	0.189882
947.235425	0.189567
947.412797	0.188860
947.590149	0.188681
947.767484	0.188932
947.944800	0.188424
948.122099	0.186810
948.299379	0.184365
948.476640	0.185186
948.653884	0.183911
948.831109	0.182908
949.008316	0.180849
949.185505	0.179366
949.362676	0.178665
949.539828	0.179037
949.716962	0.177331
949.894078	0.176542
950.071176	0.175266
950.248256	0.172966
950.425317	0.172169
950.602360	0.172265
950.779385	0.171103
950.956391	0.170808
951.133380	0.167622
951.310350	0.168730
951.487302	0.168982
951.664235	0.164839
951.841151	0.166595
952.018048	0.165821
952.194927	0.163233
952.371788	0.163635
952.548631	0.160885
952.725455	0.160078
952.902261	0.157796
953.079049	0.157505
953.255819	0.159419
953.432570	0.156825
953.609303	0.154946
953.786018	0.155412
953.962715	0.153643
954.139394	0.153233
954.316054	0.152655
954.492696	0.153048
954.669320	0.152561
954.845926	0.152992
955.022513	0.152689
955.199083	0.154266
955.375634	0.155487
955.552166	0.155978
955.728681	0.156107
955.905177	0.158196
956.081655	0.158155
956.258115	0.158263
956.434557	0.157612
956.610980	0.157016
956.787385	0.154395
956.963772	0.152624
957.140141	0.150274
957.316492	0.148191
957.492824	0.146175
957.669138	0.146994
957.845434	0.145347
958.021712	0.142099
958.197971	0.140004
958.374212	0.138653
958.550435	0.137079
958.726640	0.138342
958.902826	0.140087
959.078995	0.137499
959.255145	0.132473
959.431277	0.130165
959.607390	0.129371
959.783486	0.130437
959.959563	0.131192
960.135622	0.130332
960.311662	0.128743
960.487685	0.126720
960.663689	0.128522
960.839675	0.129953
961.015643	0.132512
961.191593	0.133690
961.367524	0.133638
961.543437	0.134634
961.719332	0.137280
961.895209	0.138163
962.071067	0.140645
962.246907	0.139740
962.422730	0.139023
962.598533	0.138407
962.774319	0.140400
962.950086	0.140094
963.125835	0.136195
963.301566	0.134100
963.477279	0.134747
963.652973	0.132040
963.828650	0.132141
964.004308	0.133769
964.179947	0.132092
964.355569	0.127953
964.531172	0.126865
964.706757	0.128439
964.882324	0.128103
965.057873	0.124908
965.233403	0.124249
965.408916	0.123860
965.584410	0.123469
965.759885	0.123307
965.935343	0.123582
966.110782	0.125280
966.286203	0.125090
966.461606	0.126730
966.636991	0.126309
966.812357	0.127688
966.987705	0.127757
967.163035	0.127434
967.338347	0.129490
967.513641	0.130205
967.688916	0.129533
967.864173	0.129656
968.039412	0.128232
968.214632	0.129740
968.389835	0.129764
968.565019	0.128424
968.740185	0.126608
968.915333	0.126007
969.090462	0.127256
969.265573	0.127254
969.440667	0.126632
969.615741	0.127745
969.790798	0.128482
969.965836	0.127982
970.140856	0.129046
970.315858	0.130566
970.490842	0.130783
970.665808	0.130475
970.840755	0.131763
971.015684	0.131345
971.190595	0.129893
971.365487	0.129792
971.540362	0.128918
971.715218	0.129003
971.890056	0.130618
972.064875	0.128472
972.239677	0.129737
972.414460	0.129014
972.589225	0.130935
972.763972	0.131636
972.938700	0.129463
973.113411	0.130140
973.288103	0.129796
973.462777	0.129497
973.637432	0.130580
973.812070	0.130190
973.986689	0.129687
974.161290	0.128470
974.335873	0.127776
974.510437	0.129932
974.684984	0.129149
974.859512	0.129638
975.034022	0.129690
975.208513	0.131740
975.382987	0.130935
975.557442	0.130572
975.731879	0.131551
975.906298	0.133254
976.080698	0.131408
976.255080	0.131972
976.429445	0.134080
976.603790	0.134295
976.778118	0.131233
976.952427	0.131969
977.126719	0.131432
977.300992	0.129562
977.475246	0.127289
977.649483	0.128715
977.823701	0.130966
977.997901	0.126431
978.172083	0.124197
978.346247	0.124549
978.520392	0.124319
978.694519	0.125265
978.868628	0.126301
979.042719	0.127263
979.216791	0.129022
979.390845	0.125900
979.564882	0.127411
979.738899	0.127276
979.912899	0.128646
980.086880	0.130489
980.260843	0.131347
980.434788	0.133600
980.608715	0.133910
980.782623	0.130490
980.956514	0.129520
981.130386	0.129870
981.304240	0.130427
981.478075	0.131139
981.651892	0.129169
981.825692	0.128145
981.999472	0.126077
982.173235	0.125826
982.346980	0.125797
982.520706	0.129084
982.694414	0.129221
982.868104	0.129900
983.041775	0.129881
983.215428	0.129631
983.389064	0.128680
983.562680	0.126660
983.736279	0.127526
983.909860	0.131551
984.083422	0.132072
984.256966	0.133489
984.430491	0.135356
984.603999	0.134070
984.777488	0.133760
984.950959	0.136925
985.124412	0.138646
985.297847	0.138087
985.471263	0.135277
985.644661	0.134184
985.818041	0.132426
985.991403	0.131300
986.164747	0.130497
986.338072	0.131295
986.511379	0.129586
986.684668	0.129562
986.857938	0.129732
987.031191	0.130737
987.204425	0.131561
987.377641	0.131089
987.550839	0.129827
987.724018	0.129492
987.897179	0.127903
988.070322	0.126335
988.243447	0.125710
988.416554	0.124008
988.589642	0.123253
988.762712	0.122626
988.935764	0.122825
989.108798	0.123700
989.281813	0.124983
989.454811	0.126017
989.627790	0.127917
989.800751	0.129461
989.973693	0.131763
990.146617	0.130549
990.319524	0.129407
990.492412	0.130523
990.665281	0.130683
990.838133	0.130560
991.010966	0.130288
991.183781	0.129390
991.356578	0.129645
991.529356	0.130334
991.702117	0.133016
991.874859	0.133923
992.047583	0.133241
992.220288	0.132408
992.392976	0.131137
992.565645	0.132355
992.738296	0.132636
992.910929	0.130958
993.083543	0.128459
993.256139	0.128294
993.428718	0.127077
993.601277	0.126817
993.773819	0.129427
993.946342	0.130795
994.118848	0.130500
994.291335	0.132284
994.463803	0.132899
994.636254	0.133795
994.808686	0.130424
994.981100	0.132087
995.153496	0.132488
995.325874	0.131978
995.498233	0.130805
995.670574	0.132293
995.842897	0.129636
996.015202	0.130541
996.187488	0.130740
996.359757	0.133167
996.532007	0.132852
996.704239	0.134857
996.876452	0.134215
997.048648	0.134798
997.220825	0.132255
997.392984	0.131934
997.565124	0.129848
997.737247	0.130361
997.909351	0.130868
998.081437	0.130608
998.253505	0.127873
998.425554	0.127744
998.597586	0.126813
998.769599	0.126955
998.941594	0.127450
999.113571	0.128314
999.285529	0.127109
999.457469	0.125490
999.629391	0.127202
999.801295	0.126638
999.973181	0.125574
1000.145048	0.126972
1000.316897	0.128022
1000.488728	0.128813
1000.660541	0.128985
1000.832335	0.129340
1001.004111	0.131178
1001.175869	0.128180
1001.347609	0.130435
1001.519331	0.128513
1001.691034	0.127647
1001.862719	0.126153
1002.034386	0.125457
1002.206035	0.126609
1002.377665	0.126283
1002.549277	0.124630
1002.720871	0.124596
1002.892447	0.123375
1003.064004	0.127374
1003.235544	0.127440
1003.407065	0.129146
1003.578568	0.130540
1003.750052	0.129313
1003.921519	0.128945
1004.092967	0.128458
1004.264397	0.129711
1004.435809	0.128961
1004.607202	0.127033
1004.778577	0.127599
1004.949934	0.125663
1005.121273	0.125143
1005.292594	0.125372
1005.463896	0.124120
1005.635180	0.125684
1005.806446	0.126217
1005.977694	0.128868
1006.148923	0.126655
1006.320135	0.125754
1006.491328	0.125248
1006.662503	0.123088
1006.833659	0.123447
1007.004798	0.125253
1007.175918	0.123993
1007.347020	0.123783
1007.518103	0.120888
1007.689169	0.121527
1007.860216	0.122826
1008.031245	0.123436
1008.202256	0.125397
1008.373248	0.124275
1008.544223	0.124550
1008.715179	0.125950
1008.886117	0.124950
1009.057036	0.125288
1009.227938	0.127186
1009.398821	0.125127
1009.569686	0.124542
1009.740533	0.124634
1009.911361	0.124534
1010.082172	0.124930
1010.252964	0.124946
1010.423738	0.126636
1010.594493	0.128326
1010.765231	0.127796
1010.935950	0.128985
1011.106651	0.129184
1011.277334	0.128730
1011.447998	0.128942
1011.618645	0.128604
1011.789273	0.127070
1011.959882	0.124174
1012.130474	0.124432
1012.301048	0.124988
1012.471603	0.124473
1012.642140	0.124498
1012.812658	0.124459
1012.983159	0.123698
1013.153641	0.123402
1013.324105	0.125048
1013.494551	0.125293
1013.664979	0.124131
1013.835388	0.123618
1014.005779	0.123650
1014.176152	0.125347
1014.346507	0.125022
1014.516843	0.127505
1014.687162	0.128134
1014.857462	0.126529
1015.027744	0.128988
1015.198007	0.128772
1015.368252	0.128726
1015.538480	0.129311
1015.708689	0.128680
1015.878879	0.129186
1016.049052	0.128092
1016.219206	0.125752
1016.389342	0.124609
1016.559460	0.123024
1016.729559	0.123746
1016.899641	0.124585
1017.069704	0.124765
1017.239749	0.124481
1017.409775	0.123348
1017.579784	0.120097
1017.749774	0.121322
1017.919746	0.122689
1018.089700	0.122816
1018.259635	0.123065
1018.429553	0.122580
1018.599452	0.122858
1018.769333	0.124126
1018.939195	0.123113
1019.109040	0.126149
1019.278866	0.125785
1019.448674	0.126126
1019.618464	0.125454
1019.788235	0.124909
1019.957989	0.123220
1020.127724	0.124163
1020.297441	0.123040
1020.467139	0.125630
1020.636820	0.125944
1020.806482	0.126627
1020.976126	0.126226
1021.145752	0.126024
1021.315359	0.126271
1021.484948	0.126382
1021.654519	0.125176
1021.824072	0.123700
1021.993607	0.122590
1022.163123	0.121610
1022.332621	0.120191
1022.502101	0.121706
1022.671563	0.122868
1022.841007	0.123158
1023.010432	0.124441
1023.179839	0.123588
1023.349228	0.125027
1023.518598	0.125047
1023.687951	0.125577
1023.857285	0.125701
1024.026601	0.124103
1024.195899	0.122898
1024.365178	0.122823
1024.534439	0.121879
1024.703682	0.123050
1024.872907	0.122663
1025.042114	0.122905
1025.211302	0.121690
1025.380472	0.122338
1025.549624	0.123131
1025.718758	0.123445
1025.887873	0.122619
1026.056970	0.123497
1026.226049	0.122667
1026.395110	0.123098
1026.564153	0.122843
1026.733177	0.124027
1026.902183	0.124112
1027.071171	0.122694
1027.240141	0.123045
1027.409092	0.124648
1027.578026	0.123881
1027.746940	0.122720
1027.915837	0.123793
1028.084716	0.124550
1028.253576	0.126116
1028.422418	0.127129
1028.591242	0.127114
1028.760048	0.125680
1028.928835	0.124580
1029.097604	0.124450
1029.266355	0.126044
1029.435088	0.125331
1029.603803	0.124960
1029.772499	0.123054
1029.941177	0.121277
1030.109837	0.119982
1030.278478	0.121080
1030.447102	0.119680
1030.615707	0.121683
1030.784294	0.121356
1030.952863	0.120545
1031.121413	0.120155
1031.289945	0.120330
1031.458460	0.120943
1031.626955	0.124173
1031.795433	0.125983
1031.963892	0.126165
1032.132334	0.123830
1032.300756	0.122252
1032.469161	0.120441
1032.637548	0.121052
1032.805916	0.119670
1032.974266	0.119816
1033.142598	0.118489
1033.310911	0.117435
1033.479207	0.117136
1033.647484	0.117087
1033.815743	0.118499
1033.983983	0.121779
1034.152206	0.120205
1034.320410	0.120516
1034.488596	0.119101
1034.656764	0.120922
1034.824914	0.121639
1034.993045	0.122060
1035.161158	0.123340
1035.329253	0.122578
1035.497330	0.120047
1035.665388	0.119232
1035.833428	0.119327
1036.001450	0.121375
1036.169454	0.119583
1036.337440	0.119091
1036.505407	0.120347
1036.673356	0.119877
1036.841287	0.119393
1037.009200	0.120823
1037.177094	0.121503
1037.344970	0.121922
1037.512828	0.120779
1037.680668	0.120377
1037.848489	0.121249
1038.016293	0.120277
1038.184078	0.119510
1038.351845	0.119854
1038.519593	0.120304
1038.687324	0.122357
1038.855036	0.121964
1039.022730	0.120778
1039.190406	0.120276
1039.358063	0.118470
1039.525702	0.119602
1039.693323	0.120399
1039.860926	0.122056
1040.028511	0.120190
1040.196077	0.117630
1040.363625	0.118633
1040.531155	0.120596
1040.698667	0.120434
1040.866161	0.119964
1041.033636	0.118024
1041.201093	0.117261
1041.368532	0.115389
1041.535952	0.117781
1041.703355	0.119795
1041.870739	0.118749
1042.038105	0.117690
1042.205452	0.117685
1042.372782	0.117847
1042.540093	0.118430
1042.707386	0.118411
1042.874661	0.119113
1043.041918	0.116899
1043.209156	0.114628
1043.376376	0.113753
1043.543578	0.114243
1043.710762	0.115169
1043.877927	0.115256
1044.045074	0.115513
1044.212203	0.115520
1044.379314	0.114786
1044.546407	0.114602
1044.713481	0.117661
1044.880537	0.120639
1045.047575	0.120878
1045.214595	0.120900
1045.381596	0.121069
1045.548579	0.120806
1045.715544	0.121147
1045.882491	0.122675
1046.049420	0.123153
1046.216330	0.122801
1046.383222	0.121706
1046.550096	0.121570
1046.716951	0.120316
1046.883789	0.120572
1047.050608	0.120957
1047.217409	0.122876
1047.384192	0.121587
1047.550956	0.122886
1047.717703	0.122616
1047.884431	0.123144
1048.051140	0.123470
1048.217832	0.124992
1048.384505	0.124747
1048.551161	0.126406
1048.717798	0.124102
1048.884416	0.122995
1049.051017	0.122669
1049.217599	0.121493
1049.384163	0.122317
1049.550709	0.120908
1049.717237	0.121706
1049.883746	0.120159
1050.050237	0.119616
1050.216710	0.119581
1050.383165	0.120998
1050.549601	0.120116
1050.716019	0.121768
1050.882420	0.120215
1051.048801	0.119046
1051.215165	0.118547
1051.381510	0.118609
1051.547837	0.117420
1051.714146	0.119930
1051.880437	0.119722
1052.046709	0.119963
1052.212964	0.118472
1052.379200	0.119181
1052.545417	0.121465
1052.711617	0.121192
1052.877798	0.123053
1053.043961	0.123191
1053.210106	0.119260
1053.376233	0.120242
1053.542341	0.120176
1053.708432	0.121909
1053.874504	0.120039
1054.040557	0.119853
1054.206593	0.118896
1054.372610	0.119342
1054.538609	0.117902
1054.704590	0.119094
1054.870553	0.118321
1055.036497	0.115553
1055.202424	0.113484
1055.368331	0.114999
1055.534221	0.113426
1055.700093	0.115389
1055.865946	0.114079
1056.031781	0.114537
1056.197598	0.115798
1056.363397	0.115847
1056.529177	0.120016
1056.694939	0.120786
1056.860683	0.121596
1057.026409	0.123429
1057.192116	0.124042
1057.357806	0.123380
1057.523477	0.123079
1057.689130	0.122349
1057.854764	0.123557
1058.020381	0.122401
1058.185979	0.120806
1058.351559	0.120422
1058.517120	0.119999
1058.682664	0.118391
1058.848189	0.120763
1059.013696	0.121775
1059.179185	0.121064
1059.344656	0.119862
1059.510108	0.119369
1059.675542	0.120858
1059.840958	0.119279
1060.006356	0.120317
1060.171735	0.118911
1060.337096	0.117168
1060.502439	0.117985
1060.667764	0.118758
1060.833071	0.119145
1060.998359	0.118323
1061.163629	0.118713
1061.328881	0.117261
1061.494115	0.116882
1061.659330	0.116400
1061.824527	0.117306
1061.989706	0.116577
1062.154867	0.116000
1062.320010	0.116943
1062.485134	0.117442
1062.650240	0.116801
1062.815328	0.120324
1062.980398	0.118948
1063.145449	0.121767
1063.310482	0.121285
1063.475497	0.119296
1063.640494	0.118252
1063.805473	0.119406
1063.970433	0.120867
1064.135375	0.121501
1064.300299	0.121039
1064.465204	0.123120
1064.630092	0.122484
1064.794961	0.122933
1064.959812	0.124024
1065.124645	0.123193
1065.289459	0.120577
1065.454256	0.121916
1065.619034	0.121674
1065.783793	0.120936
1065.948535	0.121254
1066.113258	0.121285
1066.277964	0.123056
1066.442651	0.124795
1066.607319	0.127298
1066.771970	0.128363
1066.936602	0.124110
1067.101216	0.122782
1067.265812	0.122692
1067.430389	0.121094
1067.594949	0.122013
1067.759490	0.118796
1067.924013	0.117601
1068.088518	0.117832
1068.253004	0.116642
1068.417472	0.118423
1068.581922	0.122003
1068.746354	0.122654
1068.910768	0.124138
1069.075163	0.122557
1069.239540	0.123159
1069.403899	0.123150
1069.568240	0.124139
1069.732562	0.123636
1069.896866	0.123130
1070.061152	0.119553
1070.225420	0.120524
1070.389670	0.119466
1070.553901	0.118574
1070.718114	0.119591
1070.882309	0.118608
1071.046486	0.120910
1071.210644	0.121948
1071.374784	0.123411
1071.538906	0.123888
1071.703010	0.121603
1071.867096	0.121979
1072.031163	0.121555
1072.195212	0.122111
1072.359243	0.124030
1072.523256	0.120597
1072.687250	0.119753
1072.851226	0.119696
1073.015184	0.117914
1073.179124	0.118549
1073.343045	0.114773
1073.506949	0.115233
1073.670834	0.113133
1073.834701	0.114420
1073.998549	0.114485
1074.162380	0.116357
1074.326192	0.113849
1074.489986	0.115862
1074.653761	0.116057
1074.817519	0.119470
1074.981258	0.122037
1075.144979	0.122598
1075.308682	0.120581
1075.472367	0.122532
1075.636033	0.120371
1075.799681	0.121558
1075.963311	0.124189
1076.126923	0.122126
1076.290516	0.122510
1076.454092	0.117559
1076.617649	0.116498
1076.781187	0.117414
1076.944708	0.117076
1077.108210	0.118359
1077.271695	0.118795
1077.435160	0.116251
1077.598608	0.117188
1077.762038	0.118710
1077.925449	0.120448
1078.088842	0.123515
1078.252217	0.123063
1078.415573	0.120551
1078.578912	0.122507
1078.742232	0.121495
1078.905534	0.121546
1079.068817	0.123139
1079.232083	0.121775
1079.395330	0.122247
1079.558559	0.122299
1079.721770	0.122727
1079.884962	0.123250
1080.048136	0.122256
1080.211293	0.125103
1080.374430	0.126898
1080.537550	0.127248
1080.700651	0.129112
1080.863735	0.128899
1081.026800	0.127409
1081.189846	0.126298
1081.352875	0.124653
1081.515885	0.123359
1081.678877	0.122801
1081.841851	0.119800
1082.004807	0.119393
1082.167744	0.119579
1082.330663	0.122380
1082.493564	0.120482
1082.656447	0.118974
1082.819312	0.124128
1082.982158	0.124473
1083.144986	0.122723
1083.307796	0.126263
1083.470587	0.126724
1083.633361	0.124622
1083.796116	0.122364
1083.958853	0.124367
1084.121571	0.125569
1084.284272	0.121020
1084.446954	0.120026
1084.609618	0.121139
1084.772264	0.121431
1084.934892	0.120524
1085.097501	0.119910
1085.260092	0.119809
1085.422665	0.119004
1085.585220	0.117759
1085.747756	0.118908
1085.910274	0.121915
1086.072774	0.120960
1086.235256	0.117317
1086.397720	0.116338
1086.560165	0.113636
1086.722592	0.114718
1086.885001	0.117361
1087.047392	0.118263
1087.209764	0.118330
1087.372119	0.117668
1087.534455	0.120065
1087.696772	0.120566
1087.859072	0.122066
1088.021353	0.124424
1088.183616	0.122443
1088.345861	0.120490
1088.508088	0.121704
1088.670296	0.120190
1088.832486	0.119470
1088.994658	0.118309
1089.156812	0.117441
1089.318948	0.116014
1089.481065	0.115792
1089.643164	0.118202
1089.805245	0.118444
1089.967308	0.121493
1090.129352	0.125038
1090.291378	0.122983
1090.453386	0.125444
1090.615376	0.127989
1090.777347	0.130746
1090.939301	0.132471
1091.101236	0.129992
1091.263153	0.130054
1091.425051	0.127077
1091.586932	0.123894
1091.748794	0.126835
1091.910638	0.121517
1092.072463	0.117991
1092.234271	0.116221
1092.396060	0.117547
1092.557831	0.119066
1092.719584	0.116293
1092.881319	0.113911
1093.043035	0.116990
1093.204733	0.115695
1093.366413	0.118358
1093.528075	0.120254
1093.689718	0.119369
1093.851343	0.121335
1094.012950	0.125484
1094.174539	0.127271
1094.336110	0.131418
1094.497662	0.129556
1094.659196	0.133481
1094.820712	0.134228
1094.982210	0.134596
1095.143689	0.137732
1095.305151	0.133646
1095.466594	0.130822
1095.628018	0.133792
1095.789425	0.131992
1095.950813	0.129772
1096.112183	0.125103
1096.273535	0.123002
1096.434869	0.123410
1096.596184	0.119993
1096.757482	0.120881
1096.918761	0.120875
1097.080021	0.117091
1097.241264	0.117694
1097.402488	0.118909
1097.563694	0.117179
1097.724882	0.120439
1097.886052	0.121852
1098.047203	0.120493
1098.208336	0.120809
1098.369451	0.120374
1098.530548	0.123521
1098.691627	0.124885
1098.852687	0.125351
1099.013729	0.123569
1099.174753	0.121743
1099.335758	0.119993
1099.496746	0.122267
1099.657715	0.121194
1099.818666	0.119403
1099.979599	0.115804
1100.140513	0.114224
1100.301409	0.114685
1100.462287	0.118976
1100.623147	0.116622
1100.783989	0.114262
1100.944812	0.110743
1101.105617	0.109111
1101.266404	0.112154
1101.427173	0.111713
1101.587923	0.109718
1101.748656	0.105877
1101.909370	0.105648
1102.070066	0.104211
1102.230743	0.107759
1102.391403	0.110155
1102.552044	0.114538
1102.712667	0.114024
1102.873271	0.110489
1103.033858	0.113625
1103.194426	0.118144
1103.354976	0.117218
1103.515508	0.117213
1103.676021	0.113058
1103.836517	0.114637
1103.996994	0.107070
1104.157453	0.105276
1104.317893	0.112082
1104.478316	0.108728
1104.638720	0.106855
1104.799106	0.107679
1104.959474	0.112044
1105.119823	0.113404
1105.280155	0.114754
1105.440468	0.117350
1105.600763	0.119382
1105.761039	0.118505
1105.921298	0.119689
1106.081538	0.123310
1106.241760	0.121785
1106.401964	0.118138
1106.562149	0.118970
1106.722316	0.114655
1106.882465	0.114964
1107.042596	0.111737
1107.202709	0.110426
1107.362803	0.109911
1107.522879	0.112156
1107.682937	0.113565
1107.842977	0.116260
1108.002999	0.121499
1108.163002	0.124564
1108.322987	0.128565
1108.482954	0.129525
1108.642902	0.133492
1108.802833	0.135367
1108.962745	0.127803
1109.122639	0.126323
1109.282515	0.125484
1109.442372	0.123617
1109.602211	0.125805
1109.762032	0.122750
1109.921835	0.121442
1110.081620	0.121679
1110.241386	0.120149
1110.401134	0.123111
1110.560864	0.122362
1110.720576	0.121885
1110.880269	0.116903
1111.039945	0.113236
1111.199602	0.113202
1111.359240	0.114528
1111.518861	0.114092
1111.678463	0.111166
1111.838047	0.110149
1111.997613	0.109765
1112.157161	0.116448
1112.316690	0.116922
1112.476202	0.117016
1112.635695	0.115384
1112.795169	0.117759
1112.954626	0.118850
1113.114064	0.123737
1113.273484	0.120357
1113.432886	0.122806
1113.592270	0.113129
1113.751635	0.115376
1113.910983	0.115144
1114.070312	0.111506
1114.229622	0.114131
1114.388915	0.108099
1114.548189	0.110492
1114.707445	0.115599
1114.866683	0.117982
1115.025903	0.123194
1115.185104	0.121936
1115.344287	0.121869
1115.503452	0.124428
1115.662599	0.118267
1115.821727	0.121937
1115.980838	0.117168
1116.139930	0.118718
1116.299004	0.116382
1116.458059	0.115386
1116.617097	0.113429
1116.776116	0.115315
1116.935117	0.120073
1117.094099	0.120712
1117.253064	0.121324
1117.412010	0.122303
1117.570938	0.118119
1117.729848	0.119436
1117.888740	0.115956
1118.047613	0.121920
1118.206468	0.118971
1118.365305	0.113826
1118.524124	0.113080
1118.682924	0.113846
1118.841707	0.115859
1119.000471	0.114625
1119.159216	0.116422
1119.317944	0.121346
1119.476653	0.119165
1119.635344	0.119152
1119.794017	0.128994
1119.952672	0.129462
1120.111308	0.126471
1120.269927	0.124300
1120.428527	0.127309
1120.587108	0.123891
1120.745672	0.115558
1120.904217	0.114386
1121.062744	0.112127
1121.221253	0.105209
1121.379744	0.105148
1121.538216	0.106515
1121.696671	0.109281
1121.855107	0.106318
1122.013524	0.109233
1122.171924	0.114229
1122.330305	0.116237
1122.488668	0.122683
1122.647013	0.124930
1122.805340	0.127072
1122.963648	0.124621
1123.121938	0.120286
1123.280210	0.118024
1123.438464	0.117732
1123.596700	0.119517
1123.754917	0.116177
1123.913116	0.113701
1124.071297	0.109968
1124.229459	0.107014
1124.387604	0.108995
1124.545730	0.112035
1124.703838	0.114872
1124.861928	0.111283
1125.019999	0.110324
1125.178052	0.115775
1125.336088	0.118535
1125.494104	0.118770
1125.652103	0.117582
1125.810083	0.117763
1125.968045	0.117616
1126.125989	0.120351
1126.283915	0.124995
1126.441823	0.127047
1126.599712	0.124440
1126.757583	0.121345
1126.915436	0.121237
1127.073270	0.123676
1127.231087	0.121098
1127.388885	0.116909
1127.546665	0.113642
1127.704426	0.109300
1127.862170	0.106310
1128.019895	0.101438
1128.177602	0.102522
1128.335291	0.106509
1128.492961	0.108326
1128.650614	0.102824
1128.808248	0.103093
1128.965864	0.102249
1129.123461	0.103193
1129.281041	0.104131
1129.438602	0.105342
1129.596145	0.106796
1129.753670	0.108803
1129.911176	0.104617
1130.068665	0.111427
1130.226135	0.111425
1130.383587	0.113267
1130.541020	0.111091
1130.698436	0.112480
1130.855833	0.114005
1131.013212	0.114705
1131.170573	0.109293
1131.327915	0.110960
1131.485239	0.103074
1131.642545	0.105490
1131.799833	0.106488
1131.957103	0.108116
1132.114354	0.106919
1132.271588	0.102967
1132.428803	0.097784
1132.585999	0.099658
1132.743178	0.099675
1132.900338	0.112487
1133.057480	0.116136
1133.214604	0.114878
1133.371710	0.110721
1133.528797	0.113371
1133.685866	0.116812
1133.842917	0.114789
1133.999950	0.115671
1134.156964	0.118414
1134.313960	0.115631
1134.470938	0.110703
1134.627898	0.105687
1134.784840	0.104093
1134.941763	0.096344
1135.098668	0.094274
1135.255555	0.095254
1135.412424	0.093622
1135.569274	0.087193
1135.726107	0.082877
1135.882921	0.087197
1136.039716	0.091286
1136.196494	0.099871
1136.353253	0.103742
1136.509995	0.108957
1136.666717	0.113576
1136.823422	0.109491
1136.980109	0.112313
1137.136777	0.118763
1137.293427	0.110845
1137.450059	0.105817
1137.606672	0.102639
1137.763267	0.097328
1137.919844	0.096109
1138.076403	0.095898
1138.232944	0.096702
1138.389466	0.098967
1138.545971	0.094685
1138.702457	0.095652
1138.858924	0.100716
1139.015374	0.094312
1139.171805	0.101329
1139.328218	0.105810
1139.484613	0.100978
1139.640990	0.107293
1139.797348	0.104743
1139.953688	0.100457
1140.110010	0.102697
1140.266314	0.102353
1140.422600	0.109684
1140.578867	0.106681
1140.735116	0.100871
1140.891347	0.105834
1141.047559	0.101743
1141.203754	0.105200
1141.359930	0.101498
1141.516088	0.100809
1141.672228	0.106427
1141.828349	0.102692
1141.984452	0.105832
1142.140537	0.106202
1142.296604	0.101053
1142.452653	0.101145
1142.608683	0.092678
1142.764695	0.099078
1142.920689	0.098693
1143.076665	0.093195
1143.232622	0.103126
1143.388562	0.098518
1143.544483	0.105441
1143.700385	0.106147
1143.856270	0.101459
1144.012136	0.104522
1144.167985	0.104567
1144.323814	0.109018
1144.479626	0.109991
1144.635420	0.106144
1144.791195	0.109653
1144.946952	0.099960
1145.102691	0.101704
1145.258411	0.104442
1145.414113	0.100841
1145.569798	0.101257
1145.725463	0.099999
1145.881111	0.100253
1146.036741	0.093383
1146.192352	0.096218
1146.347945	0.099124
1146.503519	0.103833
1146.659076	0.105169
1146.814614	0.117277
1146.970134	0.119160
1147.125636	0.116728
1147.281120	0.118372
1147.436585	0.121845
1147.592032	0.115819
1147.747461	0.114831
1147.902872	0.103728
1148.058265	0.097900
1148.213639	0.092361
1148.368995	0.096324
1148.524333	0.097469
1148.679653	0.092503
1148.834954	0.089404
1148.990237	0.088097
1149.145502	0.094424
1149.300749	0.093948
1149.455977	0.097894
1149.611188	0.102278
1149.766380	0.099096
1149.921553	0.091016
1150.076709	0.089991
1150.231846	0.091495
1150.386966	0.096977
1150.542066	0.091615
1150.697149	0.087394
1150.852214	0.083119
1151.007260	0.079486
1151.162288	0.077677
1151.317298	0.084933
1151.472289	0.082299
1151.627263	0.075664
1151.782218	0.068196
1151.937155	0.062285
1152.092073	0.068346
1152.246974	0.076992
1152.401856	0.078718
1152.556720	0.076425
1152.711566	0.075103
1152.866393	0.089687
1153.021203	0.088701
1153.175994	0.097189
1153.330767	0.100391
1153.485521	0.103930
1153.640258	0.099097
1153.794976	0.096452
1153.949676	0.101874
1154.104358	0.105245
1154.259021	0.099620
1154.413667	0.109193
1154.568294	0.095482
1154.722903	0.097012
1154.877493	0.093105
1155.032066	0.095135
1155.186620	0.093032
1155.341156	0.091374
1155.495674	0.083580
1155.650173	0.082036
1155.804654	0.087615
1155.959118	0.097376
1156.113562	0.096660
1156.267989	0.101958
1156.422397	0.094178
1156.576788	0.090509
1156.731160	0.082246
1156.885513	0.084097
1157.039849	0.086946
1157.194166	0.082044
1157.348465	0.077875
1157.502746	0.077809
1157.657009	0.077379
1157.811253	0.082950
1157.965479	0.086769
1158.119687	0.082192
1158.273877	0.088774
1158.428048	0.085133
1158.582201	0.083920
1158.736337	0.095400
1158.890453	0.100849
1159.044552	0.091497
1159.198632	0.088972
1159.352694	0.086592
1159.506738	0.092033
1159.660764	0.086353
1159.814771	0.081679
1159.968761	0.078626
1160.122732	0.068918
1160.276685	0.058609
1160.430619	0.065768
1160.584535	0.067120
1160.738434	0.064062
1160.892313	0.068245
1161.046175	0.066947
1161.200019	0.072506
1161.353844	0.065814
1161.507651	0.065399
1161.661440	0.066907
1161.815210	0.061761
1161.968962	0.065933
1162.122697	0.071940
1162.276412	0.066086
1162.430110	0.068392
1162.583789	0.061948
1162.737451	0.065809
1162.891094	0.075804
1163.044718	0.075408
1163.198325	0.075723
1163.351913	0.069602
1163.505483	0.066587
1163.659035	0.065571
1163.812569	0.067552
1163.966084	0.066882
1164.119581	0.071103
1164.273060	0.058499
1164.426521	0.062950
1164.579964	0.067336
1164.733388	0.070955
1164.886794	0.072692
1165.040182	0.076480
1165.193551	0.069769
1165.346903	0.074335
1165.500236	0.066908
1165.653551	0.069548
1165.806848	0.065950
1165.960126	0.065191
1166.113386	0.056208
1166.266628	0.058052
1166.419852	0.061345
1166.573058	0.062201
1166.726245	0.066817
1166.879414	0.067498
1167.032565	0.072783
1167.185698	0.076732
1167.338812	0.078031
1167.491909	0.085020
1167.644987	0.075955
1167.798046	0.067823
1167.951088	0.074047
1168.104111	0.072481
1168.257117	0.068020
1168.410103	0.065049
1168.563072	0.066227
1168.716023	0.057814
1168.868955	0.053889
1169.021869	0.063113
1169.174765	0.062553
1169.327642	0.055806
1169.480501	0.054534
1169.633343	0.057967
1169.786165	0.056721
1169.938970	0.053071
1170.091757	0.065500
1170.244525	0.069315
1170.397275	0.059673
1170.550007	0.066479
1170.702720	0.062792
1170.855415	0.057451
1171.008092	0.062243
1171.160751	0.060223
1171.313392	0.057994
1171.466014	0.048816
1171.618619	0.059962
1171.771205	0.059962
1171.923772	0.059962
