sample name	sample
index	1292
start time	 04-29-2021  03:10:46 PM


Wavelength (nm)	Absorbance
494.344910	-0.350487
494.563924	-0.350487
494.782919	-0.350487
495.001897	0.396145
495.220856	-0.036941
495.439797	-0.054899
495.658719	-0.028456
495.877624	0.000812
496.096510	-0.030238
496.315378	-0.010160
496.534227	0.007277
496.753059	-0.007962
496.971872	0.007886
497.190667	0.105579
497.409444	0.118193
497.628203	0.120941
497.846943	0.118919
498.065665	0.120181
498.284369	0.121905
498.503055	0.122002
498.721723	0.123453
498.940372	0.123094
499.159003	0.122816
499.377616	0.123347
499.596210	0.122924
499.814787	0.124225
500.033345	0.124967
500.251885	0.124591
500.470406	0.124810
500.688910	0.124551
500.907395	0.124804
501.125862	0.124545
501.344311	0.124093
501.562742	0.125393
501.781154	0.125297
501.999548	0.125182
502.217924	0.125459
502.436282	0.125074
502.654621	0.124946
502.872942	0.126064
503.091245	0.125824
503.309530	0.126352
503.527797	0.126153
503.746045	0.126271
503.964275	0.126455
504.182487	0.125741
504.400681	0.126963
504.618856	0.126805
504.837013	0.126938
505.055152	0.127135
505.273273	0.126860
505.491376	0.125352
505.709460	0.124926
505.927526	0.124582
506.145574	0.124854
506.363604	0.122580
506.581615	0.122793
506.799608	0.123133
507.017583	0.123789
507.235540	0.124895
507.453478	0.126794
507.671399	0.127631
507.889301	0.126856
508.107185	0.127314
508.325050	0.129312
508.542898	0.129419
508.760727	0.128971
508.978538	0.128869
509.196330	0.128654
509.414105	0.128965
509.631861	0.128741
509.849599	0.129672
510.067319	0.130082
510.285021	0.129396
510.502704	0.130845
510.720369	0.130651
510.938016	0.131312
511.155645	0.130985
511.373255	0.129531
511.590848	0.130027
511.808422	0.130493
512.025977	0.130492
512.243515	0.131583
512.461034	0.130885
512.678536	0.130955
512.896018	0.130832
513.113483	0.131186
513.330930	0.132308
513.548358	0.132473
513.765768	0.132509
513.983160	0.132529
514.200533	0.131561
514.417889	0.132604
514.635226	0.132322
514.852545	0.132486
515.069845	0.133284
515.287128	0.133757
515.504392	0.133758
515.721638	0.134272
515.938866	0.134112
516.156075	0.135511
516.373267	0.134703
516.590440	0.135493
516.807594	0.135248
517.024731	0.136352
517.241850	0.136205
517.458950	0.136507
517.676032	0.136886
517.893095	0.137893
518.110141	0.136915
518.327168	0.137305
518.544177	0.137134
518.761168	0.137865
518.978141	0.137543
519.195095	0.138538
519.412031	0.138833
519.628949	0.138706
519.845849	0.138169
520.062731	0.139349
520.279594	0.138721
520.496439	0.138774
520.713266	0.138798
520.930074	0.138328
521.146865	0.137251
521.363637	0.137653
521.580391	0.138332
521.797127	0.139053
522.013844	0.139393
522.230543	0.140934
522.447224	0.141365
522.663887	0.141899
522.880532	0.142752
523.097158	0.143759
523.313766	0.144271
523.530356	0.144462
523.746928	0.144518
523.963481	0.144993
524.180017	0.145656
524.396534	0.146645
524.613032	0.146838
524.829513	0.146332
525.045975	0.146510
525.262420	0.146361
525.478845	0.147671
525.695253	0.148499
525.911643	0.148549
526.128014	0.147959
526.344367	0.147390
526.560702	0.146944
526.777018	0.147812
526.993316	0.147989
527.209597	0.148471
527.425858	0.147287
527.642102	0.146717
527.858328	0.146740
528.074535	0.147160
528.290724	0.148970
528.506894	0.149578
528.723047	0.149229
528.939181	0.149699
529.155297	0.150169
529.371395	0.150518
529.587475	0.151833
529.803536	0.152513
530.019579	0.152664
530.235604	0.151808
530.451611	0.152521
530.667600	0.153679
530.883570	0.153676
531.099522	0.154025
531.315456	0.154992
531.531372	0.154988
531.747269	0.154532
531.963148	0.154899
532.179009	0.155460
532.394852	0.155846
532.610676	0.156313
532.826482	0.156382
533.042271	0.156404
533.258040	0.155852
533.473792	0.156475
533.689525	0.157904
533.905240	0.158362
534.120937	0.158615
534.336616	0.158904
534.552277	0.158836
534.767919	0.159760
534.983543	0.160345
535.199149	0.161042
535.414736	0.161402
535.630306	0.161424
535.845857	0.161753
536.061390	0.161545
536.276904	0.161814
536.492401	0.162154
536.707879	0.162440
536.923339	0.162725
537.138781	0.162961
537.354204	0.163418
537.569610	0.163660
537.784997	0.163882
538.000366	0.164714
538.215716	0.165135
538.431049	0.165973
538.646363	0.166153
538.861659	0.166813
539.076937	0.167438
539.292196	0.167182
539.507438	0.167663
539.722661	0.168561
539.937866	0.169353
540.153052	0.169773
540.368221	0.169763
540.583371	0.170922
540.798503	0.170684
541.013617	0.170718
541.228712	0.171288
541.443789	0.171551
541.658848	0.171151
541.873889	0.171188
542.088912	0.171509
542.303916	0.171234
542.518902	0.170709
542.733870	0.171028
542.948820	0.171157
543.163752	0.171542
543.378665	0.171663
543.593560	0.172362
543.808437	0.172337
544.023295	0.172530
544.238136	0.173201
544.452958	0.173533
544.667762	0.173762
544.882548	0.173672
545.097315	0.173332
545.312064	0.173682
545.526795	0.173525
545.741508	0.173875
545.956203	0.173932
546.170879	0.174511
546.385537	0.174984
546.600177	0.175306
546.814799	0.175763
547.029402	0.175964
547.243988	0.176287
547.458555	0.176590
547.673103	0.176644
547.887634	0.176815
548.102146	0.176674
548.316640	0.176999
548.531116	0.176919
548.745574	0.177522
548.960013	0.178206
549.174435	0.178138
549.388838	0.178670
549.603222	0.179218
549.817589	0.179296
550.031937	0.179103
550.246267	0.179076
550.460579	0.179642
550.674873	0.179740
550.889148	0.179915
551.103405	0.180179
551.317644	0.180123
551.531865	0.180422
551.746068	0.180529
551.960252	0.181758
552.174418	0.181632
552.388566	0.182056
552.602696	0.182338
552.816807	0.182119
553.030900	0.182109
553.244975	0.182216
553.459032	0.181848
553.673070	0.182532
553.887091	0.182371
554.101093	0.182619
554.315077	0.182636
554.529042	0.182915
554.742990	0.183569
554.956919	0.183949
555.170830	0.184599
555.384722	0.185572
555.598597	0.186082
555.812453	0.185914
556.026291	0.186272
556.240111	0.186500
556.453913	0.186261
556.667696	0.185898
556.881461	0.186315
557.095208	0.186102
557.308937	0.185929
557.522647	0.185313
557.736339	0.185410
557.950013	0.185659
558.163669	0.185581
558.377307	0.185601
558.590926	0.186222
558.804527	0.186272
559.018110	0.186091
559.231675	0.185888
559.445221	0.186133
559.658749	0.186613
559.872259	0.186560
560.085751	0.186567
560.299225	0.187264
560.512680	0.187008
560.726117	0.187397
560.939536	0.187939
561.152937	0.188163
561.366319	0.188296
561.579683	0.188088
561.793029	0.188455
562.006357	0.188658
562.219667	0.188687
562.432958	0.188898
562.646231	0.188820
562.859486	0.189289
563.072723	0.189718
563.285941	0.189956
563.499141	0.190190
563.712323	0.190361
563.925487	0.190364
564.138632	0.190315
564.351760	0.190635
564.564869	0.190987
564.777960	0.190918
564.991032	0.191045
565.204087	0.191060
565.417123	0.191373
565.630141	0.191317
565.843140	0.192088
566.056122	0.192501
566.269085	0.193234
566.482030	0.192847
566.694957	0.192637
566.907866	0.192645
567.120756	0.193081
567.333628	0.192499
567.546482	0.192601
567.759318	0.192000
567.972135	0.192378
568.184935	0.191916
568.397716	0.192416
568.610478	0.193029
568.823223	0.193646
569.035949	0.193890
569.248657	0.194671
569.461347	0.194774
569.674019	0.194749
569.886672	0.194318
570.099308	0.194019
570.311925	0.194140
570.524523	0.193636
570.737104	0.193244
570.949666	0.193288
571.162210	0.193608
571.374736	0.194154
571.587244	0.195014
571.799733	0.195377
572.012205	0.195999
572.224658	0.195960
572.437092	0.196309
572.649509	0.195933
572.861907	0.196222
573.074287	0.195831
573.286649	0.195481
573.498993	0.195292
573.711318	0.194959
573.923625	0.195160
574.135914	0.195028
574.348185	0.195259
574.560438	0.196158
574.772672	0.195946
574.984888	0.196166
575.197086	0.196024
575.409266	0.196399
575.621427	0.196620
575.833570	0.196426
576.045695	0.196484
576.257802	0.196650
576.469890	0.196434
576.681961	0.196268
576.894013	0.196421
577.106046	0.197103
577.318062	0.196894
577.530059	0.197216
577.742039	0.197480
577.954000	0.197954
578.165942	0.197864
578.377867	0.198324
578.589773	0.198725
578.801661	0.198870
579.013531	0.198727
579.225382	0.198840
579.437216	0.198603
579.649031	0.198397
579.860828	0.198370
580.072606	0.198625
580.284367	0.198563
580.496109	0.199080
580.707833	0.199424
580.919539	0.199560
581.131227	0.199874
581.342896	0.200607
581.554547	0.200884
581.766180	0.201029
581.977795	0.201230
582.189391	0.201418
582.400969	0.201043
582.612529	0.201131
582.824071	0.201238
583.035595	0.201455
583.247100	0.201677
583.458587	0.202246
583.670056	0.202409
583.881506	0.202564
584.092939	0.202759
584.304353	0.203073
584.515749	0.202896
584.727127	0.203503
584.938486	0.203677
585.149828	0.203480
585.361151	0.203349
585.572456	0.203443
585.783742	0.203498
585.995011	0.203819
586.206261	0.203738
586.417493	0.204197
586.628706	0.204181
586.839902	0.204288
587.051079	0.204722
587.262238	0.205076
587.473379	0.205339
587.684502	0.205373
587.895606	0.205306
588.106692	0.205891
588.317760	0.206095
588.528810	0.205761
588.739841	0.205844
588.950855	0.206058
589.161850	0.205941
589.372827	0.206321
589.583785	0.206969
589.794726	0.207324
590.005648	0.207326
590.216552	0.207464
590.427437	0.208189
590.638305	0.208580
590.849154	0.208713
591.059985	0.209093
591.270798	0.209269
591.481592	0.209606
591.692369	0.209246
591.903127	0.209485
592.113867	0.209647
592.324588	0.209288
592.535292	0.209357
592.745977	0.209436
592.956644	0.209655
593.167293	0.209543
593.377923	0.209075
593.588536	0.209367
593.799130	0.209582
594.009706	0.209596
594.220263	0.210052
594.430803	0.210067
594.641324	0.210118
594.851827	0.210059
595.062312	0.210164
595.272778	0.210245
595.483227	0.210359
595.693657	0.210272
595.904069	0.210463
596.114462	0.210698
596.324838	0.210716
596.535195	0.210814
596.745534	0.211225
596.955855	0.211421
597.166157	0.211731
597.376441	0.212394
597.586707	0.212897
597.796955	0.213232
598.007185	0.213666
598.217396	0.214047
598.427589	0.214546
598.637764	0.214733
598.847921	0.214933
599.058060	0.215259
599.268180	0.214985
599.478282	0.214974
599.688366	0.214868
599.898431	0.214634
600.108479	0.214686
600.318508	0.214611
600.528519	0.214612
600.738511	0.214731
600.948486	0.214706
601.158442	0.214902
601.368380	0.214802
601.578300	0.214823
601.788202	0.215010
601.998085	0.215262
602.207950	0.215573
602.417797	0.215663
602.627626	0.215890
602.837436	0.216319
603.047228	0.216580
603.257002	0.216952
603.466758	0.217336
603.676496	0.217330
603.886215	0.217610
604.095916	0.217854
604.305599	0.217907
604.515264	0.218097
604.724910	0.218291
604.934538	0.218577
605.144148	0.218667
605.353740	0.218889
605.563314	0.219100
605.772869	0.218898
605.982406	0.218581
606.191925	0.218788
606.401425	0.218761
606.610908	0.218561
606.820372	0.218453
607.029818	0.218513
607.239246	0.218437
607.448655	0.218624
607.658047	0.219042
607.867420	0.219311
608.076775	0.219672
608.286111	0.220022
608.495430	0.220510
608.704730	0.220941
608.914012	0.221145
609.123275	0.221474
609.332521	0.221663
609.541748	0.222024
609.750957	0.222080
609.960148	0.222350
610.169321	0.222209
610.378475	0.222237
610.587611	0.222144
610.796729	0.222245
611.005829	0.222361
611.214910	0.222698
611.423974	0.222430
611.633019	0.222761
611.842045	0.222422
612.051054	0.222731
612.260044	0.222685
612.469017	0.222888
612.677970	0.223362
612.886906	0.223428
613.095824	0.223274
613.304723	0.223865
613.513604	0.223871
613.722467	0.224388
613.931311	0.224597
614.140138	0.224749
614.348946	0.224781
614.557736	0.224681
614.766507	0.224948
614.975261	0.224987
615.183996	0.224680
615.392713	0.225002
615.601412	0.224952
615.810092	0.225068
616.018754	0.225297
616.227399	0.225626
616.436024	0.225707
616.644632	0.225522
616.853222	0.225886
617.061793	0.226261
617.270346	0.226080
617.478880	0.226180
617.687397	0.226305
617.895895	0.226544
618.104375	0.226405
618.312837	0.226602
618.521281	0.226978
618.729706	0.227177
618.938113	0.227025
619.146502	0.227299
619.354873	0.227235
619.563226	0.227236
619.771560	0.227194
619.979876	0.227394
620.188174	0.227302
620.396453	0.227651
620.604715	0.227723
620.812958	0.227875
621.021183	0.227843
621.229390	0.228271
621.437578	0.228473
621.645748	0.228520
621.853900	0.228558
622.062034	0.228688
622.270150	0.228485
622.478247	0.228384
622.686326	0.228660
622.894387	0.228875
623.102430	0.229032
623.310454	0.229159
623.518461	0.229687
623.726449	0.229833
623.934418	0.230024
624.142370	0.229918
624.350303	0.229968
624.558218	0.229972
624.766115	0.230146
624.973994	0.229976
625.181855	0.229867
625.389697	0.230018
625.597521	0.230394
625.805327	0.230630
626.013114	0.231075
626.220883	0.231579
626.428634	0.231515
626.636367	0.231995
626.844082	0.232507
627.051778	0.232707
627.259457	0.232724
627.467117	0.232736
627.674758	0.232921
627.882382	0.233126
628.089987	0.233431
628.297574	0.233832
628.505143	0.233464
628.712694	0.233435
628.920226	0.233335
629.127740	0.233202
629.335236	0.233165
629.542714	0.233388
629.750174	0.233437
629.957615	0.233379
630.165038	0.233388
630.372443	0.233678
630.579829	0.233460
630.787198	0.233963
630.994548	0.234345
631.201880	0.234376
631.409194	0.234260
631.616489	0.234457
631.823766	0.234310
632.031025	0.234529
632.238266	0.234761
632.445489	0.235107
632.652693	0.235352
632.859879	0.235266
633.067047	0.235518
633.274197	0.235626
633.481329	0.235543
633.688442	0.235686
633.895537	0.235807
634.102614	0.235729
634.309672	0.236206
634.516713	0.236146
634.723735	0.236263
634.930739	0.236444
635.137724	0.236518
635.344692	0.236880
635.551641	0.237143
635.758572	0.237377
635.965485	0.237485
636.172379	0.237525
636.379256	0.237725
636.586114	0.237983
636.792954	0.238201
636.999775	0.238416
637.206579	0.238753
637.413364	0.238984
637.620131	0.239157
637.826880	0.239511
638.033610	0.239524
638.240323	0.239863
638.447017	0.240137
638.653692	0.240304
638.860350	0.240603
639.066990	0.240671
639.273611	0.240709
639.480214	0.240734
639.686798	0.240795
639.893365	0.240789
640.099913	0.240925
640.306443	0.240921
640.512955	0.240870
640.719449	0.241078
640.925924	0.241206
641.132381	0.241634
641.338820	0.241959
641.545241	0.242321
641.751644	0.242598
641.958028	0.242905
642.164394	0.243329
642.370742	0.243805
642.577071	0.244063
642.783383	0.244368
642.989676	0.244467
643.195951	0.244734
643.402207	0.244829
643.608446	0.245131
643.814666	0.245076
644.020868	0.245067
644.227052	0.245120
644.433218	0.245039
644.639365	0.244934
644.845494	0.244983
645.051605	0.245046
645.257698	0.245144
645.463772	0.245344
645.669828	0.245473
645.875866	0.245611
646.081886	0.245657
646.287888	0.245868
646.493871	0.246213
646.699836	0.246233
646.905783	0.246285
647.111712	0.246469
647.317622	0.246421
647.523514	0.246468
647.729388	0.246512
647.935244	0.246786
648.141082	0.247090
648.346901	0.246847
648.552702	0.247196
648.758485	0.247581
648.964250	0.248193
649.169996	0.248533
649.375724	0.248733
649.581434	0.249091
649.787126	0.249358
649.992800	0.249383
650.198455	0.250086
650.404092	0.250370
650.609711	0.250525
650.815311	0.250440
651.020894	0.250489
651.226458	0.250912
651.432004	0.250823
651.637532	0.250850
651.843041	0.251144
652.048532	0.250945
652.254006	0.250684
652.459460	0.250747
652.664897	0.250447
652.870315	0.250709
653.075716	0.250635
653.281097	0.250842
653.486461	0.250971
653.691807	0.251024
653.897134	0.251181
654.102443	0.251557
654.307734	0.251593
654.513006	0.251945
654.718261	0.252156
654.923497	0.252194
655.128715	0.252413
655.333915	0.252611
655.539096	0.252645
655.744259	0.252776
655.949404	0.252976
656.154531	0.253074
656.359640	0.253330
656.564730	0.253692
656.769802	0.254240
656.974856	0.254355
657.179892	0.254723
657.384909	0.255073
657.589908	0.255328
657.794889	0.255705
657.999852	0.256055
658.204797	0.256360
658.409723	0.256334
658.614631	0.256455
658.819521	0.256823
659.024393	0.256991
659.229246	0.257500
659.434081	0.257807
659.638898	0.258148
659.843697	0.258368
660.048478	0.258297
660.253240	0.258306
660.457984	0.258370
660.662710	0.258568
660.867417	0.258685
661.072107	0.258553
661.276778	0.258583
661.481431	0.258527
661.686066	0.259072
661.890682	0.259667
662.095281	0.259964
662.299861	0.260523
662.504422	0.260754
662.708966	0.260737
662.913491	0.260800
663.117999	0.261038
663.322488	0.261491
663.526958	0.261288
663.731411	0.261246
663.935845	0.261435
664.140261	0.261496
664.344659	0.261595
664.549038	0.261863
664.753400	0.262417
664.957743	0.262991
665.162068	0.263083
665.366375	0.263414
665.570663	0.263571
665.774933	0.264086
665.979185	0.264017
666.183419	0.264186
666.387635	0.264721
666.591832	0.264761
666.796011	0.264526
667.000172	0.264514
667.204315	0.264380
667.408439	0.264473
667.612545	0.264246
667.816634	0.264547
668.020703	0.264604
668.224755	0.264511
668.428788	0.264550
668.632803	0.264779
668.836800	0.265022
669.040779	0.265450
669.244739	0.265714
669.448681	0.266096
669.652605	0.266176
669.856511	0.266590
670.060399	0.266977
670.264268	0.267107
670.468119	0.267787
670.671952	0.267838
670.875767	0.268016
671.079563	0.268253
671.283341	0.268317
671.487101	0.268996
671.690843	0.269255
671.894567	0.269173
672.098272	0.269574
672.301959	0.269400
672.505628	0.269577
672.709278	0.269883
672.912911	0.270234
673.116525	0.270558
673.320121	0.270352
673.523699	0.270608
673.727258	0.270807
673.930799	0.270733
674.134322	0.270824
674.337827	0.270858
674.541314	0.270889
674.744782	0.271018
674.948232	0.270970
675.151664	0.271058
675.355078	0.271079
675.558474	0.271485
675.761851	0.272020
675.965210	0.272281
676.168551	0.272969
676.371873	0.273148
676.575178	0.273162
676.778464	0.273615
676.981732	0.273944
677.184981	0.274265
677.388213	0.274538
677.591426	0.274517
677.794621	0.274781
677.997798	0.275026
678.200956	0.275477
678.404097	0.275835
678.607219	0.275927
678.810323	0.276373
679.013408	0.276492
679.216476	0.276669
679.419525	0.276887
679.622556	0.276991
679.825569	0.277002
680.028563	0.276952
680.231540	0.277351
680.434498	0.277651
680.637438	0.277687
680.840359	0.277819
681.043263	0.277800
681.246148	0.278062
681.449015	0.278351
681.651864	0.278422
681.854694	0.278579
682.057506	0.278606
682.260301	0.278838
682.463076	0.278888
682.665834	0.279224
682.868573	0.279711
683.071295	0.279845
683.273998	0.280170
683.476682	0.280470
683.679349	0.280775
683.881997	0.281110
684.084627	0.281439
684.287239	0.281677
684.489833	0.281739
684.692408	0.281683
684.894965	0.281961
685.097504	0.282128
685.300025	0.282366
685.502527	0.282405
685.705012	0.282462
685.907478	0.282414
686.109925	0.282638
686.312355	0.283015
686.514766	0.283364
686.717159	0.283683
686.919534	0.283835
687.121891	0.283879
687.324230	0.284241
687.526550	0.284421
687.728852	0.284764
687.931136	0.284960
688.133401	0.285094
688.335649	0.285079
688.537878	0.285195
688.740089	0.285426
688.942281	0.285714
689.144456	0.285859
689.346612	0.286083
689.548750	0.286098
689.750870	0.286228
689.952971	0.286348
690.155055	0.286775
690.357120	0.287013
690.559167	0.286958
690.761195	0.287014
690.963206	0.287117
691.165198	0.287149
691.367172	0.287472
691.569128	0.287566
691.771065	0.287612
691.972984	0.287761
692.174885	0.287714
692.376768	0.287911
692.578633	0.287923
692.780479	0.287878
692.982308	0.287983
693.184118	0.287977
693.385909	0.287958
693.587683	0.288028
693.789438	0.288344
693.991175	0.288435
694.192894	0.288748
694.394595	0.289171
694.596277	0.289580
694.797941	0.289693
694.999587	0.290117
695.201215	0.290632
695.402824	0.290809
695.604416	0.290687
695.805989	0.291074
696.007543	0.291201
696.209080	0.291473
696.410598	0.291606
696.612099	0.291841
696.813580	0.291582
697.015044	0.291458
697.216490	0.291783
697.417917	0.292041
697.619326	0.291983
697.820717	0.292013
698.022089	0.291967
698.223444	0.292243
698.424780	0.292314
698.626098	0.292516
698.827397	0.292690
699.028679	0.292566
699.229942	0.292474
699.431187	0.292495
699.632414	0.292680
699.833622	0.292362
700.034813	0.292274
700.235985	0.292262
700.437139	0.292450
700.638274	0.292599
700.839392	0.292829
701.040491	0.293096
701.241572	0.293768
701.442635	0.293991
701.643679	0.294483
701.844706	0.294514
702.045714	0.294709
702.246704	0.294800
702.447675	0.294826
702.648629	0.295144
702.849564	0.294984
703.050481	0.294679
703.251380	0.294561
703.452260	0.294576
703.653122	0.294769
703.853966	0.294685
704.054792	0.294479
704.255600	0.294348
704.456389	0.294224
704.657160	0.294214
704.857913	0.293901
705.058648	0.293768
705.259365	0.293717
705.460063	0.293544
705.660743	0.293638
705.861405	0.293969
706.062048	0.294220
706.262674	0.294303
706.463281	0.294462
706.663870	0.294693
706.864441	0.294684
707.064993	0.294543
707.265527	0.294675
707.466043	0.294731
707.666541	0.294573
707.867021	0.294636
708.067482	0.294658
708.267925	0.294631
708.468350	0.294895
708.668757	0.295140
708.869145	0.295369
709.069516	0.295461
709.269868	0.295739
709.470201	0.295616
709.670517	0.295588
709.870814	0.295615
710.071093	0.295903
710.271354	0.295925
710.471597	0.295824
710.671821	0.296188
710.872028	0.296177
711.072216	0.296306
711.272385	0.296474
711.472537	0.296799
711.672670	0.296615
711.872785	0.296526
712.072882	0.296302
712.272961	0.296228
712.473021	0.295727
712.673063	0.295653
712.873087	0.295202
713.073093	0.295303
713.273081	0.294891
713.473050	0.294859
713.673001	0.294804
713.872934	0.295028
714.072849	0.295232
714.272745	0.295503
714.472623	0.295722
714.672483	0.295728
714.872325	0.295742
715.072148	0.295912
715.271954	0.295856
715.471741	0.295803
715.671509	0.295652
715.871260	0.295647
716.070992	0.295687
716.270707	0.295453
716.470403	0.295485
716.670080	0.295474
716.869740	0.295222
717.069381	0.295241
717.269004	0.295024
717.468609	0.294908
717.668195	0.294629
717.867764	0.294344
718.067314	0.294483
718.266846	0.294614
718.466360	0.294300
718.665855	0.294228
718.865332	0.294019
719.064791	0.294168
719.264232	0.294177
719.463655	0.293922
719.663059	0.293941
719.862445	0.293646
720.061813	0.293549
720.261163	0.293536
720.460494	0.293662
720.659807	0.293915
720.859102	0.293711
721.058379	0.293502
721.257638	0.293529
721.456878	0.293393
721.656100	0.293195
721.855304	0.293016
722.054490	0.292700
722.253657	0.292615
722.452806	0.292391
722.651937	0.292256
722.851050	0.292220
723.050145	0.292350
723.249221	0.292347
723.448279	0.292771
723.647319	0.292869
723.846340	0.293117
724.045344	0.292966
724.244329	0.292837
724.443296	0.292629
724.642245	0.292586
724.841175	0.292305
725.040088	0.292470
725.238982	0.292170
725.437857	0.291826
725.636715	0.291769
725.835554	0.291854
726.034376	0.291831
726.233179	0.291995
726.431963	0.291756
726.630730	0.291657
726.829478	0.291046
727.028208	0.290723
727.226920	0.290720
727.425614	0.290273
727.624289	0.290016
727.822946	0.289640
728.021585	0.289455
728.220206	0.289304
728.418808	0.289048
728.617392	0.288943
728.815958	0.288784
729.014506	0.288506
729.213036	0.288632
729.411547	0.288129
729.610040	0.287993
729.808515	0.287874
730.006972	0.287809
730.205410	0.287542
730.403831	0.287455
730.602233	0.287266
730.800616	0.287032
730.998982	0.286772
731.197329	0.286812
731.395658	0.286945
731.593969	0.286703
731.792262	0.286640
731.990536	0.286902
732.188793	0.287086
732.387031	0.287211
732.585250	0.287260
732.783452	0.287397
732.981635	0.287464
733.179800	0.287248
733.377947	0.287179
733.576076	0.286870
733.774186	0.286675
733.972278	0.286504
734.170352	0.286184
734.368408	0.286031
734.566446	0.285566
734.764465	0.285414
734.962466	0.285125
735.160449	0.284898
735.358413	0.284818
735.556360	0.284551
735.754288	0.284178
735.952198	0.284073
736.150090	0.284003
736.347963	0.283956
736.545818	0.283684
736.743655	0.283741
736.941474	0.283870
737.139275	0.283730
737.337057	0.283579
737.534821	0.283479
737.732567	0.283396
737.930295	0.283301
738.128005	0.283171
738.325696	0.283053
738.523369	0.282756
738.721024	0.282203
738.918660	0.281968
739.116279	0.281996
739.313879	0.281701
739.511461	0.281336
739.709024	0.281049
739.906570	0.280573
740.104097	0.280234
740.301606	0.280011
740.499097	0.280057
740.696569	0.280070
740.894024	0.279935
741.091460	0.279824
741.288878	0.279598
741.486277	0.279368
741.683659	0.279362
741.881022	0.279366
742.078367	0.279133
742.275694	0.278832
742.473002	0.278517
742.670293	0.278211
742.867565	0.278138
743.064819	0.278213
743.262054	0.278102
743.459272	0.277835
743.656471	0.277649
743.853652	0.277485
744.050815	0.277445
744.247959	0.277063
744.445085	0.276804
744.642194	0.276690
744.839283	0.276196
745.036355	0.275861
745.233408	0.276132
745.430444	0.275759
745.627461	0.275738
745.824459	0.275395
746.021440	0.275363
746.218402	0.275303
746.415346	0.274989
746.612272	0.274925
746.809180	0.274761
747.006069	0.274232
747.202940	0.274200
747.399793	0.274121
747.596628	0.273954
747.793444	0.273820
747.990243	0.273717
748.187023	0.273615
748.383784	0.273430
748.580528	0.273494
748.777253	0.273477
748.973960	0.273523
749.170649	0.273028
749.367320	0.272859
749.563973	0.272703
749.760607	0.272372
749.957223	0.272292
750.153821	0.272326
750.350400	0.271884
750.546962	0.271710
750.743505	0.271282
750.940030	0.271391
751.136536	0.271325
751.333025	0.271140
751.529495	0.271135
751.725947	0.271081
751.922381	0.270723
752.118796	0.270655
752.315194	0.270493
752.511573	0.270468
752.707934	0.270091
752.904276	0.269801
753.100601	0.269435
753.296907	0.269246
753.493195	0.268863
753.689465	0.268882
753.885716	0.268641
754.081949	0.268424
754.278164	0.268114
754.474361	0.268025
754.670540	0.267728
754.866700	0.267870
755.062843	0.267479
755.258967	0.267411
755.455072	0.267286
755.651160	0.267218
755.847229	0.266924
756.043280	0.266651
756.239313	0.266320
756.435328	0.266272
756.631324	0.265968
756.827302	0.265917
757.023262	0.265598
757.219204	0.265067
757.415127	0.264834
757.611033	0.265002
757.806920	0.264891
758.002788	0.264984
758.198639	0.264566
758.394471	0.264329
758.590286	0.263804
758.786081	0.263725
758.981859	0.263505
759.177619	0.263558
759.373360	0.263199
759.569083	0.263107
759.764788	0.262752
759.960474	0.262811
760.156143	0.262762
760.351793	0.262786
760.547425	0.262244
760.743038	0.262114
760.938634	0.261622
761.134211	0.261301
761.329770	0.261131
761.525311	0.260959
761.720833	0.261081
761.916338	0.260825
762.111824	0.260931
762.307292	0.261018
762.502741	0.260964
762.698173	0.260871
762.893586	0.260858
763.088981	0.260597
763.284358	0.260676
763.479716	0.260376
763.675057	0.260386
763.870379	0.260219
764.065683	0.260126
764.260968	0.260032
764.456236	0.260023
764.651485	0.259895
764.846716	0.259972
765.041929	0.259607
765.237123	0.259310
765.432299	0.259073
765.627457	0.258886
765.822597	0.258777
766.017719	0.258645
766.212822	0.258552
766.407907	0.258487
766.602974	0.258252
766.798023	0.258371
766.993054	0.258209
767.188066	0.258032
767.383060	0.257832
767.578036	0.257717
767.772993	0.257487
767.967933	0.257343
768.162854	0.257285
768.357757	0.257113
768.552642	0.256921
768.747508	0.257034
768.942356	0.257255
769.137186	0.257301
769.331998	0.257228
769.526792	0.257362
769.721567	0.257436
769.916324	0.257122
770.111063	0.257166
770.305784	0.257000
770.500486	0.256932
770.695171	0.256955
770.889837	0.256736
771.084484	0.256687
771.279114	0.256197
771.473725	0.255841
771.668318	0.255736
771.862893	0.255604
772.057450	0.255377
772.251988	0.255412
772.446509	0.255199
772.641011	0.255180
772.835494	0.254898
773.029960	0.255016
773.224407	0.254783
773.418836	0.254744
773.613247	0.254568
773.807640	0.254707
774.002014	0.254579
774.196370	0.254381
774.390708	0.254086
774.585028	0.254317
774.779330	0.254671
774.973613	0.254912
775.167878	0.254785
775.362125	0.255000
775.556354	0.254898
775.750564	0.254965
775.944756	0.254915
776.138930	0.254891
776.333086	0.254784
776.527223	0.254301
776.721343	0.254155
776.915444	0.254307
777.109526	0.254094
777.303591	0.254251
777.497637	0.253806
777.691666	0.253717
777.885676	0.254053
778.079667	0.253871
778.273641	0.254107
778.467596	0.254128
778.661533	0.254065
778.855452	0.253995
779.049352	0.253893
779.243235	0.254064
779.437099	0.254282
779.630945	0.254168
779.824773	0.254448
780.018582	0.254426
780.212373	0.254626
780.406146	0.254820
780.599901	0.254720
780.793638	0.254658
780.987356	0.254455
781.181056	0.254471
781.374738	0.254546
781.568402	0.254460
781.762047	0.254620
781.955674	0.254568
782.149283	0.254608
782.342874	0.255001
782.536447	0.254938
782.730001	0.254914
782.923537	0.254698
783.117055	0.254575
783.310555	0.254559
783.504036	0.254575
783.697499	0.254254
783.890944	0.254215
784.084371	0.254052
784.277780	0.254165
784.471170	0.254506
784.664542	0.254659
784.857896	0.254806
785.051231	0.254799
785.244549	0.254810
785.437848	0.254961
785.631129	0.254891
785.824392	0.254991
786.017636	0.255078
786.210863	0.255311
786.404071	0.255265
786.597260	0.255448
786.790432	0.255738
786.983585	0.255657
787.176721	0.255741
787.369838	0.255963
787.562936	0.256306
787.756017	0.256637
787.949079	0.256541
788.142123	0.257006
788.335149	0.256874
788.528156	0.256883
788.721146	0.257029
788.914117	0.257667
789.107070	0.257828
789.300005	0.257561
789.492921	0.257578
789.685819	0.258048
789.878699	0.257977
790.071561	0.258343
790.264405	0.258351
790.457230	0.258830
790.650037	0.258695
790.842826	0.259040
791.035597	0.259395
791.228349	0.259408
791.421084	0.259468
791.613800	0.259617
791.806497	0.259602
791.999177	0.260043
792.191838	0.259862
792.384481	0.260170
792.577106	0.260270
792.769713	0.260639
792.962301	0.260752
793.154871	0.260589
793.347423	0.260588
793.539957	0.260844
793.732473	0.260697
793.924970	0.260897
794.117449	0.260726
794.309910	0.260458
794.502353	0.260331
794.694777	0.260230
794.887183	0.260305
795.079571	0.260432
795.271941	0.260329
795.464293	0.260442
795.656626	0.260418
795.848941	0.260473
796.041238	0.260557
796.233516	0.260702
796.425777	0.261306
796.618019	0.261718
796.810243	0.261950
797.002449	0.262343
797.194636	0.262707
797.386805	0.262835
797.578956	0.262936
797.771089	0.263278
797.963204	0.263222
798.155300	0.263171
798.347378	0.263030
798.539438	0.262925
798.731480	0.262862
798.923503	0.262776
799.115509	0.262844
799.307496	0.263189
799.499465	0.263202
799.691415	0.263463
799.883348	0.263415
800.075262	0.263487
800.267158	0.263743
800.459035	0.264091
800.650895	0.264091
800.842736	0.264285
801.034559	0.264409
801.226364	0.264661
801.418150	0.265053
801.609919	0.265487
801.801669	0.265918
801.993401	0.266188
802.185114	0.266169
802.376810	0.266632
802.568487	0.267040
802.760146	0.267389
802.951787	0.267691
803.143409	0.267993
803.335014	0.268449
803.526600	0.268682
803.718168	0.269036
803.909717	0.269321
804.101249	0.269677
804.292762	0.269887
804.484257	0.269930
804.675734	0.270101
804.867192	0.270095
805.058632	0.270123
805.250054	0.270399
805.441458	0.270549
805.632844	0.270967
805.824211	0.270956
806.015561	0.271317
806.206891	0.271773
806.398204	0.272197
806.589499	0.272645
806.780775	0.272756
806.972033	0.272867
807.163273	0.272983
807.354495	0.273016
807.545698	0.273367
807.736883	0.273337
807.928050	0.273486
808.119199	0.273553
808.310329	0.273494
808.501441	0.273768
808.692535	0.274039
808.883611	0.274290
809.074669	0.274677
809.265708	0.274883
809.456729	0.275307
809.647732	0.275760
809.838717	0.275895
810.029683	0.275972
810.220632	0.276105
810.411562	0.276281
810.602474	0.276167
810.793367	0.276497
810.984242	0.276597
811.175100	0.276721
811.365938	0.276461
811.556759	0.276657
811.747562	0.277111
811.938346	0.277584
812.129112	0.277736
812.319860	0.278087
812.510589	0.278212
812.701300	0.278593
812.891994	0.278908
813.082668	0.279203
813.273325	0.279421
813.463964	0.279554
813.654584	0.279677
813.845186	0.280171
814.035769	0.280442
814.226335	0.280644
814.416882	0.281133
814.607411	0.281149
814.797922	0.281653
814.988415	0.282327
815.178889	0.283036
815.369345	0.283349
815.559783	0.283824
815.750203	0.284474
815.940605	0.284932
816.130988	0.285154
816.321353	0.285953
816.511700	0.286425
816.702028	0.286559
816.892339	0.286727
817.082631	0.287099
817.272905	0.287172
817.463161	0.287564
817.653398	0.287768
817.843617	0.287757
818.033819	0.287801
818.224001	0.288005
818.414166	0.288305
818.604312	0.288200
818.794440	0.288360
818.984550	0.288599
819.174642	0.288950
819.364716	0.289343
819.554771	0.289534
819.744808	0.289829
819.934827	0.290214
820.124827	0.290661
820.314810	0.291327
820.504774	0.291852
820.694720	0.292196
820.884647	0.292327
821.074557	0.292550
821.264448	0.293031
821.454321	0.293533
821.644176	0.293630
821.834012	0.293431
822.023831	0.293692
822.213631	0.293911
822.403413	0.294312
822.593176	0.294728
822.782922	0.295322
822.972649	0.295859
823.162358	0.296098
823.352049	0.296667
823.541721	0.297469
823.731376	0.298030
823.921012	0.298608
824.110629	0.298729
824.300229	0.299250
824.489811	0.299526
824.679374	0.300346
824.868919	0.301060
825.058445	0.300934
825.247954	0.301217
825.437444	0.301277
825.626916	0.301336
825.816370	0.301915
826.005806	0.302259
826.195223	0.302446
826.384622	0.302215
826.574003	0.302078
826.763366	0.302700
826.952711	0.303014
827.142037	0.303309
827.331345	0.303510
827.520635	0.303914
827.709906	0.304002
827.899160	0.304472
828.088395	0.304385
828.277612	0.304785
828.466810	0.305180
828.655991	0.305527
828.845153	0.305915
829.034297	0.306639
829.223423	0.306824
829.412531	0.307243
829.601620	0.307559
829.790691	0.308128
829.979744	0.308637
830.168779	0.309284
830.357795	0.309617
830.546793	0.310438
830.735773	0.310996
830.924735	0.311739
831.113679	0.312314
831.302604	0.312587
831.491511	0.313451
831.680400	0.313819
831.869271	0.314273
832.058123	0.314927
832.246957	0.315065
832.435773	0.315304
832.624571	0.315357
832.813351	0.315370
833.002112	0.315696
833.190855	0.316145
833.379580	0.316535
833.568287	0.316926
833.756975	0.317265
833.945645	0.317521
834.134297	0.317756
834.322931	0.318673
834.511547	0.319503
834.700144	0.319965
834.888723	0.320336
835.077284	0.320639
835.265826	0.320795
835.454351	0.321117
835.642857	0.321492
835.831345	0.321931
836.019815	0.321906
836.208266	0.322214
836.396699	0.322951
836.585114	0.323450
836.773511	0.324217
836.961890	0.324922
837.150250	0.325567
837.338592	0.326608
837.526916	0.327526
837.715222	0.328191
837.903510	0.328748
838.091779	0.329281
838.280030	0.329655
838.468263	0.329944
838.656477	0.330158
838.844674	0.330725
839.032852	0.330975
839.221012	0.330886
839.409153	0.331158
839.597277	0.332048
839.785382	0.332536
839.973469	0.332960
840.161538	0.333274
840.349589	0.333849
840.537621	0.334011
840.725635	0.334228
840.913631	0.334931
841.101609	0.335344
841.289568	0.335346
841.477509	0.335225
841.665432	0.335793
841.853337	0.336384
842.041224	0.336974
842.229092	0.336948
842.416942	0.337025
842.604774	0.337643
842.792588	0.337891
842.980383	0.338182
843.168160	0.338799
843.355919	0.338973
843.543660	0.339306
843.731382	0.339395
843.919087	0.340115
844.106773	0.341160
844.294441	0.341408
844.482090	0.342242
844.669722	0.342965
844.857335	0.343552
845.044930	0.344317
845.232507	0.344929
845.420065	0.345483
845.607605	0.346083
845.795127	0.346204
845.982631	0.346547
846.170117	0.346927
846.357584	0.346827
846.545033	0.347244
846.732464	0.347485
846.919877	0.347694
847.107272	0.347698
847.294648	0.348101
847.482006	0.348300
847.669346	0.349026
847.856667	0.349107
848.043971	0.349757
848.231256	0.350060
848.418523	0.350499
848.605771	0.351042
848.793002	0.351874
848.980214	0.352588
849.167408	0.353253
849.354584	0.353358
849.541742	0.353932
849.728881	0.354634
849.916002	0.355094
850.103105	0.355685
850.290190	0.356320
850.477256	0.357074
850.664304	0.357377
850.851334	0.357854
851.038346	0.358292
851.225340	0.359099
851.412315	0.359456
851.599272	0.359950
851.786211	0.360103
851.973132	0.360519
852.160034	0.360590
852.346918	0.361127
852.533784	0.361553
852.720632	0.361846
852.907462	0.362204
853.094273	0.363021
853.281066	0.363407
853.467841	0.363949
853.654598	0.364395
853.841336	0.365106
854.028056	0.365503
854.214758	0.366108
854.401442	0.366948
854.588107	0.367426
854.774755	0.367735
854.961384	0.368226
855.147995	0.368522
855.334587	0.368924
855.521162	0.368982
855.707718	0.369310
855.894256	0.369815
856.080775	0.369973
856.267277	0.370594
856.453760	0.370525
856.640225	0.371258
856.826672	0.372103
857.013101	0.372491
857.199511	0.373342
857.385903	0.373668
857.572277	0.374115
857.758633	0.374413
857.944970	0.374368
858.131290	0.375150
858.317591	0.375637
858.503873	0.375698
858.690138	0.376115
858.876384	0.376055
859.062612	0.376851
859.248822	0.376703
859.435014	0.377200
859.621188	0.377558
859.807343	0.377316
859.993480	0.377470
860.179599	0.377679
860.365699	0.378063
860.551781	0.378749
860.737846	0.378571
860.923891	0.379790
861.109919	0.380209
861.295929	0.381002
861.481920	0.381848
861.667893	0.382255
861.853848	0.382538
862.039784	0.382559
862.225702	0.383014
862.411603	0.383120
862.597484	0.383007
862.783348	0.383550
862.969193	0.383189
863.155021	0.383647
863.340830	0.383633
863.526620	0.384029
863.712393	0.384247
863.898147	0.384545
864.083883	0.385151
864.269601	0.385067
864.455301	0.384623
864.640982	0.384994
864.826645	0.384335
865.012290	0.384856
865.197917	0.384850
865.383526	0.385100
865.569116	0.385105
865.754688	0.385612
865.940242	0.386088
866.125777	0.387029
866.311295	0.387586
866.496794	0.388166
866.682275	0.388296
866.867737	0.388800
867.053182	0.389355
867.238608	0.389950
867.424016	0.390086
867.609406	0.390282
867.794778	0.390141
867.980131	0.390461
868.165466	0.391213
868.350783	0.391565
868.536082	0.391993
868.721362	0.392583
868.906625	0.392795
869.091869	0.392915
869.277094	0.393431
869.462302	0.394121
869.647491	0.394311
869.832662	0.394788
870.017815	0.395042
870.202950	0.395407
870.388066	0.395265
870.573165	0.395223
870.758245	0.395944
870.943306	0.396234
871.128350	0.396171
871.313375	0.396490
871.498382	0.396642
871.683371	0.397143
871.868342	0.397877
872.053294	0.398123
872.238229	0.398039
872.423144	0.398226
872.608042	0.398163
872.792922	0.398527
872.977783	0.398745
873.162626	0.399138
873.347451	0.399442
873.532258	0.399127
873.717046	0.399562
873.901816	0.400142
874.086568	0.400304
874.271302	0.400644
874.456017	0.400628
874.640715	0.400967
874.825394	0.400739
875.010055	0.400309
875.194697	0.400549
875.379322	0.401022
875.563928	0.401478
875.748516	0.401556
875.933085	0.401969
876.117637	0.402808
876.302170	0.402940
876.486685	0.403026
876.671182	0.403793
876.855661	0.404056
877.040121	0.404121
877.224563	0.404327
877.408987	0.405138
877.593393	0.405561
877.777780	0.405830
877.962150	0.405984
878.146501	0.406456
878.330833	0.406555
878.515148	0.406948
878.699444	0.406761
878.883722	0.406584
879.067982	0.405721
879.252224	0.405824
879.436447	0.405817
879.620653	0.405923
879.804840	0.406104
879.989008	0.405898
880.173159	0.405723
880.357291	0.405869
880.541405	0.406041
880.725501	0.407140
880.909579	0.406964
881.093638	0.406874
881.277680	0.407598
881.461703	0.407570
881.645707	0.407955
881.829694	0.407558
882.013662	0.408380
882.197612	0.408338
882.381544	0.408029
882.565458	0.408669
882.749353	0.408750
882.933230	0.408700
883.117089	0.409521
883.300930	0.409461
883.484753	0.410631
883.668557	0.410418
883.852343	0.410975
884.036111	0.411035
884.219861	0.411165
884.403592	0.411485
884.587305	0.411413
884.771000	0.411238
884.954677	0.410952
885.138335	0.410633
885.321976	0.410693
885.505598	0.410735
885.689201	0.410895
885.872787	0.410388
886.056354	0.410425
886.239904	0.410514
886.423434	0.410696
886.606947	0.411512
886.790442	0.411727
886.973918	0.411813
887.157376	0.411671
887.340816	0.411897
887.524237	0.412129
887.707641	0.412104
887.891026	0.411990
888.074393	0.411761
888.257741	0.411553
888.441072	0.411236
888.624384	0.411055
888.807678	0.411020
888.990954	0.410439
889.174211	0.410613
889.357451	0.410999
889.540672	0.410600
889.723875	0.410573
889.907059	0.410337
890.090226	0.410556
890.273374	0.410265
890.456504	0.410256
890.639616	0.410210
890.822709	0.410045
891.005785	0.409661
891.188842	0.409997
891.371881	0.409782
891.554901	0.409535
891.737904	0.409342
891.920888	0.409847
892.103854	0.409400
892.286802	0.409482
892.469731	0.409260
892.652643	0.409104
892.835536	0.408951
893.018410	0.408482
893.201267	0.408509
893.384106	0.408727
893.566926	0.407750
893.749728	0.407998
893.932511	0.407648
894.115277	0.407679
894.298024	0.407714
894.480753	0.407655
894.663464	0.407895
894.846157	0.408074
895.028831	0.407668
895.211487	0.408330
895.394125	0.407993
895.576745	0.408308
895.759346	0.408309
895.941930	0.407385
896.124495	0.407444
896.307041	0.407119
896.489570	0.406918
896.672080	0.406866
896.854573	0.406773
897.037046	0.407093
897.219502	0.406766
897.401940	0.405886
897.584359	0.405988
897.766760	0.405891
897.949143	0.406328
898.131507	0.406069
898.313854	0.405829
898.496182	0.405712
898.678492	0.405271
898.860783	0.405160
899.043057	0.404671
899.225312	0.404793
899.407549	0.403791
899.589768	0.403143
899.771968	0.403024
899.954151	0.403415
900.136315	0.401627
900.318461	0.401228
900.500588	0.400844
900.682698	0.401009
900.864789	0.400430
901.046862	0.400282
901.228917	0.400181
901.410953	0.399945
901.592971	0.398881
901.774972	0.400278
901.956953	0.400162
902.138917	0.399911
902.320862	0.399287
902.502790	0.399264
902.684699	0.398753
902.866589	0.397369
903.048462	0.396844
903.230316	0.396319
903.412152	0.395276
903.593970	0.394958
903.775770	0.394223
903.957551	0.393901
904.139314	0.392798
904.321059	0.392650
904.502786	0.393084
904.684494	0.393157
904.866185	0.393042
905.047857	0.392496
905.229510	0.391915
905.411146	0.391884
905.592763	0.392328
905.774363	0.392362
905.955943	0.391493
906.137506	0.390704
906.319051	0.389844
906.500577	0.389615
906.682085	0.389222
906.863575	0.389221
907.045046	0.388589
907.226500	0.387942
907.407935	0.387866
907.589352	0.387749
907.770750	0.387568
907.952131	0.387263
908.133493	0.386359
908.314837	0.386438
908.496163	0.385595
908.677470	0.385489
908.858760	0.384965
909.040031	0.384320
909.221284	0.384050
909.402518	0.384068
909.583735	0.383994
909.764933	0.383842
909.946113	0.383556
910.127275	0.383193
910.308418	0.382771
910.489544	0.381848
910.670651	0.381066
910.851740	0.380893
911.032810	0.379957
911.213863	0.379505
911.394897	0.378717
911.575913	0.377877
911.756911	0.377256
911.937890	0.376866
912.118851	0.377145
912.299794	0.376166
912.480719	0.375380
912.661626	0.374535
912.842514	0.373077
913.023384	0.372835
913.204236	0.372098
913.385070	0.372050
913.565886	0.371773
913.746683	0.370722
913.927462	0.371263
914.108223	0.371106
914.288965	0.370885
914.469690	0.370445
914.650396	0.369637
914.831084	0.369198
915.011754	0.367838
915.192405	0.366379
915.373038	0.365965
915.553653	0.364401
915.734250	0.363157
915.914829	0.363114
916.095389	0.362223
916.275931	0.361551
916.456455	0.360669
916.636961	0.360254
916.817448	0.360568
916.997917	0.359480
917.178368	0.359567
917.358801	0.358961
917.539216	0.357289
917.719612	0.357294
917.899990	0.357179
918.080350	0.356990
918.260692	0.356171
918.441015	0.354584
918.621320	0.353989
918.801607	0.353363
918.981876	0.352528
919.162127	0.351870
919.342359	0.351158
919.522573	0.349927
919.702769	0.348151
919.882947	0.347141
920.063106	0.346227
920.243247	0.345624
920.423370	0.345359
920.603475	0.344711
920.783562	0.344093
920.963630	0.343113
921.143680	0.342188
921.323712	0.342489
921.503725	0.341530
921.683721	0.340705
921.863698	0.339584
922.043657	0.338010
922.223598	0.336623
922.403520	0.335684
922.583424	0.334445
922.763311	0.334071
922.943178	0.333284
923.123028	0.332896
923.302859	0.332225
923.482673	0.331403
923.662467	0.331012
923.842244	0.331025
924.022003	0.330240
924.201743	0.329289
924.381465	0.328131
924.561169	0.326829
924.740854	0.326235
924.920522	0.325784
925.100171	0.324852
925.279802	0.323676
925.459414	0.322460
925.639009	0.321267
925.818585	0.321601
925.998143	0.321294
926.177683	0.320302
926.357205	0.318808
926.536708	0.317247
926.716193	0.316407
926.895660	0.315169
927.075109	0.314368
927.254539	0.313721
927.433951	0.312816
927.613345	0.311767
927.792721	0.311034
927.972079	0.310855
928.151418	0.309987
928.330739	0.309424
928.510042	0.308207
928.689327	0.307420
928.868593	0.306836
929.047841	0.305565
929.227071	0.303777
929.406283	0.302766
929.585476	0.300920
929.764652	0.300272
929.943809	0.299154
930.122948	0.299110
930.302068	0.298334
930.481171	0.297209
930.660255	0.295432
930.839321	0.293548
931.018369	0.293012
931.197398	0.292379
931.376409	0.290964
931.555402	0.289857
931.734377	0.288384
931.913334	0.287710
932.092272	0.286276
932.271192	0.285676
932.450094	0.285142
932.628978	0.283777
932.807844	0.282148
932.986691	0.281418
933.165520	0.280465
933.344331	0.279657
933.523123	0.278116
933.701898	0.276775
933.880654	0.274577
934.059392	0.274041
934.238111	0.272709
934.416813	0.272661
934.595496	0.271525
934.774161	0.270343
934.952808	0.268477
935.131437	0.267108
935.310047	0.265648
935.488639	0.265951
935.667213	0.264577
935.845769	0.263796
936.024306	0.262777
936.202825	0.262265
936.381326	0.261032
936.559809	0.260951
936.738274	0.260035
936.916720	0.259900
937.095148	0.257165
937.273558	0.255727
937.451950	0.254354
937.630323	0.252693
937.808678	0.250277
937.987015	0.248999
938.165334	0.247080
938.343635	0.245959
938.521917	0.245491
938.700181	0.245659
938.878427	0.245045
939.056655	0.242689
939.234864	0.241063
939.413055	0.240582
939.591228	0.239137
939.769383	0.238257
939.947519	0.237519
940.125638	0.237112
940.303738	0.234983
940.481820	0.234382
940.659883	0.232726
940.837929	0.232438
941.015956	0.231270
941.193965	0.231519
941.371955	0.230484
941.549928	0.227343
941.727882	0.224468
941.905818	0.224289
942.083736	0.223979
942.261636	0.223464
942.439517	0.221669
942.617380	0.218838
942.795225	0.217860
942.973052	0.216253
943.150860	0.216905
943.328651	0.216610
943.506423	0.214924
943.684176	0.212850
943.861912	0.211557
944.039629	0.211421
944.217328	0.212626
944.395009	0.210703
944.572672	0.208776
944.750317	0.206419
944.927943	0.204861
945.105551	0.204658
945.283141	0.203221
945.460712	0.203130
945.638265	0.200722
945.815801	0.198468
945.993317	0.195464
946.170816	0.195969
946.348297	0.194684
946.525759	0.193239
946.703203	0.191467
946.880629	0.190892
947.058036	0.188841
947.235425	0.187599
947.412797	0.186596
947.590149	0.186150
947.767484	0.181835
947.944800	0.181584
948.122099	0.180186
948.299379	0.178785
948.476640	0.177678
948.653884	0.177166
948.831109	0.175588
949.008316	0.173510
949.185505	0.173492
949.362676	0.173795
949.539828	0.173999
949.716962	0.172331
949.894078	0.170674
950.071176	0.169168
950.248256	0.169711
950.425317	0.171947
950.602360	0.171594
950.779385	0.170019
950.956391	0.169546
951.133380	0.166778
951.310350	0.166655
951.487302	0.164796
951.664235	0.163705
951.841151	0.161812
952.018048	0.159589
952.194927	0.159492
952.371788	0.158951
952.548631	0.157512
952.725455	0.156126
952.902261	0.154675
953.079049	0.154271
953.255819	0.153327
953.432570	0.151347
953.609303	0.148297
953.786018	0.147841
953.962715	0.146265
954.139394	0.142926
954.316054	0.142069
954.492696	0.140939
954.669320	0.141460
954.845926	0.138049
955.022513	0.137746
955.199083	0.137528
955.375634	0.135453
955.552166	0.136009
955.728681	0.137029
955.905177	0.135824
956.081655	0.134469
956.258115	0.134059
956.434557	0.133366
956.610980	0.129169
956.787385	0.128929
956.963772	0.129101
957.140141	0.125353
957.316492	0.125120
957.492824	0.122699
957.669138	0.122677
957.845434	0.120927
958.021712	0.121461
958.197971	0.125860
958.374212	0.125815
958.550435	0.124581
958.726640	0.124888
958.902826	0.123712
959.078995	0.124477
959.255145	0.123139
959.431277	0.123512
959.607390	0.121973
959.783486	0.118967
959.959563	0.119155
960.135622	0.116236
960.311662	0.116881
960.487685	0.119629
960.663689	0.123653
960.839675	0.125376
961.015643	0.124381
961.191593	0.127287
961.367524	0.126488
961.543437	0.126327
961.719332	0.128057
961.895209	0.129376
962.071067	0.124835
962.246907	0.121786
962.422730	0.121285
962.598533	0.121806
962.774319	0.118339
962.950086	0.117991
963.125835	0.117045
963.301566	0.119848
963.477279	0.119574
963.652973	0.123239
963.828650	0.124119
964.004308	0.123543
964.179947	0.123633
964.355569	0.123197
964.531172	0.123983
964.706757	0.121757
964.882324	0.120129
965.057873	0.117362
965.233403	0.115543
965.408916	0.109988
965.584410	0.109347
965.759885	0.108150
965.935343	0.109767
966.110782	0.108915
966.286203	0.109008
966.461606	0.106987
966.636991	0.106665
966.812357	0.103879
966.987705	0.109127
967.163035	0.107214
967.338347	0.106699
967.513641	0.106776
967.688916	0.108615
967.864173	0.109997
968.039412	0.108810
968.214632	0.109730
968.389835	0.113135
968.565019	0.111766
968.740185	0.113857
968.915333	0.113990
969.090462	0.114624
969.265573	0.110819
969.440667	0.109251
969.615741	0.111428
969.790798	0.107512
969.965836	0.105782
970.140856	0.106461
970.315858	0.104457
970.490842	0.104405
970.665808	0.105839
970.840755	0.107721
971.015684	0.106334
971.190595	0.106390
971.365487	0.111045
971.540362	0.112482
971.715218	0.110323
971.890056	0.109360
972.064875	0.109757
972.239677	0.106954
972.414460	0.106999
972.589225	0.108033
972.763972	0.107632
972.938700	0.106946
973.113411	0.107976
973.288103	0.110412
973.462777	0.112478
973.637432	0.112619
973.812070	0.114151
973.986689	0.114538
974.161290	0.116449
974.335873	0.118591
974.510437	0.117695
974.684984	0.116938
974.859512	0.117057
975.034022	0.118086
975.208513	0.118030
975.382987	0.115366
975.557442	0.115473
975.731879	0.115014
975.906298	0.114276
976.080698	0.115368
976.255080	0.114919
976.429445	0.111421
976.603790	0.110910
976.778118	0.110434
976.952427	0.112457
977.126719	0.112954
977.300992	0.112454
977.475246	0.111648
977.649483	0.110155
977.823701	0.106865
977.997901	0.109100
978.172083	0.107879
978.346247	0.106876
978.520392	0.106913
978.694519	0.107894
978.868628	0.106941
979.042719	0.104192
979.216791	0.101574
979.390845	0.103857
979.564882	0.101330
979.738899	0.102056
979.912899	0.103831
980.086880	0.104126
980.260843	0.102785
980.434788	0.104560
980.608715	0.106566
980.782623	0.109094
980.956514	0.112681
981.130386	0.114019
981.304240	0.116091
981.478075	0.114539
981.651892	0.112705
981.825692	0.113648
981.999472	0.109583
982.173235	0.109395
982.346980	0.112787
982.520706	0.109190
982.694414	0.109563
982.868104	0.108349
983.041775	0.108163
983.215428	0.108887
983.389064	0.108818
983.562680	0.111920
983.736279	0.112315
983.909860	0.110735
984.083422	0.110681
984.256966	0.110510
984.430491	0.111624
984.603999	0.110558
984.777488	0.111427
984.950959	0.108962
985.124412	0.105700
985.297847	0.105396
985.471263	0.103471
985.644661	0.103598
985.818041	0.103043
985.991403	0.099423
986.164747	0.099616
986.338072	0.096957
986.511379	0.099127
986.684668	0.101324
986.857938	0.104003
987.031191	0.107839
987.204425	0.107276
987.377641	0.108266
987.550839	0.107669
987.724018	0.109585
987.897179	0.111443
988.070322	0.110157
988.243447	0.112998
988.416554	0.108645
988.589642	0.104447
988.762712	0.105072
988.935764	0.106823
989.108798	0.111124
989.281813	0.109447
989.454811	0.110768
989.627790	0.111794
989.800751	0.109386
989.973693	0.111144
990.146617	0.111198
990.319524	0.111103
990.492412	0.111032
990.665281	0.109866
990.838133	0.110367
991.010966	0.108709
991.183781	0.107278
991.356578	0.105829
991.529356	0.106034
991.702117	0.105246
991.874859	0.105487
992.047583	0.101108
992.220288	0.100999
992.392976	0.099634
992.565645	0.100070
992.738296	0.100702
992.910929	0.100987
993.083543	0.099803
993.256139	0.100972
993.428718	0.102696
993.601277	0.103390
993.773819	0.102071
993.946342	0.103344
994.118848	0.102559
994.291335	0.102347
994.463803	0.105477
994.636254	0.105516
994.808686	0.105514
994.981100	0.105402
995.153496	0.108078
995.325874	0.109352
995.498233	0.110293
995.670574	0.111433
995.842897	0.111245
996.015202	0.108719
996.187488	0.110176
996.359757	0.112637
996.532007	0.109652
996.704239	0.108497
996.876452	0.108198
997.048648	0.108453
997.220825	0.108891
997.392984	0.109221
997.565124	0.108921
997.737247	0.108431
997.909351	0.107265
998.081437	0.108191
998.253505	0.108687
998.425554	0.107206
998.597586	0.106437
998.769599	0.105221
998.941594	0.104063
999.113571	0.104302
999.285529	0.105107
999.457469	0.105728
999.629391	0.106382
999.801295	0.108781
999.973181	0.109268
1000.145048	0.109016
1000.316897	0.109033
1000.488728	0.110488
1000.660541	0.111010
1000.832335	0.109492
1001.004111	0.107599
1001.175869	0.108592
1001.347609	0.106896
1001.519331	0.107280
1001.691034	0.105851
1001.862719	0.104893
1002.034386	0.105303
1002.206035	0.105224
1002.377665	0.105966
1002.549277	0.106356
1002.720871	0.104944
1002.892447	0.103704
1003.064004	0.104586
1003.235544	0.106107
1003.407065	0.106257
1003.578568	0.104227
1003.750052	0.104059
1003.921519	0.103055
1004.092967	0.104096
1004.264397	0.103606
1004.435809	0.102079
1004.607202	0.101670
1004.778577	0.102355
1004.949934	0.103632
1005.121273	0.102982
1005.292594	0.102884
1005.463896	0.102512
1005.635180	0.101699
1005.806446	0.101069
1005.977694	0.102195
1006.148923	0.100700
1006.320135	0.100018
1006.491328	0.097853
1006.662503	0.100601
1006.833659	0.101174
1007.004798	0.101543
1007.175918	0.102093
1007.347020	0.102204
1007.518103	0.102139
1007.689169	0.102370
1007.860216	0.103244
1008.031245	0.103356
1008.202256	0.101528
1008.373248	0.101706
1008.544223	0.101471
1008.715179	0.100635
1008.886117	0.102059
1009.057036	0.102265
1009.227938	0.102968
1009.398821	0.102861
1009.569686	0.105367
1009.740533	0.104962
1009.911361	0.105525
1010.082172	0.106629
1010.252964	0.106755
1010.423738	0.105747
1010.594493	0.107521
1010.765231	0.107525
1010.935950	0.106706
1011.106651	0.105576
1011.277334	0.105771
1011.447998	0.104250
1011.618645	0.104410
1011.789273	0.102796
1011.959882	0.101055
1012.130474	0.100795
1012.301048	0.101988
1012.471603	0.100755
1012.642140	0.101651
1012.812658	0.100905
1012.983159	0.102385
1013.153641	0.103390
1013.324105	0.103324
1013.494551	0.105730
1013.664979	0.104188
1013.835388	0.103704
1014.005779	0.103662
1014.176152	0.103909
1014.346507	0.104983
1014.516843	0.102620
1014.687162	0.100295
1014.857462	0.102253
1015.027744	0.103018
1015.198007	0.102742
1015.368252	0.101657
1015.538480	0.103647
1015.708689	0.104034
1015.878879	0.106013
1016.049052	0.107227
1016.219206	0.108661
1016.389342	0.106727
1016.559460	0.105718
1016.729559	0.106842
1016.899641	0.108087
1017.069704	0.106910
1017.239749	0.103733
1017.409775	0.101885
1017.579784	0.102136
1017.749774	0.100907
1017.919746	0.101722
1018.089700	0.100617
1018.259635	0.100214
1018.429553	0.098939
1018.599452	0.098108
1018.769333	0.098419
1018.939195	0.100564
1019.109040	0.100705
1019.278866	0.101146
1019.448674	0.099919
1019.618464	0.099982
1019.788235	0.101630
1019.957989	0.102083
1020.127724	0.101029
1020.297441	0.100265
1020.467139	0.098156
1020.636820	0.096869
1020.806482	0.096939
1020.976126	0.097950
1021.145752	0.101170
1021.315359	0.100595
1021.484948	0.098772
1021.654519	0.100101
1021.824072	0.100701
1021.993607	0.102526
1022.163123	0.101965
1022.332621	0.101797
1022.502101	0.103253
1022.671563	0.100581
1022.841007	0.098820
1023.010432	0.100966
1023.179839	0.101954
1023.349228	0.101580
1023.518598	0.101019
1023.687951	0.103360
1023.857285	0.102677
1024.026601	0.103001
1024.195899	0.103218
1024.365178	0.105007
1024.534439	0.103615
1024.703682	0.103603
1024.872907	0.104565
1025.042114	0.102273
1025.211302	0.099709
1025.380472	0.101396
1025.549624	0.099244
1025.718758	0.099980
1025.887873	0.098713
1026.056970	0.100653
1026.226049	0.100619
1026.395110	0.102090
1026.564153	0.104452
1026.733177	0.106037
1026.902183	0.104956
1027.071171	0.104758
1027.240141	0.103036
1027.409092	0.101915
1027.578026	0.100808
1027.746940	0.101106
1027.915837	0.100013
1028.084716	0.100241
1028.253576	0.101034
1028.422418	0.100253
1028.591242	0.102352
1028.760048	0.102874
1028.928835	0.102540
1029.097604	0.103659
1029.266355	0.101959
1029.435088	0.099865
1029.603803	0.097587
1029.772499	0.095934
1029.941177	0.096917
1030.109837	0.097130
1030.278478	0.098828
1030.447102	0.100041
1030.615707	0.098256
1030.784294	0.099716
1030.952863	0.099382
1031.121413	0.100859
1031.289945	0.100948
1031.458460	0.100984
1031.626955	0.100867
1031.795433	0.099413
1031.963892	0.100130
1032.132334	0.099685
1032.300756	0.099585
1032.469161	0.101794
1032.637548	0.102287
1032.805916	0.103921
1032.974266	0.103544
1033.142598	0.102861
1033.310911	0.103306
1033.479207	0.102368
1033.647484	0.104330
1033.815743	0.104586
1033.983983	0.105627
1034.152206	0.106144
1034.320410	0.104559
1034.488596	0.103811
1034.656764	0.103120
1034.824914	0.101247
1034.993045	0.100594
1035.161158	0.099778
1035.329253	0.097197
1035.497330	0.094979
1035.665388	0.092906
1035.833428	0.093630
1036.001450	0.094906
1036.169454	0.094967
1036.337440	0.095355
1036.505407	0.096990
1036.673356	0.097196
1036.841287	0.099149
1037.009200	0.100780
1037.177094	0.102407
1037.344970	0.103225
1037.512828	0.100779
1037.680668	0.100078
1037.848489	0.099999
1038.016293	0.098219
1038.184078	0.099001
1038.351845	0.098238
1038.519593	0.097488
1038.687324	0.096550
1038.855036	0.094273
1039.022730	0.095383
1039.190406	0.095878
1039.358063	0.094972
1039.525702	0.095598
1039.693323	0.094508
1039.860926	0.095168
1040.028511	0.096272
1040.196077	0.094706
1040.363625	0.096205
1040.531155	0.098303
1040.698667	0.100065
1040.866161	0.103442
1041.033636	0.104820
1041.201093	0.103747
1041.368532	0.101557
1041.535952	0.100723
1041.703355	0.100856
1041.870739	0.099518
1042.038105	0.099947
1042.205452	0.098624
1042.372782	0.097055
1042.540093	0.096513
1042.707386	0.097114
1042.874661	0.099054
1043.041918	0.099190
1043.209156	0.099167
1043.376376	0.100929
1043.543578	0.099871
1043.710762	0.099319
1043.877927	0.100436
1044.045074	0.102400
1044.212203	0.103453
1044.379314	0.105749
1044.546407	0.106039
1044.713481	0.104909
1044.880537	0.103134
1045.047575	0.101954
1045.214595	0.101619
1045.381596	0.100668
1045.548579	0.096889
1045.715544	0.096626
1045.882491	0.095385
1046.049420	0.094661
1046.216330	0.096503
1046.383222	0.100728
1046.550096	0.100849
1046.716951	0.100180
1046.883789	0.099132
1047.050608	0.099885
1047.217409	0.100195
1047.384192	0.099301
1047.550956	0.099684
1047.717703	0.098354
1047.884431	0.095263
1048.051140	0.097117
1048.217832	0.096054
1048.384505	0.096887
1048.551161	0.098983
1048.717798	0.098951
1048.884416	0.098205
1049.051017	0.098612
1049.217599	0.100656
1049.384163	0.099666
1049.550709	0.097161
1049.717237	0.099106
1049.883746	0.099428
1050.050237	0.098059
1050.216710	0.094668
1050.383165	0.094874
1050.549601	0.094156
1050.716019	0.092809
1050.882420	0.095339
1051.048801	0.094893
1051.215165	0.096053
1051.381510	0.096664
1051.547837	0.098289
1051.714146	0.101010
1051.880437	0.101285
1052.046709	0.100962
1052.212964	0.099899
1052.379200	0.095903
1052.545417	0.097823
1052.711617	0.097122
1052.877798	0.097790
1053.043961	0.095621
1053.210106	0.095259
1053.376233	0.093198
1053.542341	0.096344
1053.708432	0.098474
1053.874504	0.101722
1054.040557	0.101236
1054.206593	0.101539
1054.372610	0.100258
1054.538609	0.099278
1054.704590	0.098086
1054.870553	0.100930
1055.036497	0.098459
1055.202424	0.097168
1055.368331	0.096948
1055.534221	0.096990
1055.700093	0.095407
1055.865946	0.095191
1056.031781	0.093870
1056.197598	0.096018
1056.363397	0.095434
1056.529177	0.093243
1056.694939	0.093377
1056.860683	0.091792
1057.026409	0.093626
1057.192116	0.095477
1057.357806	0.094248
1057.523477	0.096418
1057.689130	0.096521
1057.854764	0.094702
1058.020381	0.098265
1058.185979	0.098831
1058.351559	0.099882
1058.517120	0.095847
1058.682664	0.094805
1058.848189	0.095142
1059.013696	0.096493
1059.179185	0.095752
1059.344656	0.097974
1059.510108	0.095189
1059.675542	0.096444
1059.840958	0.096894
1060.006356	0.100995
1060.171735	0.103155
1060.337096	0.106398
1060.502439	0.105125
1060.667764	0.105496
1060.833071	0.105193
1060.998359	0.107616
1061.163629	0.106997
1061.328881	0.105942
1061.494115	0.103331
1061.659330	0.098746
1061.824527	0.096102
1061.989706	0.095321
1062.154867	0.093312
1062.320010	0.092054
1062.485134	0.086491
1062.650240	0.087759
1062.815328	0.089951
1062.980398	0.089593
1063.145449	0.093354
1063.310482	0.094310
1063.475497	0.094804
1063.640494	0.096434
1063.805473	0.097271
1063.970433	0.102462
1064.135375	0.101612
1064.300299	0.100333
1064.465204	0.101157
1064.630092	0.101012
1064.794961	0.098548
1064.959812	0.100608
1065.124645	0.100120
1065.289459	0.101716
1065.454256	0.101398
1065.619034	0.101830
1065.783793	0.101554
1065.948535	0.101759
1066.113258	0.099750
1066.277964	0.101586
1066.442651	0.100707
1066.607319	0.102251
1066.771970	0.101183
1066.936602	0.101832
1067.101216	0.100587
1067.265812	0.099996
1067.430389	0.100146
1067.594949	0.103283
1067.759490	0.102888
1067.924013	0.102692
1068.088518	0.102659
1068.253004	0.102091
1068.417472	0.100583
1068.581922	0.100749
1068.746354	0.101821
1068.910768	0.102991
1069.075163	0.101463
1069.239540	0.101745
1069.403899	0.099966
1069.568240	0.099903
1069.732562	0.098268
1069.896866	0.100436
1070.061152	0.102239
1070.225420	0.099429
1070.389670	0.098711
1070.553901	0.097849
1070.718114	0.097533
1070.882309	0.101012
1071.046486	0.099312
1071.210644	0.104816
1071.374784	0.106614
1071.538906	0.104164
1071.703010	0.105143
1071.867096	0.104234
1072.031163	0.103861
1072.195212	0.102996
1072.359243	0.101102
1072.523256	0.101624
1072.687250	0.099022
1072.851226	0.097797
1073.015184	0.098643
1073.179124	0.099390
1073.343045	0.100519
1073.506949	0.100548
1073.670834	0.102323
1073.834701	0.101176
1073.998549	0.102014
1074.162380	0.100040
1074.326192	0.100722
1074.489986	0.099131
1074.653761	0.100572
1074.817519	0.098659
1074.981258	0.101836
1075.144979	0.103986
1075.308682	0.108409
1075.472367	0.109483
1075.636033	0.112891
1075.799681	0.110676
1075.963311	0.112107
1076.126923	0.111676
1076.290516	0.115743
1076.454092	0.114964
1076.617649	0.110868
1076.781187	0.109731
1076.944708	0.108302
1077.108210	0.107936
1077.271695	0.110489
1077.435160	0.110628
1077.598608	0.110108
1077.762038	0.108130
1077.925449	0.109895
1078.088842	0.113094
1078.252217	0.111824
1078.415573	0.114645
1078.578912	0.113770
1078.742232	0.110667
1078.905534	0.111728
1079.068817	0.114101
1079.232083	0.115016
1079.395330	0.112059
1079.558559	0.112601
1079.721770	0.114667
1079.884962	0.112263
1080.048136	0.110974
1080.211293	0.111053
1080.374430	0.109188
1080.537550	0.108158
1080.700651	0.106171
1080.863735	0.107991
1081.026800	0.107748
1081.189846	0.108784
1081.352875	0.109658
1081.515885	0.108671
1081.678877	0.110525
1081.841851	0.112900
1082.004807	0.110328
1082.167744	0.111969
1082.330663	0.112339
1082.493564	0.110196
1082.656447	0.107782
1082.819312	0.106697
1082.982158	0.109610
1083.144986	0.110129
1083.307796	0.109823
1083.470587	0.113480
1083.633361	0.115413
1083.796116	0.113073
1083.958853	0.114244
1084.121571	0.113172
1084.284272	0.115016
1084.446954	0.112800
1084.609618	0.114160
1084.772264	0.113488
1084.934892	0.111925
1085.097501	0.108949
1085.260092	0.109955
1085.422665	0.107152
1085.585220	0.108052
1085.747756	0.109336
1085.910274	0.113411
1086.072774	0.110476
1086.235256	0.112128
1086.397720	0.111848
1086.560165	0.112152
1086.722592	0.110358
1086.885001	0.111569
1087.047392	0.112366
1087.209764	0.111881
1087.372119	0.111506
1087.534455	0.109916
1087.696772	0.108697
1087.859072	0.110288
1088.021353	0.110582
1088.183616	0.112693
1088.345861	0.119632
1088.508088	0.116591
1088.670296	0.117718
1088.832486	0.116923
1088.994658	0.121378
1089.156812	0.121862
1089.318948	0.122263
1089.481065	0.123600
1089.643164	0.124356
1089.805245	0.120574
1089.967308	0.123657
1090.129352	0.121774
1090.291378	0.121419
1090.453386	0.123055
1090.615376	0.125174
1090.777347	0.121983
1090.939301	0.122699
1091.101236	0.117083
1091.263153	0.119762
1091.425051	0.119795
1091.586932	0.118264
1091.748794	0.116290
1091.910638	0.111481
1092.072463	0.110857
1092.234271	0.114516
1092.396060	0.114163
1092.557831	0.119225
1092.719584	0.115218
1092.881319	0.118054
1093.043035	0.119163
1093.204733	0.119429
1093.366413	0.121498
1093.528075	0.120608
1093.689718	0.120206
1093.851343	0.119664
1094.012950	0.123433
1094.174539	0.128410
1094.336110	0.124785
1094.497662	0.124743
1094.659196	0.127424
1094.820712	0.122825
1094.982210	0.121035
1095.143689	0.116965
1095.305151	0.110811
1095.466594	0.108029
1095.628018	0.103514
1095.789425	0.105750
1095.950813	0.106360
1096.112183	0.104142
1096.273535	0.107137
1096.434869	0.107962
1096.596184	0.112843
1096.757482	0.124790
1096.918761	0.123983
1097.080021	0.124049
1097.241264	0.118489
1097.402488	0.118230
1097.563694	0.111866
1097.724882	0.112940
1097.886052	0.110833
1098.047203	0.110798
1098.208336	0.101279
1098.369451	0.099170
1098.530548	0.098364
1098.691627	0.103172
1098.852687	0.105680
1099.013729	0.116138
1099.174753	0.113277
1099.335758	0.114524
1099.496746	0.113172
1099.657715	0.116906
1099.818666	0.119863
1099.979599	0.121011
1100.140513	0.119129
1100.301409	0.114082
1100.462287	0.114220
1100.623147	0.116845
1100.783989	0.120032
1100.944812	0.124033
1101.105617	0.122006
1101.266404	0.119862
1101.427173	0.117857
1101.587923	0.122818
1101.748656	0.124353
1101.909370	0.121458
1102.070066	0.123852
1102.230743	0.124341
1102.391403	0.122185
1102.552044	0.125438
1102.712667	0.128649
1102.873271	0.127170
1103.033858	0.118676
1103.194426	0.124334
1103.354976	0.126376
1103.515508	0.122205
1103.676021	0.120244
1103.836517	0.119146
1103.996994	0.115109
1104.157453	0.112322
1104.317893	0.116909
1104.478316	0.121796
1104.638720	0.117465
1104.799106	0.117775
1104.959474	0.118372
1105.119823	0.120911
1105.280155	0.123361
1105.440468	0.123971
1105.600763	0.128635
1105.761039	0.129148
1105.921298	0.125733
1106.081538	0.123057
1106.241760	0.118635
1106.401964	0.120470
1106.562149	0.119755
1106.722316	0.118966
1106.882465	0.122525
1107.042596	0.117740
1107.202709	0.120378
1107.362803	0.126043
1107.522879	0.125267
1107.682937	0.127778
1107.842977	0.129317
1108.002999	0.126819
1108.163002	0.119960
1108.322987	0.119349
1108.482954	0.121245
1108.642902	0.118802
1108.802833	0.113059
1108.962745	0.115049
1109.122639	0.115934
1109.282515	0.112166
1109.442372	0.114454
1109.602211	0.119299
1109.762032	0.116416
1109.921835	0.112224
1110.081620	0.111645
1110.241386	0.111571
1110.401134	0.112488
1110.560864	0.111472
1110.720576	0.116876
1110.880269	0.114642
1111.039945	0.118019
1111.199602	0.119720
1111.359240	0.124208
1111.518861	0.127908
1111.678463	0.130566
1111.838047	0.137068
1111.997613	0.139801
1112.157161	0.139060
1112.316690	0.142436
1112.476202	0.141745
1112.635695	0.142287
1112.795169	0.142384
1112.954626	0.132647
1113.114064	0.134284
1113.273484	0.126014
1113.432886	0.120957
1113.592270	0.120087
1113.751635	0.120538
1113.910983	0.115698
1114.070312	0.117519
1114.229622	0.122616
1114.388915	0.128817
1114.548189	0.135159
1114.707445	0.142077
1114.866683	0.143346
1115.025903	0.142629
1115.185104	0.145905
1115.344287	0.148671
1115.503452	0.147578
1115.662599	0.145078
1115.821727	0.141327
1115.980838	0.132670
1116.139930	0.124430
1116.299004	0.121395
1116.458059	0.123742
1116.617097	0.122139
1116.776116	0.123273
1116.935117	0.121951
1117.094099	0.118140
1117.253064	0.120269
1117.412010	0.120889
1117.570938	0.120633
1117.729848	0.123560
1117.888740	0.122255
1118.047613	0.122044
1118.206468	0.116040
1118.365305	0.117293
1118.524124	0.115811
1118.682924	0.121249
1118.841707	0.117124
1119.000471	0.123196
1119.159216	0.121789
1119.317944	0.117761
1119.476653	0.112310
1119.635344	0.120008
1119.794017	0.126140
1119.952672	0.133968
1120.111308	0.133436
1120.269927	0.131734
1120.428527	0.125661
1120.587108	0.132828
1120.745672	0.134626
1120.904217	0.138073
1121.062744	0.131730
1121.221253	0.125800
1121.379744	0.127436
1121.538216	0.124452
1121.696671	0.129165
1121.855107	0.134410
1122.013524	0.134922
1122.171924	0.139996
1122.330305	0.134886
1122.488668	0.133046
1122.647013	0.129615
1122.805340	0.119033
1122.963648	0.119989
1123.121938	0.119634
1123.280210	0.122458
1123.438464	0.116408
1123.596700	0.110301
1123.754917	0.112217
1123.913116	0.117576
1124.071297	0.114411
1124.229459	0.117321
1124.387604	0.116608
1124.545730	0.118822
1124.703838	0.109948
1124.861928	0.113874
1125.019999	0.114739
1125.178052	0.118756
1125.336088	0.117440
1125.494104	0.121298
1125.652103	0.118844
1125.810083	0.121762
1125.968045	0.116895
1126.125989	0.117319
1126.283915	0.117985
1126.441823	0.116592
1126.599712	0.114638
1126.757583	0.122737
1126.915436	0.125722
1127.073270	0.129112
1127.231087	0.124086
1127.388885	0.130060
1127.546665	0.139337
1127.704426	0.140453
1127.862170	0.141610
1128.019895	0.142003
1128.177602	0.136710
1128.335291	0.137210
1128.492961	0.129310
1128.650614	0.128011
1128.808248	0.125069
1128.965864	0.117590
1129.123461	0.113083
1129.281041	0.111808
1129.438602	0.112607
1129.596145	0.106933
1129.753670	0.106905
1129.911176	0.112259
1130.068665	0.112204
1130.226135	0.123266
1130.383587	0.119829
1130.541020	0.120819
1130.698436	0.121968
1130.855833	0.117585
1131.013212	0.125010
1131.170573	0.124618
1131.327915	0.123276
1131.485239	0.122203
1131.642545	0.116352
1131.799833	0.117755
1131.957103	0.115484
1132.114354	0.115526
1132.271588	0.115775
1132.428803	0.108225
1132.585999	0.101193
1132.743178	0.106837
1132.900338	0.111736
1133.057480	0.107499
1133.214604	0.103520
1133.371710	0.110275
1133.528797	0.113025
1133.685866	0.117576
1133.842917	0.121671
1133.999950	0.136994
1134.156964	0.130717
1134.313960	0.130212
1134.470938	0.129574
1134.627898	0.131211
1134.784840	0.130123
1134.941763	0.124435
1135.098668	0.118151
1135.255555	0.118647
1135.412424	0.111919
1135.569274	0.124207
1135.726107	0.125700
1135.882921	0.131495
1136.039716	0.144653
1136.196494	0.148744
1136.353253	0.149479
1136.509995	0.162702
1136.666717	0.158247
1136.823422	0.151852
1136.980109	0.139663
1137.136777	0.140034
1137.293427	0.134164
1137.450059	0.120775
1137.606672	0.113046
1137.763267	0.117894
1137.919844	0.100220
1138.076403	0.098235
1138.232944	0.113070
1138.389466	0.120855
1138.545971	0.115608
1138.702457	0.119368
1138.858924	0.124756
1139.015374	0.121540
1139.171805	0.122236
1139.328218	0.130131
1139.484613	0.129340
1139.640990	0.117135
1139.797348	0.110293
1139.953688	0.107997
1140.110010	0.104977
1140.266314	0.103610
1140.422600	0.105199
1140.578867	0.103358
1140.735116	0.102015
1140.891347	0.099617
1141.047559	0.096303
1141.203754	0.099597
1141.359930	0.102384
1141.516088	0.100350
1141.672228	0.107592
1141.828349	0.107548
1141.984452	0.105865
1142.140537	0.113358
1142.296604	0.119994
1142.452653	0.123747
1142.608683	0.129642
1142.764695	0.129688
1142.920689	0.135699
1143.076665	0.131873
1143.232622	0.129548
1143.388562	0.136277
1143.544483	0.127427
1143.700385	0.126197
1143.856270	0.131613
1144.012136	0.127163
1144.167985	0.134516
1144.323814	0.123958
1144.479626	0.114775
1144.635420	0.133806
1144.791195	0.121964
1144.946952	0.131369
1145.102691	0.131366
1145.258411	0.119777
1145.414113	0.119296
1145.569798	0.111558
1145.725463	0.112761
1145.881111	0.124334
1146.036741	0.114849
1146.192352	0.126195
1146.347945	0.130774
1146.503519	0.144535
1146.659076	0.151889
1146.814614	0.154821
1146.970134	0.148361
1147.125636	0.166565
1147.281120	0.176227
1147.436585	0.181246
1147.592032	0.179183
1147.747461	0.173871
1147.902872	0.161129
1148.058265	0.153823
1148.213639	0.130428
1148.368995	0.151234
1148.524333	0.153360
1148.679653	0.137859
1148.834954	0.123932
1148.990237	0.126569
1149.145502	0.118412
1149.300749	0.119964
1149.455977	0.133730
1149.611188	0.167498
1149.766380	0.156775
1149.921553	0.152867
1150.076709	0.150568
1150.231846	0.153062
1150.386966	0.141667
1150.542066	0.138815
1150.697149	0.138944
1150.852214	0.136033
1151.007260	0.118265
1151.162288	0.118399
1151.317298	0.116933
1151.472289	0.130185
1151.627263	0.136131
1151.782218	0.138068
1151.937155	0.154152
1152.092073	0.152286
1152.246974	0.149127
1152.401856	0.143304
1152.556720	0.153947
1152.711566	0.146515
1152.866393	0.134153
1153.021203	0.140709
1153.175994	0.145823
1153.330767	0.132128
1153.485521	0.128536
1153.640258	0.120975
1153.794976	0.118482
1153.949676	0.110571
1154.104358	0.110421
1154.259021	0.116126
1154.413667	0.101567
1154.568294	0.079513
1154.722903	0.083371
1154.877493	0.095420
1155.032066	0.103361
1155.186620	0.115254
1155.341156	0.109502
1155.495674	0.100441
1155.650173	0.101521
1155.804654	0.096675
1155.959118	0.119833
1156.113562	0.115602
1156.267989	0.105930
1156.422397	0.118285
1156.576788	0.112451
1156.731160	0.108901
1156.885513	0.119928
1157.039849	0.121837
1157.194166	0.147497
1157.348465	0.146332
1157.502746	0.159560
1157.657009	0.165090
1157.811253	0.141741
1157.965479	0.148712
1158.119687	0.159644
1158.273877	0.158825
1158.428048	0.149904
1158.582201	0.132551
1158.736337	0.143611
1158.890453	0.134364
1159.044552	0.127412
1159.198632	0.135863
1159.352694	0.137197
1159.506738	0.142913
1159.660764	0.133840
1159.814771	0.138242
1159.968761	0.129829
1160.122732	0.106434
1160.276685	0.100831
1160.430619	0.091863
1160.584535	0.093721
1160.738434	0.093814
1160.892313	0.084745
1161.046175	0.102887
1161.200019	0.106805
1161.353844	0.111432
1161.507651	0.116352
1161.661440	0.114956
1161.815210	0.137868
1161.968962	0.139320
1162.122697	0.138910
1162.276412	0.140312
1162.430110	0.122661
1162.583789	0.121683
1162.737451	0.125336
1162.891094	0.126386
1163.044718	0.140092
1163.198325	0.123633
1163.351913	0.124106
1163.505483	0.119923
1163.659035	0.115749
1163.812569	0.125183
1163.966084	0.122479
1164.119581	0.123758
1164.273060	0.123501
1164.426521	0.135598
1164.579964	0.141176
1164.733388	0.137855
1164.886794	0.134884
1165.040182	0.141605
1165.193551	0.138042
1165.346903	0.134662
1165.500236	0.133418
1165.653551	0.124669
1165.806848	0.122941
1165.960126	0.121691
1166.113386	0.109734
1166.266628	0.118351
1166.419852	0.096728
1166.573058	0.094759
1166.726245	0.092416
1166.879414	0.086404
1167.032565	0.098072
1167.185698	0.083091
1167.338812	0.070006
1167.491909	0.093835
1167.644987	0.070830
1167.798046	0.093020
1167.951088	0.103262
1168.104111	0.098038
1168.257117	0.108371
1168.410103	0.121413
1168.563072	0.104093
1168.716023	0.102515
1168.868955	0.077162
1169.021869	0.101306
1169.174765	0.080591
1169.327642	0.072877
1169.480501	0.073063
1169.633343	0.077960
1169.786165	0.073121
1169.938970	0.087073
1170.091757	0.109680
1170.244525	0.107564
1170.397275	0.111393
1170.550007	0.116395
1170.702720	0.127206
1170.855415	0.155478
1171.008092	0.144371
1171.160751	0.141343
1171.313392	0.145815
1171.466014	0.261860
1171.618619	0.141220
1171.771205	0.141220
1171.923772	0.141220
