sample name	sample
index	259
start time	 02-25-2021  10:53:38 AM


Wavelength (nm)	Absorbance
494.344910	-0.024448
494.563924	-0.024448
494.782919	-0.024448
495.001897	-0.001200
495.220856	-0.063461
495.439797	-0.061376
495.658719	-0.060508
495.877624	-0.033139
496.096510	-0.033960
496.315378	-0.022873
496.534227	0.000967
496.753059	-0.006265
496.971872	-0.014509
497.190667	0.105979
497.409444	0.127420
497.628203	0.135892
497.846943	0.137319
498.065665	0.140573
498.284369	0.143696
498.503055	0.145474
498.721723	0.147217
498.940372	0.148687
499.159003	0.148261
499.377616	0.149666
499.596210	0.150779
499.814787	0.151335
500.033345	0.151966
500.251885	0.151669
500.470406	0.150566
500.688910	0.150822
500.907395	0.150621
501.125862	0.151646
501.344311	0.151542
501.562742	0.151623
501.781154	0.152726
501.999548	0.152712
502.217924	0.152735
502.436282	0.153313
502.654621	0.152175
502.872942	0.153170
503.091245	0.153230
503.309530	0.152897
503.527797	0.152666
503.746045	0.151840
503.964275	0.151764
504.182487	0.151949
504.400681	0.151991
504.618856	0.152875
504.837013	0.153601
505.055152	0.152870
505.273273	0.153820
505.491376	0.153889
505.709460	0.153895
505.927526	0.154397
506.145574	0.154840
506.363604	0.155552
506.581615	0.156377
506.799608	0.155366
507.017583	0.156050
507.235540	0.156305
507.453478	0.155968
507.671399	0.156090
507.889301	0.157489
508.107185	0.157452
508.325050	0.157679
508.542898	0.156980
508.760727	0.157143
508.978538	0.157398
509.196330	0.157669
509.414105	0.158579
509.631861	0.158646
509.849599	0.157084
510.067319	0.157446
510.285021	0.156505
510.502704	0.156821
510.720369	0.158243
510.938016	0.158700
511.155645	0.158467
511.373255	0.157809
511.590848	0.158246
511.808422	0.158139
512.025977	0.157720
512.243515	0.158646
512.461034	0.159289
512.678536	0.158757
512.896018	0.158224
513.113483	0.158599
513.330930	0.159486
513.548358	0.159835
513.765768	0.160790
513.983160	0.161180
514.200533	0.161254
514.417889	0.160905
514.635226	0.161020
514.852545	0.161786
515.069845	0.161959
515.287128	0.162600
515.504392	0.162579
515.721638	0.162691
515.938866	0.162807
516.156075	0.163300
516.373267	0.164144
516.590440	0.164162
516.807594	0.164295
517.024731	0.164616
517.241850	0.164326
517.458950	0.164885
517.676032	0.164793
517.893095	0.165579
518.110141	0.165833
518.327168	0.165889
518.544177	0.166351
518.761168	0.167000
518.978141	0.166769
519.195095	0.166798
519.412031	0.166476
519.628949	0.167953
519.845849	0.168118
520.062731	0.168505
520.279594	0.169073
520.496439	0.169411
520.713266	0.169441
520.930074	0.170259
521.146865	0.170401
521.363637	0.171223
521.580391	0.171445
521.797127	0.172000
522.013844	0.172046
522.230543	0.172089
522.447224	0.172058
522.663887	0.172580
522.880532	0.172473
523.097158	0.173758
523.313766	0.174059
523.530356	0.173694
523.746928	0.173279
523.963481	0.173178
524.180017	0.174123
524.396534	0.174786
524.613032	0.175788
524.829513	0.176004
525.045975	0.175830
525.262420	0.176174
525.478845	0.176168
525.695253	0.176832
525.911643	0.177777
526.128014	0.177268
526.344367	0.177689
526.560702	0.176678
526.777018	0.176802
526.993316	0.177109
527.209597	0.177167
527.425858	0.177116
527.642102	0.178035
527.858328	0.177873
528.074535	0.177891
528.290724	0.178154
528.506894	0.178307
528.723047	0.179131
528.939181	0.178861
529.155297	0.179123
529.371395	0.179651
529.587475	0.179452
529.803536	0.179685
530.019579	0.180147
530.235604	0.180136
530.451611	0.181417
530.667600	0.181508
530.883570	0.181997
531.099522	0.182804
531.315456	0.183810
531.531372	0.184183
531.747269	0.184963
531.963148	0.185998
532.179009	0.186617
532.394852	0.186560
532.610676	0.186937
532.826482	0.187724
533.042271	0.187963
533.258040	0.188594
533.473792	0.188744
533.689525	0.189029
533.905240	0.188650
534.120937	0.189246
534.336616	0.189448
534.552277	0.189951
534.767919	0.189932
534.983543	0.190032
535.199149	0.189637
535.414736	0.190509
535.630306	0.190863
535.845857	0.191498
536.061390	0.191837
536.276904	0.191546
536.492401	0.191711
536.707879	0.192129
536.923339	0.192623
537.138781	0.193511
537.354204	0.193467
537.569610	0.193581
537.784997	0.194360
538.000366	0.194085
538.215716	0.195039
538.431049	0.195366
538.646363	0.195455
538.861659	0.195565
539.076937	0.195521
539.292196	0.195475
539.507438	0.195603
539.722661	0.195197
539.937866	0.195824
540.153052	0.195941
540.368221	0.196336
540.583371	0.196831
540.798503	0.197514
541.013617	0.197187
541.228712	0.197860
541.443789	0.198322
541.658848	0.198741
541.873889	0.199331
542.088912	0.199627
542.303916	0.199648
542.518902	0.200215
542.733870	0.199992
542.948820	0.200826
543.163752	0.200861
543.378665	0.201705
543.593560	0.201795
543.808437	0.202294
544.023295	0.202985
544.238136	0.203764
544.452958	0.204339
544.667762	0.204709
544.882548	0.205346
545.097315	0.206047
545.312064	0.205824
545.526795	0.206770
545.741508	0.206941
545.956203	0.207110
546.170879	0.206770
546.385537	0.206853
546.600177	0.207334
546.814799	0.207649
547.029402	0.207869
547.243988	0.208519
547.458555	0.208457
547.673103	0.208589
547.887634	0.208831
548.102146	0.209687
548.316640	0.209642
548.531116	0.209725
548.745574	0.209996
548.960013	0.210341
549.174435	0.210048
549.388838	0.210347
549.603222	0.210148
549.817589	0.210773
550.031937	0.210565
550.246267	0.210854
550.460579	0.210978
550.674873	0.210735
550.889148	0.210700
551.103405	0.211621
551.317644	0.211777
551.531865	0.212056
551.746068	0.212040
551.960252	0.212099
552.174418	0.212142
552.388566	0.212822
552.602696	0.213096
552.816807	0.213241
553.030900	0.213402
553.244975	0.213556
553.459032	0.214074
553.673070	0.214296
553.887091	0.214613
554.101093	0.215216
554.315077	0.215213
554.529042	0.215744
554.742990	0.216365
554.956919	0.215915
555.170830	0.216586
555.384722	0.216642
555.598597	0.216660
555.812453	0.217167
556.026291	0.217130
556.240111	0.217819
556.453913	0.217456
556.667696	0.217418
556.881461	0.218100
557.095208	0.218050
557.308937	0.218174
557.522647	0.218439
557.736339	0.218377
557.950013	0.218653
558.163669	0.218630
558.377307	0.218971
558.590926	0.219427
558.804527	0.219840
559.018110	0.219630
559.231675	0.220047
559.445221	0.220500
559.658749	0.221095
559.872259	0.220921
560.085751	0.221284
560.299225	0.221704
560.512680	0.221292
560.726117	0.221344
560.939536	0.221733
561.152937	0.222167
561.366319	0.222262
561.579683	0.222483
561.793029	0.222603
562.006357	0.222410
562.219667	0.222446
562.432958	0.223009
562.646231	0.222652
562.859486	0.223110
563.072723	0.222962
563.285941	0.222723
563.499141	0.222620
563.712323	0.222961
563.925487	0.223084
564.138632	0.223446
564.351760	0.223609
564.564869	0.223825
564.777960	0.223837
564.991032	0.224318
565.204087	0.224820
565.417123	0.225003
565.630141	0.225367
565.843140	0.225765
566.056122	0.226047
566.269085	0.226492
566.482030	0.227014
566.694957	0.227127
566.907866	0.227094
567.120756	0.227393
567.333628	0.227875
567.546482	0.228128
567.759318	0.228125
567.972135	0.228451
568.184935	0.228379
568.397716	0.228477
568.610478	0.228823
568.823223	0.228907
569.035949	0.228880
569.248657	0.229081
569.461347	0.229476
569.674019	0.229880
569.886672	0.229927
570.099308	0.230094
570.311925	0.230472
570.524523	0.230740
570.737104	0.230963
570.949666	0.231129
571.162210	0.231079
571.374736	0.231153
571.587244	0.231198
571.799733	0.231270
572.012205	0.231406
572.224658	0.231757
572.437092	0.232053
572.649509	0.232258
572.861907	0.232430
573.074287	0.232915
573.286649	0.232537
573.498993	0.232252
573.711318	0.232354
573.923625	0.232318
574.135914	0.232468
574.348185	0.232594
574.560438	0.232699
574.772672	0.233161
574.984888	0.233020
575.197086	0.233705
575.409266	0.234469
575.621427	0.234602
575.833570	0.234978
576.045695	0.234872
576.257802	0.234561
576.469890	0.234691
576.681961	0.234732
576.894013	0.234949
577.106046	0.235215
577.318062	0.235220
577.530059	0.235972
577.742039	0.236517
577.954000	0.236620
578.165942	0.236775
578.377867	0.237098
578.589773	0.236935
578.801661	0.237015
579.013531	0.237174
579.225382	0.237611
579.437216	0.237182
579.649031	0.237196
579.860828	0.237763
580.072606	0.238097
580.284367	0.238533
580.496109	0.238952
580.707833	0.239133
580.919539	0.239040
581.131227	0.238873
581.342896	0.238994
581.554547	0.239013
581.766180	0.238732
581.977795	0.239140
582.189391	0.239169
582.400969	0.239737
582.612529	0.239979
582.824071	0.240513
583.035595	0.240862
583.247100	0.241433
583.458587	0.242039
583.670056	0.242743
583.881506	0.242711
584.092939	0.242808
584.304353	0.242477
584.515749	0.242460
584.727127	0.242466
584.938486	0.242594
585.149828	0.242779
585.361151	0.242573
585.572456	0.242141
585.783742	0.242407
585.995011	0.242919
586.206261	0.243260
586.417493	0.243526
586.628706	0.243666
586.839902	0.243737
587.051079	0.243632
587.262238	0.243706
587.473379	0.244590
587.684502	0.244848
587.895606	0.244649
588.106692	0.245133
588.317760	0.245441
588.528810	0.245741
588.739841	0.246000
588.950855	0.246463
589.161850	0.246763
589.372827	0.246315
589.583785	0.246493
589.794726	0.246912
590.005648	0.246989
590.216552	0.247406
590.427437	0.247597
590.638305	0.247601
590.849154	0.247601
591.059985	0.247790
591.270798	0.248130
591.481592	0.248495
591.692369	0.248287
591.903127	0.248301
592.113867	0.248344
592.324588	0.248484
592.535292	0.248775
592.745977	0.248820
592.956644	0.249267
593.167293	0.249298
593.377923	0.249088
593.588536	0.249299
593.799130	0.249494
594.009706	0.249419
594.220263	0.249533
594.430803	0.249806
594.641324	0.250113
594.851827	0.250431
595.062312	0.250561
595.272778	0.250830
595.483227	0.250807
595.693657	0.250725
595.904069	0.250919
596.114462	0.251112
596.324838	0.251046
596.535195	0.251437
596.745534	0.251270
596.955855	0.251612
597.166157	0.251767
597.376441	0.251957
597.586707	0.252258
597.796955	0.252781
598.007185	0.252729
598.217396	0.252939
598.427589	0.252668
598.637764	0.252663
598.847921	0.252863
599.058060	0.252686
599.268180	0.253252
599.478282	0.253191
599.688366	0.253429
599.898431	0.253682
600.108479	0.254008
600.318508	0.254629
600.528519	0.254785
600.738511	0.255045
600.948486	0.255597
601.158442	0.255676
601.368380	0.256128
601.578300	0.256370
601.788202	0.256747
601.998085	0.256931
602.207950	0.256858
602.417797	0.257044
602.627626	0.257083
602.837436	0.257529
603.047228	0.257459
603.257002	0.257712
603.466758	0.257505
603.676496	0.257637
603.886215	0.257836
604.095916	0.257924
604.305599	0.258237
604.515264	0.258276
604.724910	0.258580
604.934538	0.258898
605.144148	0.258873
605.353740	0.258642
605.563314	0.258826
605.772869	0.258798
605.982406	0.258884
606.191925	0.258995
606.401425	0.258969
606.610908	0.258529
606.820372	0.258696
607.029818	0.259229
607.239246	0.259591
607.448655	0.259519
607.658047	0.259578
607.867420	0.259925
608.076775	0.260247
608.286111	0.260835
608.495430	0.260910
608.704730	0.260878
608.914012	0.260645
609.123275	0.260946
609.332521	0.261198
609.541748	0.261245
609.750957	0.261376
609.960148	0.261250
610.169321	0.261168
610.378475	0.261866
610.587611	0.262013
610.796729	0.262346
611.005829	0.262292
611.214910	0.262436
611.423974	0.262863
611.633019	0.262828
611.842045	0.262719
612.051054	0.262944
612.260044	0.262756
612.469017	0.263118
612.677970	0.263092
612.886906	0.263527
613.095824	0.263761
613.304723	0.263836
613.513604	0.264002
613.722467	0.264473
613.931311	0.264708
614.140138	0.265394
614.348946	0.265525
614.557736	0.265841
614.766507	0.265867
614.975261	0.266228
615.183996	0.266528
615.392713	0.266348
615.601412	0.266602
615.810092	0.266457
616.018754	0.265947
616.227399	0.266189
616.436024	0.266241
616.644632	0.266345
616.853222	0.266350
617.061793	0.266456
617.270346	0.267133
617.478880	0.267050
617.687397	0.267639
617.895895	0.267872
618.104375	0.267999
618.312837	0.268339
618.521281	0.268853
618.729706	0.268711
618.938113	0.268674
619.146502	0.268907
619.354873	0.269226
619.563226	0.269185
619.771560	0.269340
619.979876	0.269551
620.188174	0.269476
620.396453	0.269417
620.604715	0.269849
620.812958	0.270345
621.021183	0.270153
621.229390	0.270146
621.437578	0.270315
621.645748	0.270661
621.853900	0.270557
622.062034	0.270628
622.270150	0.270851
622.478247	0.270841
622.686326	0.270932
622.894387	0.271435
623.102430	0.271759
623.310454	0.271982
623.518461	0.272113
623.726449	0.272534
623.934418	0.272859
624.142370	0.272950
624.350303	0.273433
624.558218	0.273558
624.766115	0.273471
624.973994	0.273828
625.181855	0.274077
625.389697	0.274246
625.597521	0.274250
625.805327	0.274340
626.013114	0.274448
626.220883	0.274615
626.428634	0.274684
626.636367	0.275154
626.844082	0.275070
627.051778	0.275098
627.259457	0.275165
627.467117	0.275533
627.674758	0.275747
627.882382	0.275859
628.089987	0.275682
628.297574	0.275942
628.505143	0.275931
628.712694	0.276195
628.920226	0.276416
629.127740	0.276732
629.335236	0.276696
629.542714	0.276798
629.750174	0.276934
629.957615	0.277135
630.165038	0.277352
630.372443	0.277455
630.579829	0.277431
630.787198	0.277664
630.994548	0.277726
631.201880	0.277937
631.409194	0.278352
631.616489	0.278688
631.823766	0.279368
632.031025	0.279682
632.238266	0.280112
632.445489	0.280599
632.652693	0.280700
632.859879	0.281200
633.067047	0.281638
633.274197	0.281661
633.481329	0.281750
633.688442	0.281483
633.895537	0.281420
634.102614	0.281596
634.309672	0.281588
634.516713	0.281979
634.723735	0.281901
634.930739	0.281766
635.137724	0.281868
635.344692	0.281857
635.551641	0.282108
635.758572	0.282513
635.965485	0.282359
636.172379	0.282509
636.379256	0.282314
636.586114	0.282243
636.792954	0.282431
636.999775	0.282639
637.206579	0.283061
637.413364	0.283133
637.620131	0.283218
637.826880	0.283548
638.033610	0.283827
638.240323	0.284102
638.447017	0.284614
638.653692	0.284735
638.860350	0.284854
639.066990	0.285204
639.273611	0.285520
639.480214	0.285565
639.686798	0.285791
639.893365	0.286015
640.099913	0.286041
640.306443	0.285897
640.512955	0.285945
640.719449	0.286097
640.925924	0.286130
641.132381	0.286082
641.338820	0.286294
641.545241	0.286251
641.751644	0.286396
641.958028	0.286874
642.164394	0.287162
642.370742	0.287396
642.577071	0.287711
642.783383	0.287821
642.989676	0.288189
643.195951	0.288338
643.402207	0.288595
643.608446	0.288652
643.814666	0.288574
644.020868	0.288753
644.227052	0.288935
644.433218	0.289069
644.639365	0.289463
644.845494	0.289633
645.051605	0.289704
645.257698	0.290117
645.463772	0.290347
645.669828	0.290788
645.875866	0.290941
646.081886	0.291371
646.287888	0.291677
646.493871	0.291595
646.699836	0.291673
646.905783	0.291982
647.111712	0.291839
647.317622	0.292165
647.523514	0.292052
647.729388	0.292465
647.935244	0.292742
648.141082	0.292764
648.346901	0.293236
648.552702	0.293373
648.758485	0.293954
648.964250	0.294491
649.169996	0.294779
649.375724	0.295119
649.581434	0.295311
649.787126	0.295416
649.992800	0.295764
650.198455	0.295947
650.404092	0.296613
650.609711	0.296515
650.815311	0.296650
651.020894	0.296675
651.226458	0.296856
651.432004	0.297021
651.637532	0.297144
651.843041	0.297540
652.048532	0.297617
652.254006	0.297585
652.459460	0.297844
652.664897	0.297927
652.870315	0.298240
653.075716	0.298357
653.281097	0.298511
653.486461	0.298855
653.691807	0.298765
653.897134	0.299229
654.102443	0.299239
654.307734	0.299466
654.513006	0.299579
654.718261	0.299682
654.923497	0.300082
655.128715	0.300244
655.333915	0.300321
655.539096	0.300599
655.744259	0.300613
655.949404	0.300994
656.154531	0.301187
656.359640	0.301438
656.564730	0.301934
656.769802	0.301996
656.974856	0.302300
657.179892	0.302520
657.384909	0.302706
657.589908	0.302836
657.794889	0.303203
657.999852	0.303211
658.204797	0.303602
658.409723	0.303347
658.614631	0.303712
658.819521	0.304050
659.024393	0.304209
659.229246	0.304368
659.434081	0.304699
659.638898	0.304792
659.843697	0.304991
660.048478	0.305197
660.253240	0.305645
660.457984	0.305761
660.662710	0.305813
660.867417	0.306288
661.072107	0.306724
661.276778	0.307057
661.481431	0.307136
661.686066	0.307552
661.890682	0.307799
662.095281	0.308127
662.299861	0.308479
662.504422	0.308850
662.708966	0.308886
662.913491	0.309003
663.117999	0.308971
663.322488	0.309249
663.526958	0.309535
663.731411	0.309553
663.935845	0.309564
664.140261	0.310012
664.344659	0.310066
664.549038	0.310272
664.753400	0.310604
664.957743	0.310649
665.162068	0.311042
665.366375	0.311193
665.570663	0.311526
665.774933	0.311862
665.979185	0.311553
666.183419	0.311884
666.387635	0.312203
666.591832	0.312212
666.796011	0.312813
667.000172	0.312907
667.204315	0.313062
667.408439	0.313183
667.612545	0.313290
667.816634	0.313923
668.020703	0.314163
668.224755	0.314110
668.428788	0.314275
668.632803	0.314316
668.836800	0.314475
669.040779	0.314916
669.244739	0.315458
669.448681	0.315674
669.652605	0.315702
669.856511	0.316111
670.060399	0.316767
670.264268	0.317037
670.468119	0.317279
670.671952	0.317786
670.875767	0.317674
671.079563	0.317873
671.283341	0.318301
671.487101	0.318609
671.690843	0.318822
671.894567	0.318800
672.098272	0.319131
672.301959	0.319379
672.505628	0.319549
672.709278	0.319936
672.912911	0.320234
673.116525	0.320446
673.320121	0.320706
673.523699	0.320794
673.727258	0.321290
673.930799	0.321786
674.134322	0.322340
674.337827	0.322446
674.541314	0.323086
674.744782	0.323214
674.948232	0.323364
675.151664	0.323623
675.355078	0.323925
675.558474	0.323877
675.761851	0.324095
675.965210	0.324156
676.168551	0.324394
676.371873	0.324326
676.575178	0.324613
676.778464	0.324945
676.981732	0.325346
677.184981	0.325508
677.388213	0.325909
677.591426	0.326151
677.794621	0.326347
677.997798	0.326785
678.200956	0.326881
678.404097	0.327078
678.607219	0.327438
678.810323	0.327565
679.013408	0.327942
679.216476	0.328250
679.419525	0.328175
679.622556	0.328581
679.825569	0.328782
680.028563	0.329185
680.231540	0.329362
680.434498	0.329266
680.637438	0.329431
680.840359	0.329378
681.043263	0.329672
681.246148	0.330045
681.449015	0.330011
681.651864	0.330009
681.854694	0.330323
682.057506	0.330704
682.260301	0.331109
682.463076	0.331464
682.665834	0.331944
682.868573	0.332284
683.071295	0.332668
683.273998	0.332843
683.476682	0.333280
683.679349	0.333378
683.881997	0.333433
684.084627	0.333833
684.287239	0.333737
684.489833	0.333614
684.692408	0.333555
684.894965	0.333391
685.097504	0.333781
685.300025	0.334024
685.502527	0.334215
685.705012	0.334241
685.907478	0.334252
686.109925	0.334479
686.312355	0.335074
686.514766	0.335100
686.717159	0.335483
686.919534	0.335570
687.121891	0.335648
687.324230	0.335812
687.526550	0.336283
687.728852	0.336494
687.931136	0.336927
688.133401	0.336702
688.335649	0.337006
688.537878	0.337081
688.740089	0.337197
688.942281	0.337352
689.144456	0.337587
689.346612	0.337352
689.548750	0.337427
689.750870	0.337491
689.952971	0.337786
690.155055	0.338040
690.357120	0.338263
690.559167	0.338401
690.761195	0.338411
690.963206	0.338404
691.165198	0.338865
691.367172	0.338967
691.569128	0.339070
691.771065	0.339302
691.972984	0.339461
692.174885	0.339591
692.376768	0.339767
692.578633	0.339898
692.780479	0.340121
692.982308	0.340297
693.184118	0.340381
693.385909	0.340450
693.587683	0.340343
693.789438	0.340511
693.991175	0.340547
694.192894	0.340823
694.394595	0.341097
694.596277	0.341260
694.797941	0.341339
694.999587	0.341522
695.201215	0.341673
695.402824	0.342045
695.604416	0.341923
695.805989	0.342223
696.007543	0.342295
696.209080	0.342371
696.410598	0.342494
696.612099	0.342536
696.813580	0.342609
697.015044	0.342958
697.216490	0.343089
697.417917	0.343522
697.619326	0.343671
697.820717	0.343854
698.022089	0.344026
698.223444	0.344227
698.424780	0.344505
698.626098	0.344912
698.827397	0.344721
699.028679	0.345067
699.229942	0.345051
699.431187	0.345341
699.632414	0.345409
699.833622	0.345598
700.034813	0.345656
700.235985	0.345813
700.437139	0.345728
700.638274	0.346093
700.839392	0.346142
701.040491	0.346486
701.241572	0.346689
701.442635	0.346822
701.643679	0.346799
701.844706	0.347005
702.045714	0.346913
702.246704	0.347288
702.447675	0.347423
702.648629	0.347369
702.849564	0.347195
703.050481	0.347250
703.251380	0.347369
703.452260	0.347810
703.653122	0.348002
703.853966	0.348420
704.054792	0.348340
704.255600	0.348326
704.456389	0.348549
704.657160	0.348597
704.857913	0.348401
705.058648	0.348687
705.259365	0.348577
705.460063	0.348428
705.660743	0.348337
705.861405	0.348310
706.062048	0.348399
706.262674	0.348365
706.463281	0.348450
706.663870	0.348569
706.864441	0.348165
707.064993	0.348190
707.265527	0.348249
707.466043	0.348246
707.666541	0.348142
707.867021	0.348154
708.067482	0.348198
708.267925	0.348552
708.468350	0.348634
708.668757	0.348948
708.869145	0.349076
709.069516	0.349082
709.269868	0.349068
709.470201	0.349371
709.670517	0.349819
709.870814	0.349966
710.071093	0.349894
710.271354	0.349820
710.471597	0.349880
710.671821	0.349732
710.872028	0.349771
711.072216	0.349855
711.272385	0.350030
711.472537	0.349801
711.672670	0.349509
711.872785	0.349502
712.072882	0.349624
712.272961	0.349477
712.473021	0.349615
712.673063	0.349706
712.873087	0.349779
713.073093	0.349757
713.273081	0.349474
713.473050	0.349465
713.673001	0.349075
713.872934	0.348960
714.072849	0.348982
714.272745	0.348929
714.472623	0.348679
714.672483	0.348638
714.872325	0.348486
715.072148	0.348715
715.271954	0.348597
715.471741	0.349131
715.671509	0.349030
715.871260	0.349085
716.070992	0.349240
716.270707	0.349508
716.470403	0.349452
716.670080	0.349464
716.869740	0.349316
717.069381	0.349778
717.269004	0.349252
717.468609	0.349251
717.668195	0.349092
717.867764	0.348764
718.067314	0.348426
718.266846	0.348497
718.466360	0.348593
718.665855	0.348704
718.865332	0.348422
719.064791	0.348697
719.264232	0.348835
719.463655	0.348752
719.663059	0.348768
719.862445	0.348801
720.061813	0.348565
720.261163	0.348432
720.460494	0.348491
720.659807	0.348349
720.859102	0.348313
721.058379	0.348329
721.257638	0.348444
721.456878	0.348619
721.656100	0.348658
721.855304	0.348700
722.054490	0.348667
722.253657	0.348376
722.452806	0.348593
722.651937	0.348137
722.851050	0.348060
723.050145	0.347996
723.249221	0.347707
723.448279	0.347567
723.647319	0.347582
723.846340	0.347430
724.045344	0.347375
724.244329	0.347173
724.443296	0.347461
724.642245	0.347253
724.841175	0.347147
725.040088	0.347128
725.238982	0.347137
725.437857	0.346797
725.636715	0.346659
725.835554	0.346568
726.034376	0.346401
726.233179	0.346142
726.431963	0.346216
726.630730	0.346125
726.829478	0.345879
727.028208	0.345846
727.226920	0.345770
727.425614	0.345836
727.624289	0.345487
727.822946	0.345362
728.021585	0.345530
728.220206	0.345220
728.418808	0.344930
728.617392	0.344861
728.815958	0.344818
729.014506	0.344522
729.213036	0.344159
729.411547	0.344333
729.610040	0.344215
729.808515	0.343830
730.006972	0.343381
730.205410	0.343362
730.403831	0.342987
730.602233	0.342543
730.800616	0.342491
730.998982	0.342407
731.197329	0.342133
731.395658	0.341842
731.593969	0.341557
731.792262	0.341637
731.990536	0.341548
732.188793	0.341933
732.387031	0.341866
732.585250	0.341923
732.783452	0.341797
732.981635	0.341771
733.179800	0.341598
733.377947	0.341670
733.576076	0.341505
733.774186	0.341348
733.972278	0.340794
734.170352	0.340584
734.368408	0.340290
734.566446	0.340011
734.764465	0.339709
734.962466	0.339727
735.160449	0.339589
735.358413	0.339747
735.556360	0.339417
735.754288	0.339343
735.952198	0.339381
736.150090	0.339503
736.347963	0.339483
736.545818	0.339106
736.743655	0.339162
736.941474	0.338715
737.139275	0.338379
737.337057	0.338392
737.534821	0.338277
737.732567	0.337789
737.930295	0.337527
738.128005	0.337297
738.325696	0.337361
738.523369	0.337152
738.721024	0.337195
738.918660	0.336947
739.116279	0.336812
739.313879	0.336602
739.511461	0.336690
739.709024	0.336608
739.906570	0.336608
740.104097	0.336381
740.301606	0.336160
740.499097	0.335940
740.696569	0.335787
740.894024	0.335749
741.091460	0.335668
741.288878	0.335341
741.486277	0.334827
741.683659	0.334479
741.881022	0.334328
742.078367	0.334317
742.275694	0.334071
742.473002	0.333863
742.670293	0.333398
742.867565	0.333188
743.064819	0.333142
743.262054	0.333415
743.459272	0.333254
743.656471	0.333157
743.853652	0.333014
744.050815	0.332907
744.247959	0.333234
744.445085	0.333110
744.642194	0.332847
744.839283	0.332751
745.036355	0.332205
745.233408	0.331942
745.430444	0.331513
745.627461	0.331069
745.824459	0.330799
746.021440	0.330008
746.218402	0.329699
746.415346	0.329705
746.612272	0.329418
746.809180	0.329360
747.006069	0.329263
747.202940	0.329367
747.399793	0.329096
747.596628	0.329017
747.793444	0.329046
747.990243	0.329058
748.187023	0.328716
748.383784	0.328537
748.580528	0.328342
748.777253	0.328393
748.973960	0.328474
749.170649	0.328566
749.367320	0.328369
749.563973	0.328130
749.760607	0.328147
749.957223	0.328076
750.153821	0.327972
750.350400	0.328043
750.546962	0.327974
750.743505	0.327301
750.940030	0.327077
751.136536	0.327153
751.333025	0.327120
751.529495	0.326703
751.725947	0.326434
751.922381	0.326117
752.118796	0.325614
752.315194	0.325133
752.511573	0.325109
752.707934	0.324935
752.904276	0.324457
753.100601	0.324117
753.296907	0.324112
753.493195	0.323857
753.689465	0.323854
753.885716	0.323867
754.081949	0.323937
754.278164	0.324081
754.474361	0.323905
754.670540	0.323998
754.866700	0.323830
755.062843	0.323726
755.258967	0.323606
755.455072	0.323402
755.651160	0.323117
755.847229	0.322833
756.043280	0.322495
756.239313	0.322286
756.435328	0.322130
756.631324	0.321969
756.827302	0.321444
757.023262	0.321306
757.219204	0.321190
757.415127	0.321098
757.611033	0.320853
757.806920	0.320613
758.002788	0.320281
758.198639	0.319644
758.394471	0.319474
758.590286	0.319637
758.786081	0.319649
758.981859	0.319422
759.177619	0.319070
759.373360	0.319146
759.569083	0.319039
759.764788	0.319052
759.960474	0.319168
760.156143	0.319184
760.351793	0.318920
760.547425	0.318533
760.743038	0.318409
760.938634	0.318503
761.134211	0.318193
761.329770	0.318390
761.525311	0.318184
761.720833	0.318098
761.916338	0.317991
762.111824	0.317795
762.307292	0.317753
762.502741	0.317528
762.698173	0.317163
762.893586	0.316820
763.088981	0.316454
763.284358	0.316272
763.479716	0.316183
763.675057	0.316018
763.870379	0.316110
764.065683	0.315978
764.260968	0.315722
764.456236	0.315726
764.651485	0.315859
764.846716	0.315564
765.041929	0.315739
765.237123	0.315777
765.432299	0.315666
765.627457	0.315347
765.822597	0.315141
766.017719	0.315362
766.212822	0.315397
766.407907	0.315156
766.602974	0.315179
766.798023	0.314985
766.993054	0.314389
767.188066	0.314203
767.383060	0.314182
767.578036	0.314254
767.772993	0.313933
767.967933	0.313871
768.162854	0.313750
768.357757	0.313560
768.552642	0.313470
768.747508	0.313610
768.942356	0.313403
769.137186	0.313325
769.331998	0.313244
769.526792	0.313372
769.721567	0.313158
769.916324	0.312887
770.111063	0.312946
770.305784	0.312616
770.500486	0.312675
770.695171	0.312656
770.889837	0.312506
771.084484	0.312468
771.279114	0.312382
771.473725	0.312056
771.668318	0.312383
771.862893	0.312064
772.057450	0.311951
772.251988	0.311845
772.446509	0.311885
772.641011	0.311833
772.835494	0.311617
773.029960	0.311292
773.224407	0.311451
773.418836	0.311237
773.613247	0.311204
773.807640	0.311515
774.002014	0.311571
774.196370	0.311410
774.390708	0.311268
774.585028	0.311165
774.779330	0.311253
774.973613	0.311327
775.167878	0.311271
775.362125	0.311268
775.556354	0.310816
775.750564	0.310878
775.944756	0.310988
776.138930	0.311009
776.333086	0.310682
776.527223	0.310835
776.721343	0.310720
776.915444	0.310449
777.109526	0.310534
777.303591	0.310607
777.497637	0.310763
777.691666	0.310695
777.885676	0.310754
778.079667	0.311166
778.273641	0.311067
778.467596	0.311079
778.661533	0.311308
778.855452	0.311260
779.049352	0.311330
779.243235	0.311180
779.437099	0.310895
779.630945	0.310629
779.824773	0.310636
780.018582	0.310514
780.212373	0.310575
780.406146	0.310851
780.599901	0.310931
780.793638	0.311007
780.987356	0.310500
781.181056	0.310784
781.374738	0.310848
781.568402	0.310920
781.762047	0.311029
781.955674	0.310819
782.149283	0.310679
782.342874	0.310677
782.536447	0.310492
782.730001	0.310693
782.923537	0.310848
783.117055	0.310951
783.310555	0.310680
783.504036	0.310630
783.697499	0.310698
783.890944	0.310255
784.084371	0.309962
784.277780	0.310161
784.471170	0.310049
784.664542	0.309657
784.857896	0.309460
785.051231	0.309411
785.244549	0.309289
785.437848	0.309222
785.631129	0.309615
785.824392	0.309728
786.017636	0.309715
786.210863	0.309805
786.404071	0.310326
786.597260	0.310598
786.790432	0.310848
786.983585	0.310685
787.176721	0.310600
787.369838	0.310460
787.562936	0.310604
787.756017	0.310114
787.949079	0.310199
788.142123	0.309521
788.335149	0.309316
788.528156	0.309149
788.721146	0.309521
788.914117	0.309689
789.107070	0.309618
789.300005	0.309716
789.492921	0.310180
789.685819	0.310010
789.878699	0.310471
790.071561	0.310715
790.264405	0.310795
790.457230	0.310857
790.650037	0.310855
790.842826	0.311104
791.035597	0.311011
791.228349	0.310997
791.421084	0.311049
791.613800	0.311195
791.806497	0.311321
791.999177	0.311484
792.191838	0.311619
792.384481	0.311568
792.577106	0.311647
792.769713	0.311990
792.962301	0.312307
793.154871	0.312662
793.347423	0.312460
793.539957	0.312689
793.732473	0.312770
793.924970	0.312913
794.117449	0.313434
794.309910	0.313628
794.502353	0.313542
794.694777	0.313636
794.887183	0.313659
795.079571	0.314102
795.271941	0.314116
795.464293	0.314352
795.656626	0.314436
795.848941	0.314458
796.041238	0.314342
796.233516	0.314583
796.425777	0.314423
796.618019	0.314800
796.810243	0.314771
797.002449	0.314733
797.194636	0.314898
797.386805	0.314659
797.578956	0.314778
797.771089	0.315106
797.963204	0.315137
798.155300	0.315257
798.347378	0.315301
798.539438	0.315517
798.731480	0.315642
798.923503	0.315688
799.115509	0.315884
799.307496	0.316009
799.499465	0.316094
799.691415	0.316291
799.883348	0.316731
800.075262	0.316850
800.267158	0.317058
800.459035	0.317143
800.650895	0.317528
800.842736	0.318088
801.034559	0.318442
801.226364	0.318778
801.418150	0.319041
801.609919	0.319161
801.801669	0.319275
801.993401	0.319330
802.185114	0.319802
802.376810	0.319722
802.568487	0.319897
802.760146	0.319820
802.951787	0.319813
803.143409	0.319759
803.335014	0.319914
803.526600	0.320053
803.718168	0.320112
803.909717	0.320338
804.101249	0.320775
804.292762	0.320814
804.484257	0.321062
804.675734	0.321393
804.867192	0.321651
805.058632	0.321914
805.250054	0.322093
805.441458	0.322492
805.632844	0.322467
805.824211	0.322376
806.015561	0.322433
806.206891	0.322616
806.398204	0.322630
806.589499	0.322696
806.780775	0.322393
806.972033	0.322593
807.163273	0.322445
807.354495	0.322635
807.545698	0.322904
807.736883	0.322998
807.928050	0.323345
808.119199	0.323485
808.310329	0.323958
808.501441	0.324375
808.692535	0.324525
808.883611	0.325121
809.074669	0.325418
809.265708	0.325806
809.456729	0.326100
809.647732	0.325862
809.838717	0.326057
810.029683	0.326121
810.220632	0.326442
810.411562	0.326232
810.602474	0.326354
810.793367	0.326269
810.984242	0.326433
811.175100	0.326888
811.365938	0.327172
811.556759	0.327704
811.747562	0.327875
811.938346	0.328062
812.129112	0.328813
812.319860	0.329080
812.510589	0.329576
812.701300	0.329755
812.891994	0.329787
813.082668	0.330574
813.273325	0.330494
813.463964	0.330876
813.654584	0.331156
813.845186	0.331440
814.035769	0.331669
814.226335	0.332019
814.416882	0.332273
814.607411	0.332688
814.797922	0.332676
814.988415	0.332892
815.178889	0.333149
815.369345	0.333532
815.559783	0.333725
815.750203	0.333655
815.940605	0.333812
816.130988	0.334041
816.321353	0.334288
816.511700	0.334521
816.702028	0.334853
816.892339	0.334921
817.082631	0.335013
817.272905	0.335417
817.463161	0.336223
817.653398	0.336429
817.843617	0.336838
818.033819	0.337140
818.224001	0.337427
818.414166	0.338096
818.604312	0.338648
818.794440	0.339160
818.984550	0.339330
819.174642	0.339491
819.364716	0.339793
819.554771	0.339597
819.744808	0.339911
819.934827	0.340089
820.124827	0.339928
820.314810	0.339819
820.504774	0.340153
820.694720	0.340193
820.884647	0.340607
821.074557	0.340850
821.264448	0.341415
821.454321	0.341231
821.644176	0.341752
821.834012	0.342332
822.023831	0.342885
822.213631	0.343070
822.403413	0.343522
822.593176	0.343528
822.782922	0.343958
822.972649	0.344383
823.162358	0.344893
823.352049	0.345220
823.541721	0.345427
823.731376	0.345376
823.921012	0.345629
824.110629	0.345770
824.300229	0.346100
824.489811	0.346335
824.679374	0.346491
824.868919	0.347206
825.058445	0.347331
825.247954	0.347670
825.437444	0.348341
825.626916	0.348664
825.816370	0.349131
826.005806	0.349733
826.195223	0.350087
826.384622	0.350358
826.574003	0.350326
826.763366	0.350446
826.952711	0.350723
827.142037	0.350759
827.331345	0.351324
827.520635	0.351682
827.709906	0.351892
827.899160	0.352306
828.088395	0.352732
828.277612	0.353209
828.466810	0.353673
828.655991	0.353848
828.845153	0.354447
829.034297	0.354523
829.223423	0.354641
829.412531	0.354674
829.601620	0.355383
829.790691	0.355508
829.979744	0.355636
830.168779	0.356145
830.357795	0.356710
830.546793	0.357180
830.735773	0.357436
830.924735	0.357883
831.113679	0.358102
831.302604	0.357910
831.491511	0.358539
831.680400	0.359125
831.869271	0.359508
832.058123	0.359634
832.246957	0.360041
832.435773	0.360772
832.624571	0.361269
832.813351	0.362098
833.002112	0.362363
833.190855	0.362669
833.379580	0.362976
833.568287	0.363114
833.756975	0.363568
833.945645	0.363701
834.134297	0.363718
834.322931	0.364056
834.511547	0.364363
834.700144	0.364804
834.888723	0.364971
835.077284	0.365221
835.265826	0.365624
835.454351	0.366214
835.642857	0.366856
835.831345	0.367026
836.019815	0.367337
836.208266	0.368004
836.396699	0.368344
836.585114	0.368879
836.773511	0.369371
836.961890	0.369814
837.150250	0.370158
837.338592	0.370458
837.526916	0.371379
837.715222	0.371849
837.903510	0.371823
838.091779	0.372254
838.280030	0.372676
838.468263	0.373144
838.656477	0.373671
838.844674	0.373977
839.032852	0.373933
839.221012	0.373800
839.409153	0.373982
839.597277	0.374338
839.785382	0.374595
839.973469	0.375128
840.161538	0.375362
840.349589	0.375642
840.537621	0.375702
840.725635	0.376432
840.913631	0.377034
841.101609	0.377856
841.289568	0.378112
841.477509	0.378699
841.665432	0.379121
841.853337	0.379536
842.041224	0.380035
842.229092	0.381006
842.416942	0.381235
842.604774	0.381691
842.792588	0.382015
842.980383	0.382813
843.168160	0.383083
843.355919	0.383383
843.543660	0.383861
843.731382	0.384173
843.919087	0.384397
844.106773	0.384968
844.294441	0.385360
844.482090	0.385448
844.669722	0.385741
844.857335	0.386377
845.044930	0.386604
845.232507	0.386922
845.420065	0.387331
845.607605	0.387467
845.795127	0.387850
845.982631	0.388141
846.170117	0.388818
846.357584	0.388950
846.545033	0.389637
846.732464	0.390200
846.919877	0.390635
847.107272	0.391078
847.294648	0.391836
847.482006	0.392617
847.669346	0.393062
847.856667	0.393353
848.043971	0.393655
848.231256	0.393651
848.418523	0.394033
848.605771	0.394243
848.793002	0.394341
848.980214	0.394365
849.167408	0.394402
849.354584	0.394906
849.541742	0.395475
849.728881	0.396209
849.916002	0.396402
850.103105	0.396720
850.290190	0.397195
850.477256	0.397449
850.664304	0.398014
850.851334	0.398228
851.038346	0.398341
851.225340	0.398358
851.412315	0.398529
851.599272	0.398775
851.786211	0.398955
851.973132	0.399348
852.160034	0.399717
852.346918	0.400001
852.533784	0.400743
852.720632	0.401276
852.907462	0.401889
853.094273	0.402500
853.281066	0.403121
853.467841	0.403898
853.654598	0.403918
853.841336	0.404700
854.028056	0.404897
854.214758	0.405160
854.401442	0.405303
854.588107	0.405669
854.774755	0.405596
854.961384	0.405874
855.147995	0.405945
855.334587	0.406521
855.521162	0.406447
855.707718	0.406887
855.894256	0.407085
856.080775	0.407711
856.267277	0.407976
856.453760	0.408480
856.640225	0.409330
856.826672	0.409836
857.013101	0.410797
857.199511	0.411606
857.385903	0.412268
857.572277	0.412532
857.758633	0.412579
857.944970	0.413315
858.131290	0.413715
858.317591	0.413243
858.503873	0.413648
858.690138	0.413619
858.876384	0.413694
859.062612	0.413635
859.248822	0.414093
859.435014	0.414807
859.621188	0.414974
859.807343	0.415197
859.993480	0.415725
860.179599	0.416006
860.365699	0.416425
860.551781	0.417148
860.737846	0.417557
860.923891	0.417925
861.109919	0.418516
861.295929	0.419076
861.481920	0.419366
861.667893	0.420044
861.853848	0.420064
862.039784	0.420200
862.225702	0.420417
862.411603	0.420593
862.597484	0.421054
862.783348	0.421053
862.969193	0.420787
863.155021	0.421164
863.340830	0.421368
863.526620	0.422082
863.712393	0.422414
863.898147	0.422557
864.083883	0.422934
864.269601	0.422843
864.455301	0.422920
864.640982	0.423064
864.826645	0.423310
865.012290	0.423618
865.197917	0.424109
865.383526	0.424453
865.569116	0.424298
865.754688	0.424514
865.940242	0.425026
866.125777	0.425616
866.311295	0.426367
866.496794	0.426636
866.682275	0.426807
866.867737	0.426521
867.053182	0.426650
867.238608	0.427186
867.424016	0.427852
867.609406	0.427940
867.794778	0.427566
867.980131	0.427536
868.165466	0.428142
868.350783	0.428302
868.536082	0.428543
868.721362	0.428758
868.906625	0.428491
869.091869	0.428721
869.277094	0.429203
869.462302	0.429761
869.647491	0.430279
869.832662	0.430369
870.017815	0.430589
870.202950	0.430900
870.388066	0.431338
870.573165	0.432303
870.758245	0.432971
870.943306	0.433102
871.128350	0.433626
871.313375	0.433928
871.498382	0.434184
871.683371	0.434687
871.868342	0.434936
872.053294	0.434760
872.238229	0.435289
872.423144	0.434814
872.608042	0.435009
872.792922	0.434885
872.977783	0.435347
873.162626	0.435622
873.347451	0.435956
873.532258	0.435774
873.717046	0.436092
873.901816	0.436221
874.086568	0.436429
874.271302	0.436848
874.456017	0.437291
874.640715	0.437094
874.825394	0.437030
875.010055	0.437499
875.194697	0.437738
875.379322	0.438219
875.563928	0.437955
875.748516	0.437930
875.933085	0.437649
876.117637	0.437474
876.302170	0.437225
876.486685	0.437637
876.671182	0.437075
876.855661	0.437398
877.040121	0.437397
877.224563	0.437829
877.408987	0.437829
877.593393	0.437900
877.777780	0.438213
877.962150	0.438696
878.146501	0.438427
878.330833	0.438591
878.515148	0.439079
878.699444	0.439226
878.883722	0.438719
879.067982	0.439343
879.252224	0.439216
879.436447	0.439173
879.620653	0.438883
879.804840	0.439057
879.989008	0.439373
880.173159	0.439401
880.357291	0.439277
880.541405	0.439799
880.725501	0.439863
880.909579	0.440160
881.093638	0.440276
881.277680	0.440925
881.461703	0.441131
881.645707	0.440969
881.829694	0.440825
882.013662	0.440908
882.197612	0.440642
882.381544	0.440677
882.565458	0.440807
882.749353	0.440806
882.933230	0.440743
883.117089	0.440998
883.300930	0.440899
883.484753	0.441031
883.668557	0.441031
883.852343	0.441388
884.036111	0.441359
884.219861	0.442024
884.403592	0.442301
884.587305	0.442311
884.771000	0.442160
884.954677	0.442822
885.138335	0.442789
885.321976	0.443319
885.505598	0.443370
885.689201	0.443689
885.872787	0.443015
886.056354	0.443060
886.239904	0.443051
886.423434	0.442719
886.606947	0.441912
886.790442	0.441698
886.973918	0.441339
887.157376	0.441206
887.340816	0.441169
887.524237	0.441468
887.707641	0.441516
887.891026	0.441446
888.074393	0.441594
888.257741	0.442243
888.441072	0.442448
888.624384	0.442268
888.807678	0.442417
888.990954	0.441871
889.174211	0.441504
889.357451	0.441144
889.540672	0.440445
889.723875	0.440079
889.907059	0.440450
890.090226	0.440061
890.273374	0.440228
890.456504	0.440129
890.639616	0.440609
890.822709	0.440830
891.005785	0.441188
891.188842	0.441596
891.371881	0.441942
891.554901	0.441464
891.737904	0.441589
891.920888	0.441914
892.103854	0.442034
892.286802	0.441780
892.469731	0.441582
892.652643	0.441417
892.835536	0.441705
893.018410	0.441969
893.201267	0.441423
893.384106	0.441486
893.566926	0.440844
893.749728	0.440322
893.932511	0.440591
894.115277	0.440816
894.298024	0.440677
894.480753	0.440367
894.663464	0.440364
894.846157	0.440856
895.028831	0.441232
895.211487	0.441168
895.394125	0.441570
895.576745	0.440700
895.759346	0.440284
895.941930	0.439937
896.124495	0.439705
896.307041	0.438941
896.489570	0.438644
896.672080	0.438165
896.854573	0.437979
897.037046	0.437688
897.219502	0.437659
897.401940	0.437481
897.584359	0.437405
897.766760	0.437523
897.949143	0.437848
898.131507	0.437460
898.313854	0.437313
898.496182	0.437170
898.678492	0.436137
898.860783	0.435884
899.043057	0.435219
899.225312	0.435397
899.407549	0.434639
899.589768	0.433879
899.771968	0.433530
899.954151	0.432860
900.136315	0.432657
900.318461	0.433175
900.500588	0.432393
900.682698	0.432581
900.864789	0.431956
901.046862	0.431849
901.228917	0.431320
901.410953	0.430625
901.592971	0.430683
901.774972	0.430545
901.956953	0.430649
902.138917	0.430810
902.320862	0.430086
902.502790	0.429664
902.684699	0.428886
902.866589	0.429271
903.048462	0.429559
903.230316	0.428399
903.412152	0.427304
903.593970	0.425883
903.775770	0.425339
903.957551	0.425088
904.139314	0.424897
904.321059	0.424982
904.502786	0.424220
904.684494	0.423888
904.866185	0.423718
905.047857	0.423856
905.229510	0.423753
905.411146	0.423527
905.592763	0.424142
905.774363	0.423938
905.955943	0.423729
906.137506	0.423720
906.319051	0.423160
906.500577	0.423244
906.682085	0.422313
906.863575	0.422061
907.045046	0.421917
907.226500	0.420683
907.407935	0.420055
907.589352	0.419824
907.770750	0.419830
907.952131	0.419406
908.133493	0.418410
908.314837	0.418034
908.496163	0.417500
908.677470	0.416714
908.858760	0.416353
909.040031	0.415556
909.221284	0.415470
909.402518	0.415028
909.583735	0.414258
909.764933	0.414124
909.946113	0.413870
910.127275	0.413171
910.308418	0.412635
910.489544	0.412094
910.670651	0.411820
910.851740	0.410416
911.032810	0.408662
911.213863	0.408492
911.394897	0.408285
911.575913	0.407268
911.756911	0.407600
911.937890	0.407680
912.118851	0.407221
912.299794	0.406770
912.480719	0.406449
912.661626	0.406396
912.842514	0.406275
913.023384	0.405295
913.204236	0.405126
913.385070	0.404317
913.565886	0.403775
913.746683	0.402999
913.927462	0.402198
914.108223	0.401694
914.288965	0.400910
914.469690	0.400411
914.650396	0.400601
914.831084	0.400566
915.011754	0.399714
915.192405	0.399317
915.373038	0.399327
915.553653	0.398718
915.734250	0.398175
915.914829	0.397596
916.095389	0.396632
916.275931	0.395977
916.456455	0.395900
916.636961	0.395070
916.817448	0.393766
916.997917	0.392675
917.178368	0.392165
917.358801	0.390788
917.539216	0.390118
917.719612	0.389730
917.899990	0.388712
918.080350	0.387263
918.260692	0.386920
918.441015	0.386388
918.621320	0.385937
918.801607	0.385613
918.981876	0.385819
919.162127	0.385137
919.342359	0.384157
919.522573	0.383419
919.702769	0.382353
919.882947	0.381784
920.063106	0.381226
920.243247	0.380562
920.423370	0.379660
920.603475	0.378752
920.783562	0.378416
920.963630	0.377267
921.143680	0.376441
921.323712	0.375860
921.503725	0.374983
921.683721	0.374490
921.863698	0.373472
922.043657	0.372479
922.223598	0.371690
922.403520	0.370816
922.583424	0.370130
922.763311	0.369545
922.943178	0.369122
923.123028	0.368505
923.302859	0.367605
923.482673	0.366297
923.662467	0.365601
923.842244	0.364698
924.022003	0.363835
924.201743	0.362986
924.381465	0.362626
924.561169	0.362421
924.740854	0.360759
924.920522	0.359681
925.100171	0.359174
925.279802	0.358489
925.459414	0.357780
925.639009	0.357517
925.818585	0.356567
925.998143	0.355243
926.177683	0.353813
926.357205	0.354008
926.536708	0.353150
926.716193	0.352095
926.895660	0.350734
927.075109	0.350273
927.254539	0.348434
927.433951	0.347996
927.613345	0.347807
927.792721	0.347396
927.972079	0.345995
928.151418	0.344968
928.330739	0.344810
928.510042	0.344646
928.689327	0.343554
928.868593	0.342835
929.047841	0.342430
929.227071	0.341591
929.406283	0.340337
929.585476	0.338698
929.764652	0.338054
929.943809	0.337386
930.122948	0.336569
930.302068	0.335359
930.481171	0.334477
930.660255	0.332568
930.839321	0.331327
931.018369	0.330134
931.197398	0.329339
931.376409	0.328300
931.555402	0.327045
931.734377	0.326280
931.913334	0.325112
932.092272	0.324074
932.271192	0.322827
932.450094	0.321313
932.628978	0.319996
932.807844	0.320008
932.986691	0.319221
933.165520	0.318682
933.344331	0.317609
933.523123	0.316685
933.701898	0.315937
933.880654	0.316080
934.059392	0.314486
934.238111	0.313789
934.416813	0.312131
934.595496	0.311016
934.774161	0.310158
934.952808	0.307449
935.131437	0.306935
935.310047	0.306173
935.488639	0.304217
935.667213	0.303792
935.845769	0.303653
936.024306	0.303160
936.202825	0.302246
936.381326	0.300433
936.559809	0.301433
936.738274	0.300699
936.916720	0.299463
937.095148	0.299616
937.273558	0.298476
937.451950	0.297032
937.630323	0.296122
937.808678	0.294043
937.987015	0.292726
938.165334	0.291342
938.343635	0.290429
938.521917	0.288698
938.700181	0.286146
938.878427	0.285579
939.056655	0.284582
939.234864	0.284060
939.413055	0.284472
939.591228	0.283505
939.769383	0.281648
939.947519	0.280270
940.125638	0.280450
940.303738	0.280827
940.481820	0.279053
940.659883	0.277615
940.837929	0.275323
941.015956	0.273231
941.193965	0.272720
941.371955	0.271849
941.549928	0.269982
941.727882	0.268384
941.905818	0.266727
942.083736	0.265672
942.261636	0.264792
942.439517	0.264069
942.617380	0.264119
942.795225	0.261367
942.973052	0.260171
943.150860	0.259447
943.328651	0.259180
943.506423	0.256455
943.684176	0.256219
943.861912	0.254186
944.039629	0.253645
944.217328	0.251144
944.395009	0.251906
944.572672	0.250022
944.750317	0.248534
944.927943	0.247391
945.105551	0.247046
945.283141	0.244521
945.460712	0.243179
945.638265	0.240810
945.815801	0.239027
945.993317	0.236888
946.170816	0.237131
946.348297	0.236895
946.525759	0.234856
946.703203	0.233235
946.880629	0.233177
947.058036	0.231974
947.235425	0.230337
947.412797	0.230993
947.590149	0.229825
947.767484	0.228836
947.944800	0.227429
948.122099	0.225882
948.299379	0.225166
948.476640	0.222605
948.653884	0.222941
948.831109	0.223807
949.008316	0.221646
949.185505	0.219845
949.362676	0.217098
949.539828	0.214543
949.716962	0.211512
949.894078	0.211357
950.071176	0.211433
950.248256	0.209969
950.425317	0.206917
950.602360	0.206871
950.779385	0.206267
950.956391	0.207140
951.133380	0.205727
951.310350	0.205960
951.487302	0.204925
951.664235	0.202605
951.841151	0.200540
952.018048	0.200755
952.194927	0.198989
952.371788	0.196421
952.548631	0.192844
952.725455	0.193646
952.902261	0.192194
953.079049	0.190157
953.255819	0.189268
953.432570	0.188695
953.609303	0.184673
953.786018	0.184262
953.962715	0.184290
954.139394	0.184161
954.316054	0.181597
954.492696	0.181529
954.669320	0.180630
954.845926	0.180948
955.022513	0.180032
955.199083	0.181910
955.375634	0.179033
955.552166	0.178426
955.728681	0.176621
955.905177	0.176646
956.081655	0.175751
956.258115	0.174699
956.434557	0.173071
956.610980	0.171296
956.787385	0.170602
956.963772	0.170777
957.140141	0.169160
957.316492	0.168946
957.492824	0.166364
957.669138	0.165989
957.845434	0.165892
958.021712	0.164681
958.197971	0.162862
958.374212	0.160715
958.550435	0.160149
958.726640	0.159639
958.902826	0.157177
959.078995	0.157154
959.255145	0.155457
959.431277	0.153765
959.607390	0.152324
959.783486	0.154000
959.959563	0.152036
960.135622	0.150522
960.311662	0.149424
960.487685	0.151360
960.663689	0.150929
960.839675	0.151441
961.015643	0.150275
961.191593	0.150469
961.367524	0.148740
961.543437	0.150694
961.719332	0.150902
961.895209	0.151297
962.071067	0.148281
962.246907	0.147699
962.422730	0.145327
962.598533	0.145468
962.774319	0.145388
962.950086	0.144523
963.125835	0.141665
963.301566	0.140816
963.477279	0.139946
963.652973	0.141257
963.828650	0.141091
964.004308	0.142267
964.179947	0.141629
964.355569	0.140601
964.531172	0.142664
964.706757	0.144122
964.882324	0.141964
965.057873	0.143448
965.233403	0.144008
965.408916	0.144663
965.584410	0.145025
965.759885	0.145697
965.935343	0.145700
966.110782	0.145975
966.286203	0.145345
966.461606	0.149048
966.636991	0.149021
966.812357	0.148528
966.987705	0.147015
967.163035	0.145647
967.338347	0.144152
967.513641	0.143705
967.688916	0.140454
967.864173	0.142556
968.039412	0.138749
968.214632	0.138666
968.389835	0.138384
968.565019	0.139063
968.740185	0.138758
968.915333	0.139875
969.090462	0.139622
969.265573	0.141335
969.440667	0.139951
969.615741	0.141782
969.790798	0.140505
969.965836	0.139638
970.140856	0.138273
970.315858	0.138765
970.490842	0.139349
970.665808	0.139735
970.840755	0.137872
971.015684	0.135974
971.190595	0.134790
971.365487	0.133846
971.540362	0.133539
971.715218	0.133371
971.890056	0.135029
972.064875	0.134107
972.239677	0.134487
972.414460	0.134989
972.589225	0.137684
972.763972	0.139551
972.938700	0.138369
973.113411	0.136815
973.288103	0.137766
973.462777	0.135401
973.637432	0.135893
973.812070	0.137129
973.986689	0.136403
974.161290	0.135966
974.335873	0.134865
974.510437	0.137601
974.684984	0.139577
974.859512	0.139810
975.034022	0.138018
975.208513	0.136306
975.382987	0.134952
975.557442	0.135176
975.731879	0.133548
975.906298	0.133145
976.080698	0.130917
976.255080	0.131507
976.429445	0.131554
976.603790	0.133807
976.778118	0.136303
976.952427	0.135432
977.126719	0.136085
977.300992	0.137462
977.475246	0.139977
977.649483	0.141345
977.823701	0.140694
977.997901	0.141057
978.172083	0.141434
978.346247	0.141962
978.520392	0.141858
978.694519	0.141739
978.868628	0.140635
979.042719	0.141330
979.216791	0.142289
979.390845	0.140422
979.564882	0.139332
979.738899	0.140057
979.912899	0.139662
980.086880	0.141474
980.260843	0.139350
980.434788	0.138444
980.608715	0.136100
980.782623	0.135375
980.956514	0.137640
981.130386	0.139643
981.304240	0.140428
981.478075	0.139908
981.651892	0.140003
981.825692	0.141170
981.999472	0.143990
982.173235	0.143244
982.346980	0.142883
982.520706	0.141673
982.694414	0.140728
982.868104	0.137069
983.041775	0.136227
983.215428	0.135267
983.389064	0.136553
983.562680	0.136300
983.736279	0.135487
983.909860	0.134843
984.083422	0.137463
984.256966	0.136777
984.430491	0.138977
984.603999	0.138872
984.777488	0.141193
984.950959	0.141400
985.124412	0.138647
985.297847	0.140861
985.471263	0.141156
985.644661	0.140009
985.818041	0.139754
985.991403	0.139641
986.164747	0.139039
986.338072	0.137894
986.511379	0.137351
986.684668	0.139883
986.857938	0.139197
987.031191	0.139382
987.204425	0.139480
987.377641	0.138930
987.550839	0.138944
987.724018	0.139519
987.897179	0.139246
988.070322	0.138459
988.243447	0.137495
988.416554	0.137771
988.589642	0.137019
988.762712	0.137080
988.935764	0.136196
989.108798	0.138281
989.281813	0.140012
989.454811	0.141910
989.627790	0.142970
989.800751	0.143199
989.973693	0.143993
990.146617	0.146119
990.319524	0.143888
990.492412	0.145965
990.665281	0.144317
990.838133	0.144589
991.010966	0.141786
991.183781	0.141267
991.356578	0.141327
991.529356	0.139979
991.702117	0.138993
991.874859	0.140458
992.047583	0.139874
992.220288	0.138126
992.392976	0.137364
992.565645	0.137804
992.738296	0.138743
992.910929	0.138980
993.083543	0.139847
993.256139	0.139107
993.428718	0.138393
993.601277	0.138156
993.773819	0.136400
993.946342	0.136422
994.118848	0.136726
994.291335	0.137572
994.463803	0.137259
994.636254	0.136704
994.808686	0.136625
994.981100	0.137003
995.153496	0.136416
995.325874	0.138493
995.498233	0.138641
995.670574	0.138851
995.842897	0.137935
996.015202	0.138652
996.187488	0.140816
996.359757	0.140923
996.532007	0.142449
996.704239	0.142280
996.876452	0.144411
997.048648	0.143325
997.220825	0.141903
997.392984	0.142023
997.565124	0.142137
997.737247	0.139826
997.909351	0.142112
998.081437	0.140875
998.253505	0.141573
998.425554	0.141853
998.597586	0.142974
998.769599	0.144677
998.941594	0.144818
999.113571	0.144692
999.285529	0.146822
999.457469	0.146367
999.629391	0.146898
999.801295	0.148205
999.973181	0.146115
1000.145048	0.143352
1000.316897	0.142461
1000.488728	0.142017
1000.660541	0.140514
1000.832335	0.138556
1001.004111	0.137754
1001.175869	0.136471
1001.347609	0.134816
1001.519331	0.134582
1001.691034	0.137878
1001.862719	0.138028
1002.034386	0.137601
1002.206035	0.140013
1002.377665	0.140569
1002.549277	0.139776
1002.720871	0.140005
1002.892447	0.139741
1003.064004	0.141039
1003.235544	0.139459
1003.407065	0.140099
1003.578568	0.140179
1003.750052	0.137327
1003.921519	0.137554
1004.092967	0.137409
1004.264397	0.136737
1004.435809	0.136860
1004.607202	0.136347
1004.778577	0.138436
1004.949934	0.137251
1005.121273	0.137598
1005.292594	0.139235
1005.463896	0.138148
1005.635180	0.138881
1005.806446	0.140062
1005.977694	0.142360
1006.148923	0.142465
1006.320135	0.141109
1006.491328	0.141344
1006.662503	0.142318
1006.833659	0.141007
1007.004798	0.141312
1007.175918	0.142058
1007.347020	0.143085
1007.518103	0.142562
1007.689169	0.143761
1007.860216	0.144965
1008.031245	0.145481
1008.202256	0.142791
1008.373248	0.144401
1008.544223	0.144583
1008.715179	0.143241
1008.886117	0.142874
1009.057036	0.143129
1009.227938	0.142989
1009.398821	0.139844
1009.569686	0.139900
1009.740533	0.140947
1009.911361	0.142788
1010.082172	0.142957
1010.252964	0.142847
1010.423738	0.142409
1010.594493	0.141833
1010.765231	0.142173
1010.935950	0.143025
1011.106651	0.141913
1011.277334	0.142482
1011.447998	0.140810
1011.618645	0.141925
1011.789273	0.142170
1011.959882	0.141079
1012.130474	0.141267
1012.301048	0.140711
1012.471603	0.141520
1012.642140	0.140950
1012.812658	0.139651
1012.983159	0.138388
1013.153641	0.136190
1013.324105	0.136857
1013.494551	0.136956
1013.664979	0.136643
1013.835388	0.135618
1014.005779	0.136301
1014.176152	0.137478
1014.346507	0.138402
1014.516843	0.137664
1014.687162	0.138798
1014.857462	0.139310
1015.027744	0.142413
1015.198007	0.142914
1015.368252	0.144153
1015.538480	0.141963
1015.708689	0.143133
1015.878879	0.144172
1016.049052	0.146019
1016.219206	0.145735
1016.389342	0.143460
1016.559460	0.142593
1016.729559	0.140494
1016.899641	0.140662
1017.069704	0.141296
1017.239749	0.140293
1017.409775	0.139866
1017.579784	0.138750
1017.749774	0.139762
1017.919746	0.140961
1018.089700	0.141414
1018.259635	0.143603
1018.429553	0.142163
1018.599452	0.142750
1018.769333	0.142989
1018.939195	0.142477
1019.109040	0.142908
1019.278866	0.140558
1019.448674	0.139454
1019.618464	0.138277
1019.788235	0.139454
1019.957989	0.140402
1020.127724	0.141077
1020.297441	0.138771
1020.467139	0.140314
1020.636820	0.139459
1020.806482	0.140488
1020.976126	0.141127
1021.145752	0.140021
1021.315359	0.136701
1021.484948	0.136272
1021.654519	0.135904
1021.824072	0.138347
1021.993607	0.136575
1022.163123	0.138881
1022.332621	0.138869
1022.502101	0.137764
1022.671563	0.136175
1022.841007	0.139599
1023.010432	0.140431
1023.179839	0.140603
1023.349228	0.139388
1023.518598	0.139511
1023.687951	0.137596
1023.857285	0.137426
1024.026601	0.139828
1024.195899	0.140715
1024.365178	0.137497
1024.534439	0.135882
1024.703682	0.136312
1024.872907	0.137848
1025.042114	0.139563
1025.211302	0.139317
1025.380472	0.138882
1025.549624	0.136848
1025.718758	0.137039
1025.887873	0.139576
1026.056970	0.140987
1026.226049	0.139163
1026.395110	0.136359
1026.564153	0.135798
1026.733177	0.137497
1026.902183	0.138610
1027.071171	0.138795
1027.240141	0.139409
1027.409092	0.136713
1027.578026	0.136069
1027.746940	0.136777
1027.915837	0.138648
1028.084716	0.136927
1028.253576	0.135324
1028.422418	0.133887
1028.591242	0.135811
1028.760048	0.137390
1028.928835	0.138593
1029.097604	0.136785
1029.266355	0.136031
1029.435088	0.134506
1029.603803	0.135009
1029.772499	0.133453
1029.941177	0.134479
1030.109837	0.134640
1030.278478	0.133579
1030.447102	0.134208
1030.615707	0.134582
1030.784294	0.134931
1030.952863	0.137243
1031.121413	0.138770
1031.289945	0.138649
1031.458460	0.139677
1031.626955	0.138850
1031.795433	0.139776
1031.963892	0.138946
1032.132334	0.139738
1032.300756	0.141998
1032.469161	0.140630
1032.637548	0.138604
1032.805916	0.141501
1032.974266	0.140854
1033.142598	0.140717
1033.310911	0.140239
1033.479207	0.141964
1033.647484	0.142712
1033.815743	0.141621
1033.983983	0.140363
1034.152206	0.139845
1034.320410	0.140021
1034.488596	0.137360
1034.656764	0.137997
1034.824914	0.137103
1034.993045	0.136587
1035.161158	0.136186
1035.329253	0.135943
1035.497330	0.139117
1035.665388	0.140738
1035.833428	0.140308
1036.001450	0.143070
1036.169454	0.141327
1036.337440	0.141210
1036.505407	0.141247
1036.673356	0.140253
1036.841287	0.140753
1037.009200	0.139767
1037.177094	0.139266
1037.344970	0.139763
1037.512828	0.139198
1037.680668	0.140601
1037.848489	0.140030
1038.016293	0.138309
1038.184078	0.139205
1038.351845	0.137024
1038.519593	0.136270
1038.687324	0.136506
1038.855036	0.136888
1039.022730	0.137635
1039.190406	0.137407
1039.358063	0.136131
1039.525702	0.137117
1039.693323	0.134931
1039.860926	0.135842
1040.028511	0.135264
1040.196077	0.134706
1040.363625	0.134216
1040.531155	0.132498
1040.698667	0.133094
1040.866161	0.133952
1041.033636	0.133174
1041.201093	0.133983
1041.368532	0.133948
1041.535952	0.134794
1041.703355	0.136091
1041.870739	0.136632
1042.038105	0.137189
1042.205452	0.136431
1042.372782	0.137863
1042.540093	0.137341
1042.707386	0.139485
1042.874661	0.140756
1043.041918	0.140305
1043.209156	0.139293
1043.376376	0.137067
1043.543578	0.137552
1043.710762	0.137331
1043.877927	0.135973
1044.045074	0.135265
1044.212203	0.132477
1044.379314	0.131620
1044.546407	0.131880
1044.713481	0.132382
1044.880537	0.133416
1045.047575	0.133630
1045.214595	0.135116
1045.381596	0.136684
1045.548579	0.138581
1045.715544	0.139313
1045.882491	0.139360
1046.049420	0.138527
1046.216330	0.137754
1046.383222	0.137825
1046.550096	0.138054
1046.716951	0.134843
1046.883789	0.134878
1047.050608	0.135810
1047.217409	0.135871
1047.384192	0.135362
1047.550956	0.136475
1047.717703	0.136877
1047.884431	0.137334
1048.051140	0.137927
1048.217832	0.140776
1048.384505	0.138936
1048.551161	0.137688
1048.717798	0.139254
1048.884416	0.139685
1049.051017	0.140064
1049.217599	0.140387
1049.384163	0.138966
1049.550709	0.140772
1049.717237	0.138790
1049.883746	0.140816
1050.050237	0.141337
1050.216710	0.140106
1050.383165	0.140702
1050.549601	0.140782
1050.716019	0.140300
1050.882420	0.141590
1051.048801	0.139079
1051.215165	0.140527
1051.381510	0.139896
1051.547837	0.138972
1051.714146	0.140778
1051.880437	0.139910
1052.046709	0.139480
1052.212964	0.139308
1052.379200	0.138702
1052.545417	0.139054
1052.711617	0.138553
1052.877798	0.137156
1053.043961	0.137318
1053.210106	0.137308
1053.376233	0.136820
1053.542341	0.137231
1053.708432	0.138565
1053.874504	0.137367
1054.040557	0.135338
1054.206593	0.136711
1054.372610	0.136820
1054.538609	0.137325
1054.704590	0.137382
1054.870553	0.139795
1055.036497	0.139513
1055.202424	0.137176
1055.368331	0.139608
1055.534221	0.139967
1055.700093	0.139163
1055.865946	0.142240
1056.031781	0.142270
1056.197598	0.142757
1056.363397	0.143179
1056.529177	0.144364
1056.694939	0.146580
1056.860683	0.145584
1057.026409	0.143791
1057.192116	0.142842
1057.357806	0.140850
1057.523477	0.140769
1057.689130	0.139818
1057.854764	0.137770
1058.020381	0.138956
1058.185979	0.136835
1058.351559	0.137524
1058.517120	0.141626
1058.682664	0.142890
1058.848189	0.142967
1059.013696	0.140773
1059.179185	0.139400
1059.344656	0.140180
1059.510108	0.138408
1059.675542	0.139006
1059.840958	0.136011
1060.006356	0.133884
1060.171735	0.132452
1060.337096	0.132735
1060.502439	0.134652
1060.667764	0.135033
1060.833071	0.134575
1060.998359	0.134375
1061.163629	0.136510
1061.328881	0.138837
1061.494115	0.140661
1061.659330	0.142227
1061.824527	0.143576
1061.989706	0.142525
1062.154867	0.144129
1062.320010	0.143560
1062.485134	0.143965
1062.650240	0.143768
1062.815328	0.143532
1062.980398	0.143180
1063.145449	0.141682
1063.310482	0.139105
1063.475497	0.140992
1063.640494	0.140827
1063.805473	0.140474
1063.970433	0.141053
1064.135375	0.140272
1064.300299	0.142056
1064.465204	0.140713
1064.630092	0.141881
1064.794961	0.142714
1064.959812	0.142798
1065.124645	0.143090
1065.289459	0.143334
1065.454256	0.144335
1065.619034	0.144351
1065.783793	0.142029
1065.948535	0.142649
1066.113258	0.142727
1066.277964	0.142160
1066.442651	0.142411
1066.607319	0.141810
1066.771970	0.141566
1066.936602	0.140587
1067.101216	0.140083
1067.265812	0.142009
1067.430389	0.143127
1067.594949	0.141588
1067.759490	0.142360
1067.924013	0.141573
1068.088518	0.140781
1068.253004	0.143530
1068.417472	0.142645
1068.581922	0.142093
1068.746354	0.140070
1068.910768	0.137518
1069.075163	0.140724
1069.239540	0.142561
1069.403899	0.144108
1069.568240	0.145714
1069.732562	0.144281
1069.896866	0.144443
1070.061152	0.144162
1070.225420	0.144054
1070.389670	0.146658
1070.553901	0.144508
1070.718114	0.142905
1070.882309	0.142496
1071.046486	0.142698
1071.210644	0.142257
1071.374784	0.142289
1071.538906	0.142570
1071.703010	0.142418
1071.867096	0.144170
1072.031163	0.145244
1072.195212	0.144007
1072.359243	0.143582
1072.523256	0.141567
1072.687250	0.141825
1072.851226	0.141588
1073.015184	0.141216
1073.179124	0.142173
1073.343045	0.142302
1073.506949	0.143143
1073.670834	0.146206
1073.834701	0.145536
1073.998549	0.146534
1074.162380	0.149923
1074.326192	0.151531
1074.489986	0.151778
1074.653761	0.153921
1074.817519	0.150661
1074.981258	0.150167
1075.144979	0.147807
1075.308682	0.147788
1075.472367	0.149154
1075.636033	0.145112
1075.799681	0.144419
1075.963311	0.146051
1076.126923	0.145297
1076.290516	0.147014
1076.454092	0.146779
1076.617649	0.148122
1076.781187	0.150294
1076.944708	0.151481
1077.108210	0.151469
1077.271695	0.151777
1077.435160	0.150624
1077.598608	0.147906
1077.762038	0.147793
1077.925449	0.147082
1078.088842	0.146762
1078.252217	0.144349
1078.415573	0.143532
1078.578912	0.144157
1078.742232	0.143863
1078.905534	0.144271
1079.068817	0.148675
1079.232083	0.148789
1079.395330	0.149618
1079.558559	0.150564
1079.721770	0.153127
1079.884962	0.152818
1080.048136	0.152948
1080.211293	0.152665
1080.374430	0.153974
1080.537550	0.153164
1080.700651	0.154140
1080.863735	0.153590
1081.026800	0.151489
1081.189846	0.151953
1081.352875	0.152294
1081.515885	0.153610
1081.678877	0.152980
1081.841851	0.152191
1082.004807	0.152485
1082.167744	0.147483
1082.330663	0.147696
1082.493564	0.149468
1082.656447	0.147541
1082.819312	0.145924
1082.982158	0.143572
1083.144986	0.143984
1083.307796	0.143721
1083.470587	0.142641
1083.633361	0.146226
1083.796116	0.144555
1083.958853	0.145460
1084.121571	0.146315
1084.284272	0.148332
1084.446954	0.149231
1084.609618	0.150223
1084.772264	0.153114
1084.934892	0.152340
1085.097501	0.151398
1085.260092	0.153744
1085.422665	0.152304
1085.585220	0.152954
1085.747756	0.151981
1085.910274	0.151790
1086.072774	0.149846
1086.235256	0.146671
1086.397720	0.147651
1086.560165	0.149773
1086.722592	0.150612
1086.885001	0.151666
1087.047392	0.151791
1087.209764	0.154391
1087.372119	0.156071
1087.534455	0.157652
1087.696772	0.160332
1087.859072	0.159664
1088.021353	0.159968
1088.183616	0.159229
1088.345861	0.159759
1088.508088	0.157415
1088.670296	0.153412
1088.832486	0.153688
1088.994658	0.153436
1089.156812	0.153339
1089.318948	0.154934
1089.481065	0.155309
1089.643164	0.155356
1089.805245	0.153202
1089.967308	0.153154
1090.129352	0.153602
1090.291378	0.153088
1090.453386	0.151603
1090.615376	0.151821
1090.777347	0.152124
1090.939301	0.148875
1091.101236	0.149239
1091.263153	0.151232
1091.425051	0.152256
1091.586932	0.154402
1091.748794	0.154693
1091.910638	0.156626
1092.072463	0.153735
1092.234271	0.153363
1092.396060	0.156403
1092.557831	0.156654
1092.719584	0.154354
1092.881319	0.154764
1093.043035	0.153932
1093.204733	0.153772
1093.366413	0.154814
1093.528075	0.156597
1093.689718	0.156149
1093.851343	0.154545
1094.012950	0.154423
1094.174539	0.158061
1094.336110	0.158907
1094.497662	0.158441
1094.659196	0.160875
1094.820712	0.160040
1094.982210	0.156665
1095.143689	0.156099
1095.305151	0.159380
1095.466594	0.158104
1095.628018	0.154552
1095.789425	0.155298
1095.950813	0.154526
1096.112183	0.154624
1096.273535	0.151358
1096.434869	0.155239
1096.596184	0.154081
1096.757482	0.151768
1096.918761	0.154379
1097.080021	0.156100
1097.241264	0.152446
1097.402488	0.152373
1097.563694	0.147156
1097.724882	0.150568
1097.886052	0.150141
1098.047203	0.149431
1098.208336	0.149741
1098.369451	0.145595
1098.530548	0.143514
1098.691627	0.145684
1098.852687	0.146442
1099.013729	0.148948
1099.174753	0.149452
1099.335758	0.149615
1099.496746	0.150986
1099.657715	0.151702
1099.818666	0.156102
1099.979599	0.157072
1100.140513	0.157370
1100.301409	0.159488
1100.462287	0.161675
1100.623147	0.161866
1100.783989	0.160305
1100.944812	0.160311
1101.105617	0.161872
1101.266404	0.158884
1101.427173	0.161178
1101.587923	0.165841
1101.748656	0.164144
1101.909370	0.163610
1102.070066	0.162790
1102.230743	0.162159
1102.391403	0.165786
1102.552044	0.161257
1102.712667	0.161040
1102.873271	0.159708
1103.033858	0.154230
1103.194426	0.158094
1103.354976	0.157145
1103.515508	0.154729
1103.676021	0.155215
1103.836517	0.149419
1103.996994	0.153404
1104.157453	0.149960
1104.317893	0.148573
1104.478316	0.152203
1104.638720	0.147455
1104.799106	0.149233
1104.959474	0.155081
1105.119823	0.158081
1105.280155	0.163366
1105.440468	0.161969
1105.600763	0.167761
1105.761039	0.169847
1105.921298	0.168739
1106.081538	0.170902
1106.241760	0.169631
1106.401964	0.168417
1106.562149	0.166939
1106.722316	0.163523
1106.882465	0.163030
1107.042596	0.158047
1107.202709	0.159648
1107.362803	0.160317
1107.522879	0.157008
1107.682937	0.157390
1107.842977	0.156335
1108.002999	0.159815
1108.163002	0.161682
1108.322987	0.159544
1108.482954	0.163543
1108.642902	0.161919
1108.802833	0.161700
1108.962745	0.168304
1109.122639	0.168960
1109.282515	0.166566
1109.442372	0.162386
1109.602211	0.159274
1109.762032	0.162794
1109.921835	0.164520
1110.081620	0.162047
1110.241386	0.160648
1110.401134	0.159210
1110.560864	0.161230
1110.720576	0.164796
1110.880269	0.166528
1111.039945	0.167104
1111.199602	0.165374
1111.359240	0.161421
1111.518861	0.166930
1111.678463	0.163578
1111.838047	0.161228
1111.997613	0.160140
1112.157161	0.159111
1112.316690	0.160815
1112.476202	0.163974
1112.635695	0.165445
1112.795169	0.170360
1112.954626	0.170211
1113.114064	0.174997
1113.273484	0.177229
1113.432886	0.175639
1113.592270	0.173375
1113.751635	0.175368
1113.910983	0.172609
1114.070312	0.173976
1114.229622	0.169308
1114.388915	0.164635
1114.548189	0.163609
1114.707445	0.158147
1114.866683	0.156264
1115.025903	0.155731
1115.185104	0.150674
1115.344287	0.148337
1115.503452	0.145555
1115.662599	0.149745
1115.821727	0.150628
1115.980838	0.148710
1116.139930	0.154488
1116.299004	0.153710
1116.458059	0.153689
1116.617097	0.153272
1116.776116	0.158904
1116.935117	0.162892
1117.094099	0.160756
1117.253064	0.159985
1117.412010	0.159040
1117.570938	0.158761
1117.729848	0.162270
1117.888740	0.162277
1118.047613	0.158382
1118.206468	0.156507
1118.365305	0.154439
1118.524124	0.158690
1118.682924	0.162684
1118.841707	0.166265
1119.000471	0.165625
1119.159216	0.168012
1119.317944	0.167218
1119.476653	0.174489
1119.635344	0.173480
1119.794017	0.173773
1119.952672	0.169922
1120.111308	0.166233
1120.269927	0.164464
1120.428527	0.159465
1120.587108	0.156155
1120.745672	0.156820
1120.904217	0.155854
1121.062744	0.155004
1121.221253	0.152864
1121.379744	0.151719
1121.538216	0.155493
1121.696671	0.157851
1121.855107	0.164633
1122.013524	0.164728
1122.171924	0.171402
1122.330305	0.169674
1122.488668	0.170778
1122.647013	0.172389
1122.805340	0.174854
1122.963648	0.169802
1123.121938	0.159832
1123.280210	0.153888
1123.438464	0.154016
1123.596700	0.149737
1123.754917	0.154740
1123.913116	0.158526
1124.071297	0.155971
1124.229459	0.155374
1124.387604	0.160059
1124.545730	0.163967
1124.703838	0.163762
1124.861928	0.166354
1125.019999	0.167874
1125.178052	0.163419
1125.336088	0.161666
1125.494104	0.168226
1125.652103	0.167833
1125.810083	0.171649
1125.968045	0.180375
1126.125989	0.182318
1126.283915	0.180988
1126.441823	0.181240
1126.599712	0.180882
1126.757583	0.180085
1126.915436	0.176664
1127.073270	0.177718
1127.231087	0.169483
1127.388885	0.160370
1127.546665	0.163487
1127.704426	0.168326
1127.862170	0.171072
1128.019895	0.168068
1128.177602	0.167710
1128.335291	0.164256
1128.492961	0.162763
1128.650614	0.159948
1128.808248	0.166584
1128.965864	0.169818
1129.123461	0.161085
1129.281041	0.156601
1129.438602	0.159291
1129.596145	0.162293
1129.753670	0.167488
1129.911176	0.166039
1130.068665	0.171666
1130.226135	0.166509
1130.383587	0.162357
1130.541020	0.165040
1130.698436	0.159922
1130.855833	0.160257
1131.013212	0.161711
1131.170573	0.159189
1131.327915	0.163343
1131.485239	0.159621
1131.642545	0.162398
1131.799833	0.158111
1131.957103	0.152735
1132.114354	0.157428
1132.271588	0.160173
1132.428803	0.156484
1132.585999	0.159371
1132.743178	0.160315
1132.900338	0.164569
1133.057480	0.161840
1133.214604	0.166549
1133.371710	0.171188
1133.528797	0.170418
1133.685866	0.166345
1133.842917	0.170840
1133.999950	0.164381
1134.156964	0.166739
1134.313960	0.164940
1134.470938	0.163396
1134.627898	0.157480
1134.784840	0.152773
1134.941763	0.149970
1135.098668	0.148009
1135.255555	0.144061
1135.412424	0.145545
1135.569274	0.136811
1135.726107	0.138694
1135.882921	0.142561
1136.039716	0.149725
1136.196494	0.152756
1136.353253	0.151009
1136.509995	0.155661
1136.666717	0.160569
1136.823422	0.162791
1136.980109	0.169622
1137.136777	0.172693
1137.293427	0.171737
1137.450059	0.169349
1137.606672	0.168756
1137.763267	0.175812
1137.919844	0.172021
1138.076403	0.162564
1138.232944	0.162001
1138.389466	0.158026
1138.545971	0.157707
1138.702457	0.161840
1138.858924	0.157472
1139.015374	0.154578
1139.171805	0.152163
1139.328218	0.163638
1139.484613	0.166337
1139.640990	0.161225
1139.797348	0.155795
1139.953688	0.153870
1140.110010	0.148440
1140.266314	0.154585
1140.422600	0.158404
1140.578867	0.159536
1140.735116	0.146140
1140.891347	0.153366
1141.047559	0.163460
1141.203754	0.174057
1141.359930	0.172505
1141.516088	0.172891
1141.672228	0.164297
1141.828349	0.163428
1141.984452	0.166081
1142.140537	0.172712
1142.296604	0.164604
1142.452653	0.158958
1142.608683	0.155469
1142.764695	0.158484
1142.920689	0.161089
1143.076665	0.171609
1143.232622	0.182402
1143.388562	0.179149
1143.544483	0.176083
1143.700385	0.181590
1143.856270	0.179914
1144.012136	0.178722
1144.167985	0.167814
1144.323814	0.163330
1144.479626	0.158048
1144.635420	0.153864
1144.791195	0.149861
1144.946952	0.149496
1145.102691	0.145985
1145.258411	0.144499
1145.414113	0.147704
1145.569798	0.151828
1145.725463	0.156683
1145.881111	0.160534
1146.036741	0.146432
1146.192352	0.147828
1146.347945	0.148556
1146.503519	0.145236
1146.659076	0.144648
1146.814614	0.138568
1146.970134	0.140958
1147.125636	0.141888
1147.281120	0.134591
1147.436585	0.150575
1147.592032	0.153116
1147.747461	0.156535
1147.902872	0.158354
1148.058265	0.161219
1148.213639	0.170406
1148.368995	0.173203
1148.524333	0.169050
1148.679653	0.173371
1148.834954	0.173788
1148.990237	0.173706
1149.145502	0.165372
1149.300749	0.166084
1149.455977	0.170064
1149.611188	0.163410
1149.766380	0.166104
1149.921553	0.168952
1150.076709	0.166847
1150.231846	0.157199
1150.386966	0.152475
1150.542066	0.160484
1150.697149	0.169452
1150.852214	0.167747
1151.007260	0.164711
1151.162288	0.158420
1151.317298	0.156356
1151.472289	0.159922
1151.627263	0.156924
1151.782218	0.161130
1151.937155	0.152148
1152.092073	0.147616
1152.246974	0.143475
1152.401856	0.143450
1152.556720	0.147023
1152.711566	0.144414
1152.866393	0.140585
1153.021203	0.149715
1153.175994	0.142907
1153.330767	0.150670
1153.485521	0.147028
1153.640258	0.153310
1153.794976	0.156689
1153.949676	0.149864
1154.104358	0.153065
1154.259021	0.147683
1154.413667	0.147264
1154.568294	0.148585
1154.722903	0.140996
1154.877493	0.140512
1155.032066	0.134541
1155.186620	0.130706
1155.341156	0.136260
1155.495674	0.130451
1155.650173	0.141529
1155.804654	0.138921
1155.959118	0.148290
1156.113562	0.146456
1156.267989	0.145614
1156.422397	0.139435
1156.576788	0.136179
1156.731160	0.136965
1156.885513	0.140139
1157.039849	0.129078
1157.194166	0.117361
1157.348465	0.114110
1157.502746	0.119836
1157.657009	0.125606
1157.811253	0.134951
1157.965479	0.144699
1158.119687	0.141938
1158.273877	0.146213
1158.428048	0.149696
1158.582201	0.162356
1158.736337	0.167020
1158.890453	0.174991
1159.044552	0.166146
1159.198632	0.153783
1159.352694	0.146532
1159.506738	0.138031
1159.660764	0.135303
1159.814771	0.138095
1159.968761	0.130876
1160.122732	0.125752
1160.276685	0.116965
1160.430619	0.112705
1160.584535	0.125477
1160.738434	0.123922
1160.892313	0.135331
1161.046175	0.139669
1161.200019	0.144707
1161.353844	0.156814
1161.507651	0.152930
1161.661440	0.157323
1161.815210	0.172905
1161.968962	0.165215
1162.122697	0.169308
1162.276412	0.159659
1162.430110	0.145346
1162.583789	0.138187
1162.737451	0.133476
1162.891094	0.138030
1163.044718	0.130898
1163.198325	0.124192
1163.351913	0.130610
1163.505483	0.127052
1163.659035	0.126997
1163.812569	0.135530
1163.966084	0.137620
1164.119581	0.133215
1164.273060	0.127924
1164.426521	0.135474
1164.579964	0.139229
1164.733388	0.129151
1164.886794	0.132113
1165.040182	0.135931
1165.193551	0.131227
1165.346903	0.124064
1165.500236	0.123016
1165.653551	0.126876
1165.806848	0.132324
1165.960126	0.131896
1166.113386	0.144368
1166.266628	0.138774
1166.419852	0.142164
1166.573058	0.142268
1166.726245	0.145875
1166.879414	0.155110
1167.032565	0.159517
1167.185698	0.151492
1167.338812	0.135481
1167.491909	0.130063
1167.644987	0.135082
1167.798046	0.124247
1167.951088	0.136859
1168.104111	0.139940
1168.257117	0.137481
1168.410103	0.136488
1168.563072	0.132829
1168.716023	0.147767
1168.868955	0.150716
1169.021869	0.140379
1169.174765	0.147654
1169.327642	0.139625
1169.480501	0.143191
1169.633343	0.140881
1169.786165	0.139115
1169.938970	0.138138
1170.091757	0.129178
1170.244525	0.128294
1170.397275	0.138731
1170.550007	0.136102
1170.702720	0.129310
1170.855415	0.130647
1171.008092	0.129049
1171.160751	0.126165
1171.313392	0.129973
1171.466014	0.188588
1171.618619	0.140759
1171.771205	0.140759
1171.923772	0.140759
