sample name	sample
index	458
start time	 03-11-2021  11:34:50 AM


Wavelength (nm)	Absorbance
494.344910	0.025993
494.563924	0.025993
494.782919	0.025993
495.001897	0.016381
495.220856	-0.010277
495.439797	-0.013411
495.658719	-0.038056
495.877624	-0.053003
496.096510	-0.054092
496.315378	-0.078184
496.534227	-0.054245
496.753059	-0.059039
496.971872	-0.028001
497.190667	0.113289
497.409444	0.134461
497.628203	0.143290
497.846943	0.146152
498.065665	0.145248
498.284369	0.146415
498.503055	0.146849
498.721723	0.145036
498.940372	0.144592
499.159003	0.144957
499.377616	0.145434
499.596210	0.145500
499.814787	0.145530
500.033345	0.146438
500.251885	0.146774
500.470406	0.148338
500.688910	0.150474
500.907395	0.150334
501.125862	0.150627
501.344311	0.149986
501.562742	0.149318
501.781154	0.149858
501.999548	0.149910
502.217924	0.149933
502.436282	0.149597
502.654621	0.148953
502.872942	0.149576
503.091245	0.149907
503.309530	0.150471
503.527797	0.150765
503.746045	0.150176
503.964275	0.150454
504.182487	0.151210
504.400681	0.151371
504.618856	0.151916
504.837013	0.152457
505.055152	0.152815
505.273273	0.152390
505.491376	0.152675
505.709460	0.152294
505.927526	0.152599
506.145574	0.152816
506.363604	0.152859
506.581615	0.153626
506.799608	0.154292
507.017583	0.154554
507.235540	0.155390
507.453478	0.156480
507.671399	0.157510
507.889301	0.157761
508.107185	0.157002
508.325050	0.156242
508.542898	0.156045
508.760727	0.154955
508.978538	0.154880
509.196330	0.155786
509.414105	0.155913
509.631861	0.156520
509.849599	0.156985
510.067319	0.157011
510.285021	0.157992
510.502704	0.158435
510.720369	0.159105
510.938016	0.159841
511.155645	0.159137
511.373255	0.158819
511.590848	0.158535
511.808422	0.158531
512.025977	0.159069
512.243515	0.159205
512.461034	0.159498
512.678536	0.159553
512.896018	0.159156
513.113483	0.159257
513.330930	0.159415
513.548358	0.160556
513.765768	0.160643
513.983160	0.161158
514.200533	0.160931
514.417889	0.160560
514.635226	0.160772
514.852545	0.160946
515.069845	0.161739
515.287128	0.162193
515.504392	0.161689
515.721638	0.162162
515.938866	0.162471
516.156075	0.162877
516.373267	0.163459
516.590440	0.163546
516.807594	0.164507
517.024731	0.164315
517.241850	0.163810
517.458950	0.163721
517.676032	0.164180
517.893095	0.164610
518.110141	0.164620
518.327168	0.165411
518.544177	0.165748
518.761168	0.165273
518.978141	0.165490
519.195095	0.166204
519.412031	0.166908
519.628949	0.166449
519.845849	0.166465
520.062731	0.166914
520.279594	0.166570
520.496439	0.167292
520.713266	0.167898
520.930074	0.168118
521.146865	0.168594
521.363637	0.168952
521.580391	0.169382
521.797127	0.169052
522.013844	0.169183
522.230543	0.169646
522.447224	0.169352
522.663887	0.169951
522.880532	0.170354
523.097158	0.170602
523.313766	0.170684
523.530356	0.170844
523.746928	0.171285
523.963481	0.171217
524.180017	0.171696
524.396534	0.171854
524.613032	0.171906
524.829513	0.171744
525.045975	0.171809
525.262420	0.171486
525.478845	0.171908
525.695253	0.172512
525.911643	0.172649
526.128014	0.172179
526.344367	0.172747
526.560702	0.172781
526.777018	0.173808
526.993316	0.174498
527.209597	0.175769
527.425858	0.175656
527.642102	0.176169
527.858328	0.177837
528.074535	0.178659
528.290724	0.179617
528.506894	0.180035
528.723047	0.180197
528.939181	0.180567
529.155297	0.180666
529.371395	0.181009
529.587475	0.181153
529.803536	0.180892
530.019579	0.181066
530.235604	0.180821
530.451611	0.181427
530.667600	0.181203
530.883570	0.181598
531.099522	0.182131
531.315456	0.182815
531.531372	0.183229
531.747269	0.183396
531.963148	0.183841
532.179009	0.183833
532.394852	0.184015
532.610676	0.184625
532.826482	0.183947
533.042271	0.183410
533.258040	0.184244
533.473792	0.184355
533.689525	0.184729
533.905240	0.184860
534.120937	0.185538
534.336616	0.185667
534.552277	0.185633
534.767919	0.186994
534.983543	0.188218
535.199149	0.188236
535.414736	0.188560
535.630306	0.188350
535.845857	0.189277
536.061390	0.189706
536.276904	0.189654
536.492401	0.190109
536.707879	0.189575
536.923339	0.189874
537.138781	0.189945
537.354204	0.190226
537.569610	0.190891
537.784997	0.190292
538.000366	0.190528
538.215716	0.190787
538.431049	0.191244
538.646363	0.191810
538.861659	0.191602
539.076937	0.192030
539.292196	0.191919
539.507438	0.192188
539.722661	0.193074
539.937866	0.193348
540.153052	0.193527
540.368221	0.193787
540.583371	0.194154
540.798503	0.195034
541.013617	0.195502
541.228712	0.196255
541.443789	0.196803
541.658848	0.196663
541.873889	0.196350
542.088912	0.196577
542.303916	0.196900
542.518902	0.197191
542.733870	0.197186
542.948820	0.196981
543.163752	0.197439
543.378665	0.197673
543.593560	0.198643
543.808437	0.199277
544.023295	0.200023
544.238136	0.200841
544.452958	0.200776
544.667762	0.201395
544.882548	0.201655
545.097315	0.201824
545.312064	0.202203
545.526795	0.202120
545.741508	0.202415
545.956203	0.202334
546.170879	0.201860
546.385537	0.202659
546.600177	0.202522
546.814799	0.203261
547.029402	0.203560
547.243988	0.203695
547.458555	0.204043
547.673103	0.204433
547.887634	0.204943
548.102146	0.205292
548.316640	0.204942
548.531116	0.205077
548.745574	0.205206
548.960013	0.205091
549.174435	0.204993
549.388838	0.204978
549.603222	0.205439
549.817589	0.205824
550.031937	0.205965
550.246267	0.206556
550.460579	0.206352
550.674873	0.206214
550.889148	0.206484
551.103405	0.206556
551.317644	0.206598
551.531865	0.206750
551.746068	0.206785
551.960252	0.207171
552.174418	0.207551
552.388566	0.208035
552.602696	0.208231
552.816807	0.208992
553.030900	0.209643
553.244975	0.210481
553.459032	0.210617
553.673070	0.210579
553.887091	0.210678
554.101093	0.210874
554.315077	0.211432
554.529042	0.211997
554.742990	0.211850
554.956919	0.212213
555.170830	0.211873
555.384722	0.212185
555.598597	0.212571
555.812453	0.213014
556.026291	0.213427
556.240111	0.212950
556.453913	0.213008
556.667696	0.213331
556.881461	0.213759
557.095208	0.214041
557.308937	0.214309
557.522647	0.214428
557.736339	0.214478
557.950013	0.214192
558.163669	0.214689
558.377307	0.214886
558.590926	0.214887
558.804527	0.214394
559.018110	0.214521
559.231675	0.214505
559.445221	0.214728
559.658749	0.215114
559.872259	0.215397
560.085751	0.215672
560.299225	0.215661
560.512680	0.215831
560.726117	0.216076
560.939536	0.216480
561.152937	0.217297
561.366319	0.217739
561.579683	0.218051
561.793029	0.218166
562.006357	0.218234
562.219667	0.218911
562.432958	0.219056
562.646231	0.219558
562.859486	0.219806
563.072723	0.219440
563.285941	0.219201
563.499141	0.218804
563.712323	0.218917
563.925487	0.219305
564.138632	0.218960
564.351760	0.219196
564.564869	0.219464
564.777960	0.219238
564.991032	0.219184
565.204087	0.219314
565.417123	0.219606
565.630141	0.219605
565.843140	0.219591
566.056122	0.220297
566.269085	0.220648
566.482030	0.220247
566.694957	0.220613
566.907866	0.220957
567.120756	0.221342
567.333628	0.221392
567.546482	0.222032
567.759318	0.222221
567.972135	0.221953
568.184935	0.221988
568.397716	0.222193
568.610478	0.222519
568.823223	0.222599
569.035949	0.222749
569.248657	0.223135
569.461347	0.223263
569.674019	0.223619
569.886672	0.223912
570.099308	0.224505
570.311925	0.224716
570.524523	0.224887
570.737104	0.225221
570.949666	0.225476
571.162210	0.225531
571.374736	0.225717
571.587244	0.225946
571.799733	0.225880
572.012205	0.225489
572.224658	0.226113
572.437092	0.226303
572.649509	0.226228
572.861907	0.226367
573.074287	0.226666
573.286649	0.226644
573.498993	0.226880
573.711318	0.226995
573.923625	0.227346
574.135914	0.227270
574.348185	0.227206
574.560438	0.227608
574.772672	0.227649
574.984888	0.227616
575.197086	0.227642
575.409266	0.227599
575.621427	0.227846
575.833570	0.227873
576.045695	0.227776
576.257802	0.227994
576.469890	0.227981
576.681961	0.228066
576.894013	0.228567
577.106046	0.228923
577.318062	0.228949
577.530059	0.229126
577.742039	0.229520
577.954000	0.230047
578.165942	0.230364
578.377867	0.230653
578.589773	0.231465
578.801661	0.231488
579.013531	0.231473
579.225382	0.231683
579.437216	0.232154
579.649031	0.232015
579.860828	0.232252
580.072606	0.232281
580.284367	0.232711
580.496109	0.232083
580.707833	0.232311
580.919539	0.232512
581.131227	0.232247
581.342896	0.232347
581.554547	0.232407
581.766180	0.232547
581.977795	0.232646
582.189391	0.232500
582.400969	0.232793
582.612529	0.232794
582.824071	0.233072
583.035595	0.233885
583.247100	0.234174
583.458587	0.234654
583.670056	0.234654
583.881506	0.234905
584.092939	0.234952
584.304353	0.235466
584.515749	0.235659
584.727127	0.235757
584.938486	0.236087
585.149828	0.236347
585.361151	0.236533
585.572456	0.236673
585.783742	0.237138
585.995011	0.237469
586.206261	0.237341
586.417493	0.237588
586.628706	0.237816
586.839902	0.237663
587.051079	0.237198
587.262238	0.237261
587.473379	0.237597
587.684502	0.237640
587.895606	0.237680
588.106692	0.237937
588.317760	0.238160
588.528810	0.238390
588.739841	0.238773
588.950855	0.239489
589.161850	0.239305
589.372827	0.239341
589.583785	0.239284
589.794726	0.239598
590.005648	0.239662
590.216552	0.239617
590.427437	0.239963
590.638305	0.239869
590.849154	0.239789
591.059985	0.240149
591.270798	0.240390
591.481592	0.240776
591.692369	0.241051
591.903127	0.241155
592.113867	0.241299
592.324588	0.241157
592.535292	0.241159
592.745977	0.241247
592.956644	0.241716
593.167293	0.241824
593.377923	0.241945
593.588536	0.241954
593.799130	0.242428
594.009706	0.242966
594.220263	0.243101
594.430803	0.243337
594.641324	0.243534
594.851827	0.243779
595.062312	0.244180
595.272778	0.244248
595.483227	0.244618
595.693657	0.245010
595.904069	0.245002
596.114462	0.245589
596.324838	0.245840
596.535195	0.246242
596.745534	0.246392
596.955855	0.246328
597.166157	0.246860
597.376441	0.246916
597.586707	0.247049
597.796955	0.247278
598.007185	0.247231
598.217396	0.247498
598.427589	0.247367
598.637764	0.247396
598.847921	0.247607
599.058060	0.247296
599.268180	0.247391
599.478282	0.247398
599.688366	0.247663
599.898431	0.247876
600.108479	0.248230
600.318508	0.248462
600.528519	0.248602
600.738511	0.249081
600.948486	0.249334
601.158442	0.249294
601.368380	0.249449
601.578300	0.249300
601.788202	0.249673
601.998085	0.249484
602.207950	0.249429
602.417797	0.249881
602.627626	0.249534
602.837436	0.249824
603.047228	0.249916
603.257002	0.250025
603.466758	0.250382
603.676496	0.250077
603.886215	0.250371
604.095916	0.250921
604.305599	0.250765
604.515264	0.251144
604.724910	0.251272
604.934538	0.251487
605.144148	0.251518
605.353740	0.251632
605.563314	0.251683
605.772869	0.251773
605.982406	0.252056
606.191925	0.252029
606.401425	0.251954
606.610908	0.252077
606.820372	0.252432
607.029818	0.252659
607.239246	0.252769
607.448655	0.252865
607.658047	0.253113
607.867420	0.253037
608.076775	0.253341
608.286111	0.253999
608.495430	0.254081
608.704730	0.253961
608.914012	0.253927
609.123275	0.253816
609.332521	0.253978
609.541748	0.253776
609.750957	0.253938
609.960148	0.254065
610.169321	0.254034
610.378475	0.254356
610.587611	0.254683
610.796729	0.254967
611.005829	0.255449
611.214910	0.256166
611.423974	0.256647
611.633019	0.257050
611.842045	0.257125
612.051054	0.256992
612.260044	0.257042
612.469017	0.257455
612.677970	0.257627
612.886906	0.257780
613.095824	0.257417
613.304723	0.257513
613.513604	0.257470
613.722467	0.257600
613.931311	0.257750
614.140138	0.257659
614.348946	0.257548
614.557736	0.257821
614.766507	0.257779
614.975261	0.258081
615.183996	0.258129
615.392713	0.258131
615.601412	0.258520
615.810092	0.258764
616.018754	0.259165
616.227399	0.259046
616.436024	0.259055
616.644632	0.259200
616.853222	0.259572
617.061793	0.259509
617.270346	0.259619
617.478880	0.259578
617.687397	0.259528
617.895895	0.259273
618.104375	0.259678
618.312837	0.259877
618.521281	0.260041
618.729706	0.260042
618.938113	0.260292
619.146502	0.260648
619.354873	0.260921
619.563226	0.261351
619.771560	0.261900
619.979876	0.262047
620.188174	0.262195
620.396453	0.262347
620.604715	0.262354
620.812958	0.263009
621.021183	0.262971
621.229390	0.263055
621.437578	0.263090
621.645748	0.263170
621.853900	0.263074
622.062034	0.263171
622.270150	0.263526
622.478247	0.263708
622.686326	0.263511
622.894387	0.263752
623.102430	0.263631
623.310454	0.263769
623.518461	0.263760
623.726449	0.263728
623.934418	0.263801
624.142370	0.263904
624.350303	0.263932
624.558218	0.263847
624.766115	0.263865
624.973994	0.264428
625.181855	0.264694
625.389697	0.264969
625.597521	0.265658
625.805327	0.265878
626.013114	0.265810
626.220883	0.266047
626.428634	0.266346
626.636367	0.266776
626.844082	0.266865
627.051778	0.266739
627.259457	0.266752
627.467117	0.266585
627.674758	0.267027
627.882382	0.267180
628.089987	0.267278
628.297574	0.267491
628.505143	0.267508
628.712694	0.267462
628.920226	0.267643
629.127740	0.267624
629.335236	0.268034
629.542714	0.267866
629.750174	0.268311
629.957615	0.268353
630.165038	0.268493
630.372443	0.268362
630.579829	0.268593
630.787198	0.268955
630.994548	0.269381
631.201880	0.269493
631.409194	0.269520
631.616489	0.269609
631.823766	0.270066
632.031025	0.270271
632.238266	0.270645
632.445489	0.270716
632.652693	0.270883
632.859879	0.270933
633.067047	0.270854
633.274197	0.271293
633.481329	0.271418
633.688442	0.271725
633.895537	0.271689
634.102614	0.271811
634.309672	0.271955
634.516713	0.272167
634.723735	0.272498
634.930739	0.272856
635.137724	0.272904
635.344692	0.273078
635.551641	0.272889
635.758572	0.273095
635.965485	0.273150
636.172379	0.273424
636.379256	0.273228
636.586114	0.273442
636.792954	0.273425
636.999775	0.273455
637.206579	0.273650
637.413364	0.273932
637.620131	0.274089
637.826880	0.274331
638.033610	0.274620
638.240323	0.275028
638.447017	0.275249
638.653692	0.275510
638.860350	0.275799
639.066990	0.275790
639.273611	0.275896
639.480214	0.276256
639.686798	0.276554
639.893365	0.276604
640.099913	0.276680
640.306443	0.276688
640.512955	0.276916
640.719449	0.277118
640.925924	0.277241
641.132381	0.277381
641.338820	0.277498
641.545241	0.277602
641.751644	0.277757
641.958028	0.277812
642.164394	0.278068
642.370742	0.277901
642.577071	0.277968
642.783383	0.278280
642.989676	0.278785
643.195951	0.279019
643.402207	0.279150
643.608446	0.279494
643.814666	0.279910
644.020868	0.279820
644.227052	0.280364
644.433218	0.280691
644.639365	0.280612
644.845494	0.280444
645.051605	0.280548
645.257698	0.280739
645.463772	0.280523
645.669828	0.280600
645.875866	0.280715
646.081886	0.280786
646.287888	0.280729
646.493871	0.281185
646.699836	0.281188
646.905783	0.281274
647.111712	0.281510
647.317622	0.281714
647.523514	0.281854
647.729388	0.282289
647.935244	0.282497
648.141082	0.282669
648.346901	0.282762
648.552702	0.283206
648.758485	0.283455
648.964250	0.283434
649.169996	0.283919
649.375724	0.284102
649.581434	0.284245
649.787126	0.284497
649.992800	0.284943
650.198455	0.285087
650.404092	0.285316
650.609711	0.285271
650.815311	0.285477
651.020894	0.285370
651.226458	0.285798
651.432004	0.285872
651.637532	0.286050
651.843041	0.285727
652.048532	0.285917
652.254006	0.285928
652.459460	0.286363
652.664897	0.286442
652.870315	0.286623
653.075716	0.286749
653.281097	0.287096
653.486461	0.287379
653.691807	0.287971
653.897134	0.288296
654.102443	0.288887
654.307734	0.289355
654.513006	0.289641
654.718261	0.290244
654.923497	0.290348
655.128715	0.290230
655.333915	0.290359
655.539096	0.290511
655.744259	0.290530
655.949404	0.290274
656.154531	0.290169
656.359640	0.290266
656.564730	0.290070
656.769802	0.289890
656.974856	0.290513
657.179892	0.290667
657.384909	0.290853
657.589908	0.290964
657.794889	0.291494
657.999852	0.291862
658.204797	0.292502
658.409723	0.292906
658.614631	0.293557
658.819521	0.293447
659.024393	0.293610
659.229246	0.293835
659.434081	0.294129
659.638898	0.294182
659.843697	0.294210
660.048478	0.294020
660.253240	0.294214
660.457984	0.294251
660.662710	0.294462
660.867417	0.294737
661.072107	0.295035
661.276778	0.295154
661.481431	0.295310
661.686066	0.295554
661.890682	0.295895
662.095281	0.295889
662.299861	0.295893
662.504422	0.296127
662.708966	0.296280
662.913491	0.296390
663.117999	0.296672
663.322488	0.296824
663.526958	0.296966
663.731411	0.297418
663.935845	0.297600
664.140261	0.298146
664.344659	0.298469
664.549038	0.298646
664.753400	0.298804
664.957743	0.298864
665.162068	0.299241
665.366375	0.299564
665.570663	0.299416
665.774933	0.299668
665.979185	0.299703
666.183419	0.299926
666.387635	0.300184
666.591832	0.300537
666.796011	0.300862
667.000172	0.300803
667.204315	0.300876
667.408439	0.301255
667.612545	0.301507
667.816634	0.301684
668.020703	0.301681
668.224755	0.301871
668.428788	0.302050
668.632803	0.302322
668.836800	0.302630
669.040779	0.302972
669.244739	0.302785
669.448681	0.303247
669.652605	0.303403
669.856511	0.303772
670.060399	0.304062
670.264268	0.304211
670.468119	0.304066
670.671952	0.304196
670.875767	0.304100
671.079563	0.304482
671.283341	0.304405
671.487101	0.304555
671.690843	0.304587
671.894567	0.304584
672.098272	0.304474
672.301959	0.304987
672.505628	0.305082
672.709278	0.305388
672.912911	0.305869
673.116525	0.306122
673.320121	0.306286
673.523699	0.306630
673.727258	0.306490
673.930799	0.306906
674.134322	0.307139
674.337827	0.307470
674.541314	0.307780
674.744782	0.308067
674.948232	0.308115
675.151664	0.308483
675.355078	0.308665
675.558474	0.309121
675.761851	0.309500
675.965210	0.309588
676.168551	0.309747
676.371873	0.309856
676.575178	0.309954
676.778464	0.310269
676.981732	0.310332
677.184981	0.310644
677.388213	0.311049
677.591426	0.311323
677.794621	0.311908
677.997798	0.312189
678.200956	0.312367
678.404097	0.312717
678.607219	0.312968
678.810323	0.313291
679.013408	0.313307
679.216476	0.313617
679.419525	0.313699
679.622556	0.313485
679.825569	0.313642
680.028563	0.313860
680.231540	0.313782
680.434498	0.314039
680.637438	0.314370
680.840359	0.314758
681.043263	0.314819
681.246148	0.314751
681.449015	0.314993
681.651864	0.315204
681.854694	0.315425
682.057506	0.315832
682.260301	0.316166
682.463076	0.316158
682.665834	0.316278
682.868573	0.316620
683.071295	0.317155
683.273998	0.317449
683.476682	0.317457
683.679349	0.317732
683.881997	0.317582
684.084627	0.317518
684.287239	0.317939
684.489833	0.318060
684.692408	0.318015
684.894965	0.318024
685.097504	0.318114
685.300025	0.318454
685.502527	0.318649
685.705012	0.318846
685.907478	0.318999
686.109925	0.319043
686.312355	0.319405
686.514766	0.319501
686.717159	0.319616
686.919534	0.319842
687.121891	0.320121
687.324230	0.320172
687.526550	0.320430
687.728852	0.320480
687.931136	0.320771
688.133401	0.320840
688.335649	0.320926
688.537878	0.321135
688.740089	0.321394
688.942281	0.321439
689.144456	0.321719
689.346612	0.321829
689.548750	0.322287
689.750870	0.322477
689.952971	0.322541
690.155055	0.322866
690.357120	0.323101
690.559167	0.323076
690.761195	0.323249
690.963206	0.323355
691.165198	0.323630
691.367172	0.323636
691.569128	0.323544
691.771065	0.323784
691.972984	0.323643
692.174885	0.323807
692.376768	0.324138
692.578633	0.324311
692.780479	0.324400
692.982308	0.324342
693.184118	0.324551
693.385909	0.324848
693.587683	0.324905
693.789438	0.325623
693.991175	0.325937
694.192894	0.326020
694.394595	0.326121
694.596277	0.326240
694.797941	0.326376
694.999587	0.326819
695.201215	0.326919
695.402824	0.327352
695.604416	0.327208
695.805989	0.327159
696.007543	0.327435
696.209080	0.327761
696.410598	0.328074
696.612099	0.328361
696.813580	0.328061
697.015044	0.328081
697.216490	0.327826
697.417917	0.328072
697.619326	0.328049
697.820717	0.328043
698.022089	0.328166
698.223444	0.328337
698.424780	0.328589
698.626098	0.328955
698.827397	0.329251
699.028679	0.329448
699.229942	0.329706
699.431187	0.329809
699.632414	0.330131
699.833622	0.330115
700.034813	0.330051
700.235985	0.330089
700.437139	0.330188
700.638274	0.330293
700.839392	0.330668
701.040491	0.331027
701.241572	0.331421
701.442635	0.331333
701.643679	0.331519
701.844706	0.331611
702.045714	0.331734
702.246704	0.331732
702.447675	0.331798
702.648629	0.331847
702.849564	0.331468
703.050481	0.331381
703.251380	0.331359
703.452260	0.331562
703.653122	0.331683
703.853966	0.331597
704.054792	0.331737
704.255600	0.331835
704.456389	0.332027
704.657160	0.332044
704.857913	0.332276
705.058648	0.332409
705.259365	0.332345
705.460063	0.332265
705.660743	0.332375
705.861405	0.332487
706.062048	0.332500
706.262674	0.332139
706.463281	0.332348
706.663870	0.332007
706.864441	0.331957
707.064993	0.331956
707.265527	0.332141
707.466043	0.332260
707.666541	0.332356
707.867021	0.332589
708.067482	0.332983
708.267925	0.332945
708.468350	0.333509
708.668757	0.333847
708.869145	0.333779
709.069516	0.333775
709.269868	0.334017
709.470201	0.334028
709.670517	0.334178
709.870814	0.334053
710.071093	0.333973
710.271354	0.333792
710.471597	0.333751
710.671821	0.334127
710.872028	0.334088
711.072216	0.333984
711.272385	0.333928
711.472537	0.333863
711.672670	0.333834
711.872785	0.334132
712.072882	0.334440
712.272961	0.334365
712.473021	0.334298
712.673063	0.334383
712.873087	0.334123
713.073093	0.334262
713.273081	0.334180
713.473050	0.334234
713.673001	0.334113
713.872934	0.333734
714.072849	0.333849
714.272745	0.333752
714.472623	0.333441
714.672483	0.333576
714.872325	0.333600
715.072148	0.333542
715.271954	0.333855
715.471741	0.334138
715.671509	0.334395
715.871260	0.334164
716.070992	0.334121
716.270707	0.334660
716.470403	0.334807
716.670080	0.334365
716.869740	0.334301
717.069381	0.334196
717.269004	0.333885
717.468609	0.333777
717.668195	0.333804
717.867764	0.333735
718.067314	0.333537
718.266846	0.333441
718.466360	0.333496
718.665855	0.333351
718.865332	0.333036
719.064791	0.332978
719.264232	0.332560
719.463655	0.332247
719.663059	0.332160
719.862445	0.332166
720.061813	0.332100
720.261163	0.332105
720.460494	0.332016
720.659807	0.331961
720.859102	0.331912
721.058379	0.332170
721.257638	0.332467
721.456878	0.332713
721.656100	0.332651
721.855304	0.332376
722.054490	0.332375
722.253657	0.332539
722.452806	0.332713
722.651937	0.332608
722.851050	0.332264
723.050145	0.332113
723.249221	0.331714
723.448279	0.331561
723.647319	0.331528
723.846340	0.331335
724.045344	0.331139
724.244329	0.330977
724.443296	0.331033
724.642245	0.331351
724.841175	0.331262
725.040088	0.331196
725.238982	0.330998
725.437857	0.330951
725.636715	0.330883
725.835554	0.331018
726.034376	0.330703
726.233179	0.330469
726.431963	0.330317
726.630730	0.330333
726.829478	0.330260
727.028208	0.330401
727.226920	0.330482
727.425614	0.330521
727.624289	0.330196
727.822946	0.330417
728.021585	0.330249
728.220206	0.329766
728.418808	0.329659
728.617392	0.329694
728.815958	0.329402
729.014506	0.329394
729.213036	0.329050
729.411547	0.329008
729.610040	0.328595
729.808515	0.328675
730.006972	0.328840
730.205410	0.328566
730.403831	0.328348
730.602233	0.328499
730.800616	0.328174
730.998982	0.328398
731.197329	0.328315
731.395658	0.328508
731.593969	0.328178
731.792262	0.328087
731.990536	0.328149
732.188793	0.328126
732.387031	0.327505
732.585250	0.327538
732.783452	0.327052
732.981635	0.326714
733.179800	0.326192
733.377947	0.326003
733.576076	0.325945
733.774186	0.325837
733.972278	0.325461
734.170352	0.325706
734.368408	0.325463
734.566446	0.325391
734.764465	0.325535
734.962466	0.325531
735.160449	0.325549
735.358413	0.325012
735.556360	0.324717
735.754288	0.324646
735.952198	0.324501
736.150090	0.324360
736.347963	0.324254
736.545818	0.323886
736.743655	0.323950
736.941474	0.323793
737.139275	0.323976
737.337057	0.323877
737.534821	0.323754
737.732567	0.323297
737.930295	0.322909
738.128005	0.322849
738.325696	0.322583
738.523369	0.322283
738.721024	0.321819
738.918660	0.321597
739.116279	0.321270
739.313879	0.321289
739.511461	0.321372
739.709024	0.321677
739.906570	0.321539
740.104097	0.321540
740.301606	0.321090
740.499097	0.321054
740.696569	0.320832
740.894024	0.320840
741.091460	0.320545
741.288878	0.320119
741.486277	0.319607
741.683659	0.319262
741.881022	0.318934
742.078367	0.318916
742.275694	0.318815
742.473002	0.318435
742.670293	0.318286
742.867565	0.318217
743.064819	0.317983
743.262054	0.318131
743.459272	0.318239
743.656471	0.318113
743.853652	0.317825
744.050815	0.317643
744.247959	0.317620
744.445085	0.317357
744.642194	0.316833
744.839283	0.317001
745.036355	0.316291
745.233408	0.315987
745.430444	0.315856
745.627461	0.315898
745.824459	0.315697
746.021440	0.315521
746.218402	0.315452
746.415346	0.315501
746.612272	0.315141
746.809180	0.315283
747.006069	0.315141
747.202940	0.314788
747.399793	0.314536
747.596628	0.314423
747.793444	0.314503
747.990243	0.314021
748.187023	0.313775
748.383784	0.313650
748.580528	0.313487
748.777253	0.313155
748.973960	0.313177
749.170649	0.312912
749.367320	0.312888
749.563973	0.312411
749.760607	0.312461
749.957223	0.312542
750.153821	0.312494
750.350400	0.312294
750.546962	0.312419
750.743505	0.312202
750.940030	0.311914
751.136536	0.311800
751.333025	0.311697
751.529495	0.311509
751.725947	0.311436
751.922381	0.311393
752.118796	0.311277
752.315194	0.310851
752.511573	0.310743
752.707934	0.311043
752.904276	0.311039
753.100601	0.310869
753.296907	0.310822
753.493195	0.310585
753.689465	0.310207
753.885716	0.309903
754.081949	0.309945
754.278164	0.310021
754.474361	0.309228
754.670540	0.308735
754.866700	0.308614
755.062843	0.308297
755.258967	0.308212
755.455072	0.307930
755.651160	0.307837
755.847229	0.307628
756.043280	0.307346
756.239313	0.307510
756.435328	0.307733
756.631324	0.307583
756.827302	0.307517
757.023262	0.307257
757.219204	0.307248
757.415127	0.307279
757.611033	0.306984
757.806920	0.306871
758.002788	0.306820
758.198639	0.306351
758.394471	0.306289
758.590286	0.305960
758.786081	0.305696
758.981859	0.305618
759.177619	0.305050
759.373360	0.304743
759.569083	0.304351
759.764788	0.304365
759.960474	0.304151
760.156143	0.304065
760.351793	0.304124
760.547425	0.304029
760.743038	0.303631
760.938634	0.303953
761.134211	0.304202
761.329770	0.304165
761.525311	0.303959
761.720833	0.303773
761.916338	0.303369
762.111824	0.303349
762.307292	0.303229
762.502741	0.303423
762.698173	0.303050
762.893586	0.303152
763.088981	0.303010
763.284358	0.303051
763.479716	0.302882
763.675057	0.302689
763.870379	0.302420
764.065683	0.302236
764.260968	0.301796
764.456236	0.301941
764.651485	0.301454
764.846716	0.301381
765.041929	0.301178
765.237123	0.301189
765.432299	0.301208
765.627457	0.301047
765.822597	0.300684
766.017719	0.300577
766.212822	0.300138
766.407907	0.300041
766.602974	0.299859
766.798023	0.299496
766.993054	0.299019
767.188066	0.298975
767.383060	0.298742
767.578036	0.298905
767.772993	0.298969
767.967933	0.299116
768.162854	0.299043
768.357757	0.299021
768.552642	0.298781
768.747508	0.299174
768.942356	0.299166
769.137186	0.299259
769.331998	0.298933
769.526792	0.298979
769.721567	0.298754
769.916324	0.298715
770.111063	0.298454
770.305784	0.298586
770.500486	0.298377
770.695171	0.298368
770.889837	0.298264
771.084484	0.298410
771.279114	0.298110
771.473725	0.298014
771.668318	0.297828
771.862893	0.297915
772.057450	0.297670
772.251988	0.297727
772.446509	0.297563
772.641011	0.297362
772.835494	0.297414
773.029960	0.297462
773.224407	0.297457
773.418836	0.297253
773.613247	0.297167
773.807640	0.297130
774.002014	0.296698
774.196370	0.296339
774.390708	0.296352
774.585028	0.295951
774.779330	0.295753
774.973613	0.295710
775.167878	0.295787
775.362125	0.295501
775.556354	0.295276
775.750564	0.295291
775.944756	0.295210
776.138930	0.295078
776.333086	0.295009
776.527223	0.294632
776.721343	0.294134
776.915444	0.294038
777.109526	0.294043
777.303591	0.294004
777.497637	0.293990
777.691666	0.294128
777.885676	0.294124
778.079667	0.294155
778.273641	0.294519
778.467596	0.294464
778.661533	0.294488
778.855452	0.294487
779.049352	0.294945
779.243235	0.295194
779.437099	0.295030
779.630945	0.294875
779.824773	0.294902
780.018582	0.294736
780.212373	0.295014
780.406146	0.295137
780.599901	0.295251
780.793638	0.295060
780.987356	0.294870
781.181056	0.295093
781.374738	0.295049
781.568402	0.294976
781.762047	0.295223
781.955674	0.295551
782.149283	0.295402
782.342874	0.295272
782.536447	0.295316
782.730001	0.295297
782.923537	0.295274
783.117055	0.295483
783.310555	0.295666
783.504036	0.295318
783.697499	0.294738
783.890944	0.294535
784.084371	0.294482
784.277780	0.294394
784.471170	0.294376
784.664542	0.294151
784.857896	0.294188
785.051231	0.294064
785.244549	0.294255
785.437848	0.294501
785.631129	0.294775
785.824392	0.295171
786.017636	0.295135
786.210863	0.295230
786.404071	0.295370
786.597260	0.295312
786.790432	0.295364
786.983585	0.295445
787.176721	0.295308
787.369838	0.295153
787.562936	0.294899
787.756017	0.294739
787.949079	0.294577
788.142123	0.294534
788.335149	0.294521
788.528156	0.294625
788.721146	0.294518
788.914117	0.294812
789.107070	0.294708
789.300005	0.294703
789.492921	0.294721
789.685819	0.294631
789.878699	0.294787
790.071561	0.294962
790.264405	0.294811
790.457230	0.295099
790.650037	0.295000
790.842826	0.295128
791.035597	0.295349
791.228349	0.295608
791.421084	0.295949
791.613800	0.295991
791.806497	0.295971
791.999177	0.296248
792.191838	0.296085
792.384481	0.296500
792.577106	0.296639
792.769713	0.296670
792.962301	0.296908
793.154871	0.296994
793.347423	0.297030
793.539957	0.297224
793.732473	0.297308
793.924970	0.297366
794.117449	0.297172
794.309910	0.297369
794.502353	0.297363
794.694777	0.297332
794.887183	0.297338
795.079571	0.297417
795.271941	0.297281
795.464293	0.297353
795.656626	0.297549
795.848941	0.297596
796.041238	0.297518
796.233516	0.297793
796.425777	0.297748
796.618019	0.297919
796.810243	0.297997
797.002449	0.298346
797.194636	0.298075
797.386805	0.298251
797.578956	0.298315
797.771089	0.298466
797.963204	0.298289
798.155300	0.298340
798.347378	0.298393
798.539438	0.298503
798.731480	0.298365
798.923503	0.298786
799.115509	0.298934
799.307496	0.299223
799.499465	0.299647
799.691415	0.299928
799.883348	0.300202
800.075262	0.300313
800.267158	0.300609
800.459035	0.300843
800.650895	0.300999
800.842736	0.301119
801.034559	0.301346
801.226364	0.301404
801.418150	0.301658
801.609919	0.301755
801.801669	0.302068
801.993401	0.302215
802.185114	0.302404
802.376810	0.302596
802.568487	0.302791
802.760146	0.302906
802.951787	0.302943
803.143409	0.303008
803.335014	0.303283
803.526600	0.303286
803.718168	0.303417
803.909717	0.303588
804.101249	0.303551
804.292762	0.303531
804.484257	0.303514
804.675734	0.303742
804.867192	0.303802
805.058632	0.303806
805.250054	0.303778
805.441458	0.304114
805.632844	0.304417
805.824211	0.304897
806.015561	0.305086
806.206891	0.305545
806.398204	0.305632
806.589499	0.306033
806.780775	0.306337
806.972033	0.306700
807.163273	0.306848
807.354495	0.307221
807.545698	0.307317
807.736883	0.307691
807.928050	0.307646
808.119199	0.307914
808.310329	0.308015
808.501441	0.308243
808.692535	0.308773
808.883611	0.309161
809.074669	0.309310
809.265708	0.309663
809.456729	0.310003
809.647732	0.310576
809.838717	0.310753
810.029683	0.311213
810.220632	0.311487
810.411562	0.311621
810.602474	0.311711
810.793367	0.311752
810.984242	0.312092
811.175100	0.312000
811.365938	0.312004
811.556759	0.312203
811.747562	0.312293
811.938346	0.312682
812.129112	0.312965
812.319860	0.313293
812.510589	0.313663
812.701300	0.313720
812.891994	0.314240
813.082668	0.314486
813.273325	0.314854
813.463964	0.315174
813.654584	0.315342
813.845186	0.315259
814.035769	0.315194
814.226335	0.315142
814.416882	0.315196
814.607411	0.315470
814.797922	0.315742
814.988415	0.316022
815.178889	0.316039
815.369345	0.316038
815.559783	0.316504
815.750203	0.316886
815.940605	0.317137
816.130988	0.317578
816.321353	0.317598
816.511700	0.317661
816.702028	0.317972
816.892339	0.318357
817.082631	0.318672
817.272905	0.318825
817.463161	0.319027
817.653398	0.319574
817.843617	0.319839
818.033819	0.320430
818.224001	0.320893
818.414166	0.321203
818.604312	0.321272
818.794440	0.321486
818.984550	0.321860
819.174642	0.322043
819.364716	0.322173
819.554771	0.322393
819.744808	0.322438
819.934827	0.322740
820.124827	0.323254
820.314810	0.323770
820.504774	0.324122
820.694720	0.324225
820.884647	0.324814
821.074557	0.325225
821.264448	0.325671
821.454321	0.325788
821.644176	0.326018
821.834012	0.326044
822.023831	0.326216
822.213631	0.326602
822.403413	0.327008
822.593176	0.327197
822.782922	0.327242
822.972649	0.327657
823.162358	0.328143
823.352049	0.328537
823.541721	0.329075
823.731376	0.329403
823.921012	0.329788
824.110629	0.330217
824.300229	0.330591
824.489811	0.331306
824.679374	0.331499
824.868919	0.331694
825.058445	0.332045
825.247954	0.332140
825.437444	0.332696
825.626916	0.333057
825.816370	0.333520
826.005806	0.333516
826.195223	0.333932
826.384622	0.334262
826.574003	0.335002
826.763366	0.335325
826.952711	0.335747
827.142037	0.335977
827.331345	0.336166
827.520635	0.336405
827.709906	0.336861
827.899160	0.336825
828.088395	0.337132
828.277612	0.337226
828.466810	0.337773
828.655991	0.337959
828.845153	0.338494
829.034297	0.338905
829.223423	0.339397
829.412531	0.339725
829.601620	0.340502
829.790691	0.340968
829.979744	0.341679
830.168779	0.341902
830.357795	0.342352
830.546793	0.342622
830.735773	0.343048
830.924735	0.343301
831.113679	0.343954
831.302604	0.344140
831.491511	0.344444
831.680400	0.344509
831.869271	0.344694
832.058123	0.344966
832.246957	0.345454
832.435773	0.346275
832.624571	0.346614
832.813351	0.347035
833.002112	0.347440
833.190855	0.347884
833.379580	0.348231
833.568287	0.348741
833.756975	0.349027
833.945645	0.349419
834.134297	0.349580
834.322931	0.350130
834.511547	0.350434
834.700144	0.350792
834.888723	0.350954
835.077284	0.351446
835.265826	0.351504
835.454351	0.352104
835.642857	0.352417
835.831345	0.352489
836.019815	0.352930
836.208266	0.353541
836.396699	0.353980
836.585114	0.354413
836.773511	0.354643
836.961890	0.355582
837.150250	0.356008
837.338592	0.356356
837.526916	0.356897
837.715222	0.357151
837.903510	0.357431
838.091779	0.357721
838.280030	0.358492
838.468263	0.359122
838.656477	0.359441
838.844674	0.360117
839.032852	0.360581
839.221012	0.361255
839.409153	0.361521
839.597277	0.361657
839.785382	0.362446
839.973469	0.362394
840.161538	0.362600
840.349589	0.362950
840.537621	0.363020
840.725635	0.363217
840.913631	0.363524
841.101609	0.364219
841.289568	0.364721
841.477509	0.364761
841.665432	0.365202
841.853337	0.365885
842.041224	0.366437
842.229092	0.366823
842.416942	0.367372
842.604774	0.367195
842.792588	0.367206
842.980383	0.367700
843.168160	0.368309
843.355919	0.368790
843.543660	0.369056
843.731382	0.369228
843.919087	0.369754
844.106773	0.370539
844.294441	0.371435
844.482090	0.372152
844.669722	0.372687
844.857335	0.372719
845.044930	0.373302
845.232507	0.373937
845.420065	0.374332
845.607605	0.374827
845.795127	0.374831
845.982631	0.375436
846.170117	0.375984
846.357584	0.376681
846.545033	0.377763
846.732464	0.378347
846.919877	0.378549
847.107272	0.379295
847.294648	0.379329
847.482006	0.380006
847.669346	0.380350
847.856667	0.380660
848.043971	0.380809
848.231256	0.381038
848.418523	0.380907
848.605771	0.381208
848.793002	0.381715
848.980214	0.382498
849.167408	0.383190
849.354584	0.383633
849.541742	0.384078
849.728881	0.384755
849.916002	0.385228
850.103105	0.385851
850.290190	0.386859
850.477256	0.387044
850.664304	0.387222
850.851334	0.387049
851.038346	0.387380
851.225340	0.387994
851.412315	0.388141
851.599272	0.388208
851.786211	0.388832
851.973132	0.388922
852.160034	0.389377
852.346918	0.389574
852.533784	0.390138
852.720632	0.390541
852.907462	0.390693
853.094273	0.390809
853.281066	0.391227
853.467841	0.391763
853.654598	0.392373
853.841336	0.392488
854.028056	0.393223
854.214758	0.394056
854.401442	0.394257
854.588107	0.394646
854.774755	0.395610
854.961384	0.395879
855.147995	0.396016
855.334587	0.396420
855.521162	0.396813
855.707718	0.397421
855.894256	0.397506
856.080775	0.398427
856.267277	0.398825
856.453760	0.399044
856.640225	0.399646
856.826672	0.400271
857.013101	0.399953
857.199511	0.400726
857.385903	0.400961
857.572277	0.401446
857.758633	0.401691
857.944970	0.402045
858.131290	0.402354
858.317591	0.402773
858.503873	0.403141
858.690138	0.403773
858.876384	0.404117
859.062612	0.404502
859.248822	0.404815
859.435014	0.405282
859.621188	0.405726
859.807343	0.406013
859.993480	0.406689
860.179599	0.407190
860.365699	0.408013
860.551781	0.408458
860.737846	0.408964
860.923891	0.409339
861.109919	0.409561
861.295929	0.410207
861.481920	0.410800
861.667893	0.411042
861.853848	0.411358
862.039784	0.411437
862.225702	0.411542
862.411603	0.411691
862.597484	0.411977
862.783348	0.411889
862.969193	0.411899
863.155021	0.411925
863.340830	0.412256
863.526620	0.412596
863.712393	0.413176
863.898147	0.413612
864.083883	0.414214
864.269601	0.414160
864.455301	0.414712
864.640982	0.415020
864.826645	0.415248
865.012290	0.415485
865.197917	0.415714
865.383526	0.415554
865.569116	0.416178
865.754688	0.416229
865.940242	0.416848
866.125777	0.417416
866.311295	0.417725
866.496794	0.417854
866.682275	0.418019
866.867737	0.418280
867.053182	0.418707
867.238608	0.418496
867.424016	0.419232
867.609406	0.419209
867.794778	0.419285
867.980131	0.419916
868.165466	0.420677
868.350783	0.421030
868.536082	0.421292
868.721362	0.422069
868.906625	0.422244
869.091869	0.422379
869.277094	0.422901
869.462302	0.422998
869.647491	0.423020
869.832662	0.423392
870.017815	0.424231
870.202950	0.424732
870.388066	0.424285
870.573165	0.424697
870.758245	0.425205
870.943306	0.425500
871.128350	0.425730
871.313375	0.425960
871.498382	0.425824
871.683371	0.425338
871.868342	0.424991
872.053294	0.425602
872.238229	0.425805
872.423144	0.425682
872.608042	0.425482
872.792922	0.425947
872.977783	0.426236
873.162626	0.426322
873.347451	0.426432
873.532258	0.427134
873.717046	0.427160
873.901816	0.427593
874.086568	0.427663
874.271302	0.428544
874.456017	0.428347
874.640715	0.428682
874.825394	0.429140
875.010055	0.429539
875.194697	0.428862
875.379322	0.428710
875.563928	0.428491
875.748516	0.428553
875.933085	0.428448
876.117637	0.429179
876.302170	0.428841
876.486685	0.428723
876.671182	0.429345
876.855661	0.430062
877.040121	0.430786
877.224563	0.431457
877.408987	0.431986
877.593393	0.432360
877.777780	0.432545
877.962150	0.433002
878.146501	0.433794
878.330833	0.433426
878.515148	0.433934
878.699444	0.434004
878.883722	0.433886
879.067982	0.434154
879.252224	0.434222
879.436447	0.433994
879.620653	0.434387
879.804840	0.434455
879.989008	0.434757
880.173159	0.434609
880.357291	0.434719
880.541405	0.435275
880.725501	0.435583
880.909579	0.435844
881.093638	0.436246
881.277680	0.435953
881.461703	0.435891
881.645707	0.435898
881.829694	0.436546
882.013662	0.436714
882.197612	0.436395
882.381544	0.435903
882.565458	0.436063
882.749353	0.435925
882.933230	0.436657
883.117089	0.437307
883.300930	0.437641
883.484753	0.437354
883.668557	0.437059
883.852343	0.437313
884.036111	0.437759
884.219861	0.437309
884.403592	0.437741
884.587305	0.437265
884.771000	0.436762
884.954677	0.437012
885.138335	0.436926
885.321976	0.437406
885.505598	0.437346
885.689201	0.437509
885.872787	0.437816
886.056354	0.437799
886.239904	0.437862
886.423434	0.438732
886.606947	0.438482
886.790442	0.438558
886.973918	0.438740
887.157376	0.438426
887.340816	0.438280
887.524237	0.438252
887.707641	0.438278
887.891026	0.438230
888.074393	0.437529
888.257741	0.437977
888.441072	0.438704
888.624384	0.438890
888.807678	0.438790
888.990954	0.438486
889.174211	0.438949
889.357451	0.438927
889.540672	0.439022
889.723875	0.439006
889.907059	0.438705
890.090226	0.438226
890.273374	0.438075
890.456504	0.438504
890.639616	0.438540
890.822709	0.437802
891.005785	0.437835
891.188842	0.438271
891.371881	0.438378
891.554901	0.437910
891.737904	0.437981
891.920888	0.437439
892.103854	0.437844
892.286802	0.437811
892.469731	0.438132
892.652643	0.438135
892.835536	0.438121
893.018410	0.437495
893.201267	0.437680
893.384106	0.437653
893.566926	0.437785
893.749728	0.437147
893.932511	0.437344
894.115277	0.437401
894.298024	0.437030
894.480753	0.435991
894.663464	0.436208
894.846157	0.435627
895.028831	0.434890
895.211487	0.434818
895.394125	0.435043
895.576745	0.434052
895.759346	0.433782
895.941930	0.433856
896.124495	0.434245
896.307041	0.433828
896.489570	0.433963
896.672080	0.434824
896.854573	0.434954
897.037046	0.434498
897.219502	0.434938
897.401940	0.434728
897.584359	0.434226
897.766760	0.434415
897.949143	0.434423
898.131507	0.434251
898.313854	0.433198
898.496182	0.432622
898.678492	0.432496
898.860783	0.432028
899.043057	0.431764
899.225312	0.431695
899.407549	0.431067
899.589768	0.430704
899.771968	0.430540
899.954151	0.430336
900.136315	0.429882
900.318461	0.429389
900.500588	0.429315
900.682698	0.429191
900.864789	0.429046
901.046862	0.429002
901.228917	0.428731
901.410953	0.428368
901.592971	0.427674
901.774972	0.427128
901.956953	0.427403
902.138917	0.427604
902.320862	0.427044
902.502790	0.426126
902.684699	0.425752
902.866589	0.425307
903.048462	0.425220
903.230316	0.425219
903.412152	0.425301
903.593970	0.424519
903.775770	0.423302
903.957551	0.423193
904.139314	0.423224
904.321059	0.422709
904.502786	0.422436
904.684494	0.421595
904.866185	0.421492
905.047857	0.421437
905.229510	0.421085
905.411146	0.421093
905.592763	0.420255
905.774363	0.420203
905.955943	0.419955
906.137506	0.419540
906.319051	0.419455
906.500577	0.418613
906.682085	0.418595
906.863575	0.418069
907.045046	0.417330
907.226500	0.416405
907.407935	0.415399
907.589352	0.415141
907.770750	0.414573
907.952131	0.413990
908.133493	0.413975
908.314837	0.412962
908.496163	0.412577
908.677470	0.411888
908.858760	0.411914
909.040031	0.411675
909.221284	0.411546
909.402518	0.411366
909.583735	0.410480
909.764933	0.409747
909.946113	0.409236
910.127275	0.408747
910.308418	0.408693
910.489544	0.408225
910.670651	0.406986
910.851740	0.405744
911.032810	0.405315
911.213863	0.405144
911.394897	0.404725
911.575913	0.403884
911.756911	0.403631
911.937890	0.403219
912.118851	0.402920
912.299794	0.402705
912.480719	0.402339
912.661626	0.401724
912.842514	0.401319
913.023384	0.400781
913.204236	0.400898
913.385070	0.399987
913.565886	0.399050
913.746683	0.398451
913.927462	0.398345
914.108223	0.397771
914.288965	0.397152
914.469690	0.396633
914.650396	0.395873
914.831084	0.394614
915.011754	0.394000
915.192405	0.393693
915.373038	0.392437
915.553653	0.391790
915.734250	0.391168
915.914829	0.390030
916.095389	0.389482
916.275931	0.389191
916.456455	0.388703
916.636961	0.388428
916.817448	0.388170
916.997917	0.388415
917.178368	0.387587
917.358801	0.386286
917.539216	0.386700
917.719612	0.385990
917.899990	0.385253
918.080350	0.385280
918.260692	0.384649
918.441015	0.383049
918.621320	0.382211
918.801607	0.381991
918.981876	0.381429
919.162127	0.380050
919.342359	0.378594
919.522573	0.377861
919.702769	0.376741
919.882947	0.375439
920.063106	0.375772
920.243247	0.375198
920.423370	0.374396
920.603475	0.374352
920.783562	0.374144
920.963630	0.373536
921.143680	0.372152
921.323712	0.370576
921.503725	0.369785
921.683721	0.368468
921.863698	0.367748
922.043657	0.366337
922.223598	0.364767
922.403520	0.363405
922.583424	0.363480
922.763311	0.363393
922.943178	0.363341
923.123028	0.363149
923.302859	0.362595
923.482673	0.361427
923.662467	0.361003
923.842244	0.360438
924.022003	0.359901
924.201743	0.359261
924.381465	0.357918
924.561169	0.356612
924.740854	0.355661
924.920522	0.354555
925.100171	0.353383
925.279802	0.352467
925.459414	0.351866
925.639009	0.350957
925.818585	0.349038
925.998143	0.348752
926.177683	0.347887
926.357205	0.346787
926.536708	0.346573
926.716193	0.346072
926.895660	0.345375
927.075109	0.343788
927.254539	0.342677
927.433951	0.342078
927.613345	0.339961
927.792721	0.339198
927.972079	0.338457
928.151418	0.336865
928.330739	0.336929
928.510042	0.336027
928.689327	0.335972
928.868593	0.335623
929.047841	0.335073
929.227071	0.334649
929.406283	0.333694
929.585476	0.332460
929.764652	0.331330
929.943809	0.329268
930.122948	0.327954
930.302068	0.327210
930.481171	0.325900
930.660255	0.325237
930.839321	0.324797
931.018369	0.324002
931.197398	0.323670
931.376409	0.322998
931.555402	0.321588
931.734377	0.320693
931.913334	0.319109
932.092272	0.317092
932.271192	0.316536
932.450094	0.315059
932.628978	0.313990
932.807844	0.312185
932.986691	0.311297
933.165520	0.310458
933.344331	0.309688
933.523123	0.307826
933.701898	0.307618
933.880654	0.305626
934.059392	0.305129
934.238111	0.304150
934.416813	0.304060
934.595496	0.303159
934.774161	0.302796
934.952808	0.303074
935.131437	0.303659
935.310047	0.303488
935.488639	0.303229
935.667213	0.302159
935.845769	0.300946
936.024306	0.299660
936.202825	0.298625
936.381326	0.297573
936.559809	0.294988
936.738274	0.293485
936.916720	0.291983
937.095148	0.290135
937.273558	0.288801
937.451950	0.288346
937.630323	0.287037
937.808678	0.285613
937.987015	0.284239
938.165334	0.283031
938.343635	0.281910
938.521917	0.280270
938.700181	0.279474
938.878427	0.278736
939.056655	0.277269
939.234864	0.276172
939.413055	0.274348
939.591228	0.273062
939.769383	0.271760
939.947519	0.270359
940.125638	0.269332
940.303738	0.267208
940.481820	0.265083
940.659883	0.263280
940.837929	0.261585
941.015956	0.261806
941.193965	0.261567
941.371955	0.260722
941.549928	0.259280
941.727882	0.259156
941.905818	0.258725
942.083736	0.258036
942.261636	0.258096
942.439517	0.258108
942.617380	0.256088
942.795225	0.253721
942.973052	0.253147
943.150860	0.252121
943.328651	0.249821
943.506423	0.247884
943.684176	0.248417
943.861912	0.246524
944.039629	0.244434
944.217328	0.244098
944.395009	0.242790
944.572672	0.241707
944.750317	0.240519
944.927943	0.241298
945.105551	0.239568
945.283141	0.234628
945.460712	0.234236
945.638265	0.232507
945.815801	0.230761
945.993317	0.230184
946.170816	0.229151
946.348297	0.228728
946.525759	0.226626
946.703203	0.226146
946.880629	0.227126
947.058036	0.225303
947.235425	0.224366
947.412797	0.222862
947.590149	0.222698
947.767484	0.221967
947.944800	0.220016
948.122099	0.217134
948.299379	0.216145
948.476640	0.215842
948.653884	0.215242
948.831109	0.215703
949.008316	0.214527
949.185505	0.212272
949.362676	0.210529
949.539828	0.208206
949.716962	0.208158
949.894078	0.208430
950.071176	0.207166
950.248256	0.205043
950.425317	0.203572
950.602360	0.201964
950.779385	0.200966
950.956391	0.199081
951.133380	0.199623
951.310350	0.198613
951.487302	0.197742
951.664235	0.197105
951.841151	0.195758
952.018048	0.194624
952.194927	0.196548
952.371788	0.196247
952.548631	0.194896
952.725455	0.192933
952.902261	0.191999
953.079049	0.189198
953.255819	0.187564
953.432570	0.187614
953.609303	0.185503
953.786018	0.181411
953.962715	0.178568
954.139394	0.178646
954.316054	0.178051
954.492696	0.176504
954.669320	0.175998
954.845926	0.174351
955.022513	0.172507
955.199083	0.171505
955.375634	0.171222
955.552166	0.172553
955.728681	0.173991
955.905177	0.172446
956.081655	0.172741
956.258115	0.171304
956.434557	0.170308
956.610980	0.170133
956.787385	0.168851
956.963772	0.168095
957.140141	0.166785
957.316492	0.162293
957.492824	0.163185
957.669138	0.161032
957.845434	0.159669
958.021712	0.158170
958.197971	0.157209
958.374212	0.155950
958.550435	0.154418
958.726640	0.151467
958.902826	0.149438
959.078995	0.147370
959.255145	0.146402
959.431277	0.146836
959.607390	0.146391
959.783486	0.144927
959.959563	0.144484
960.135622	0.144719
960.311662	0.145989
960.487685	0.146955
960.663689	0.148345
960.839675	0.147550
961.015643	0.146522
961.191593	0.147141
961.367524	0.148174
961.543437	0.149082
961.719332	0.148410
961.895209	0.149248
962.071067	0.149630
962.246907	0.148676
962.422730	0.150184
962.598533	0.151761
962.774319	0.150369
962.950086	0.150064
963.125835	0.151102
963.301566	0.150407
963.477279	0.148608
963.652973	0.148818
963.828650	0.148610
964.004308	0.146942
964.179947	0.144469
964.355569	0.144773
964.531172	0.142314
964.706757	0.140480
964.882324	0.140300
965.057873	0.138888
965.233403	0.137877
965.408916	0.137113
965.584410	0.138562
965.759885	0.138442
965.935343	0.139666
966.110782	0.140518
966.286203	0.140764
966.461606	0.141813
966.636991	0.142578
966.812357	0.140744
966.987705	0.141829
967.163035	0.141187
967.338347	0.141548
967.513641	0.140438
967.688916	0.139993
967.864173	0.139618
968.039412	0.140765
968.214632	0.140112
968.389835	0.141916
968.565019	0.141075
968.740185	0.139859
968.915333	0.138881
969.090462	0.136517
969.265573	0.137056
969.440667	0.137459
969.615741	0.135783
969.790798	0.138113
969.965836	0.136621
970.140856	0.137372
970.315858	0.138988
970.490842	0.139816
970.665808	0.141757
970.840755	0.142775
971.015684	0.141805
971.190595	0.142481
971.365487	0.140365
971.540362	0.141778
971.715218	0.139047
971.890056	0.137506
972.064875	0.137867
972.239677	0.138507
972.414460	0.137379
972.589225	0.137435
972.763972	0.135886
972.938700	0.135793
973.113411	0.136299
973.288103	0.135910
973.462777	0.135407
973.637432	0.135429
973.812070	0.135296
973.986689	0.135724
974.161290	0.135211
974.335873	0.134517
974.510437	0.132369
974.684984	0.131772
974.859512	0.134894
975.034022	0.134766
975.208513	0.133305
975.382987	0.133469
975.557442	0.131246
975.731879	0.132823
975.906298	0.132293
976.080698	0.134862
976.255080	0.135449
976.429445	0.133872
976.603790	0.134657
976.778118	0.134503
976.952427	0.133563
977.126719	0.134866
977.300992	0.133674
977.475246	0.135897
977.649483	0.134571
977.823701	0.133872
977.997901	0.133017
978.172083	0.136075
978.346247	0.138402
978.520392	0.136929
978.694519	0.136471
978.868628	0.138305
979.042719	0.138117
979.216791	0.138174
979.390845	0.136272
979.564882	0.137874
979.738899	0.136090
979.912899	0.134570
980.086880	0.137233
980.260843	0.138325
980.434788	0.137773
980.608715	0.137371
980.782623	0.139054
980.956514	0.141027
981.130386	0.141339
981.304240	0.140014
981.478075	0.139516
981.651892	0.137307
981.825692	0.137631
981.999472	0.137290
982.173235	0.138178
982.346980	0.137595
982.520706	0.136123
982.694414	0.135562
982.868104	0.135794
983.041775	0.137038
983.215428	0.138853
983.389064	0.140934
983.562680	0.140733
983.736279	0.139451
983.909860	0.138176
984.083422	0.139869
984.256966	0.138921
984.430491	0.136522
984.603999	0.135131
984.777488	0.133852
984.950959	0.133003
985.124412	0.130278
985.297847	0.131558
985.471263	0.133288
985.644661	0.132165
985.818041	0.131533
985.991403	0.131248
986.164747	0.134156
986.338072	0.134489
986.511379	0.133404
986.684668	0.137208
986.857938	0.136151
987.031191	0.134788
987.204425	0.135798
987.377641	0.136352
987.550839	0.140588
987.724018	0.139112
987.897179	0.141538
988.070322	0.141760
988.243447	0.140605
988.416554	0.138400
988.589642	0.139719
988.762712	0.139053
988.935764	0.140333
989.108798	0.137819
989.281813	0.138745
989.454811	0.137210
989.627790	0.135994
989.800751	0.134130
989.973693	0.137567
990.146617	0.137476
990.319524	0.137586
990.492412	0.136191
990.665281	0.139013
990.838133	0.139932
991.010966	0.140597
991.183781	0.143135
991.356578	0.143918
991.529356	0.141945
991.702117	0.141312
991.874859	0.142413
992.047583	0.144425
992.220288	0.141513
992.392976	0.139341
992.565645	0.139615
992.738296	0.138296
992.910929	0.139699
993.083543	0.140615
993.256139	0.140325
993.428718	0.139638
993.601277	0.137206
993.773819	0.138523
993.946342	0.137605
994.118848	0.136276
994.291335	0.137033
994.463803	0.136337
994.636254	0.137260
994.808686	0.138417
994.981100	0.138234
995.153496	0.140067
995.325874	0.139622
995.498233	0.141884
995.670574	0.143162
995.842897	0.141142
996.015202	0.141662
996.187488	0.140401
996.359757	0.140492
996.532007	0.139777
996.704239	0.140936
996.876452	0.142583
997.048648	0.141894
997.220825	0.139535
997.392984	0.140923
997.565124	0.141081
997.737247	0.140893
997.909351	0.141368
998.081437	0.142233
998.253505	0.141210
998.425554	0.140169
998.597586	0.139893
998.769599	0.140454
998.941594	0.141779
999.113571	0.139528
999.285529	0.139865
999.457469	0.137858
999.629391	0.139092
999.801295	0.137830
999.973181	0.137299
1000.145048	0.137845
1000.316897	0.137961
1000.488728	0.135401
1000.660541	0.135959
1000.832335	0.135904
1001.004111	0.136792
1001.175869	0.135517
1001.347609	0.136591
1001.519331	0.137449
1001.691034	0.136793
1001.862719	0.138180
1002.034386	0.137905
1002.206035	0.139541
1002.377665	0.139900
1002.549277	0.140892
1002.720871	0.139456
1002.892447	0.140333
1003.064004	0.139523
1003.235544	0.140351
1003.407065	0.138882
1003.578568	0.140443
1003.750052	0.141060
1003.921519	0.141186
1004.092967	0.139986
1004.264397	0.143430
1004.435809	0.141987
1004.607202	0.142649
1004.778577	0.143870
1004.949934	0.145783
1005.121273	0.145238
1005.292594	0.144634
1005.463896	0.143158
1005.635180	0.144250
1005.806446	0.142963
1005.977694	0.144385
1006.148923	0.145179
1006.320135	0.144148
1006.491328	0.142875
1006.662503	0.142319
1006.833659	0.142375
1007.004798	0.145909
1007.175918	0.145660
1007.347020	0.143550
1007.518103	0.143564
1007.689169	0.144038
1007.860216	0.144155
1008.031245	0.143065
1008.202256	0.144237
1008.373248	0.142757
1008.544223	0.139414
1008.715179	0.140443
1008.886117	0.143628
1009.057036	0.142324
1009.227938	0.141667
1009.398821	0.140799
1009.569686	0.141972
1009.740533	0.139600
1009.911361	0.141185
1010.082172	0.141732
1010.252964	0.139557
1010.423738	0.136329
1010.594493	0.134828
1010.765231	0.134003
1010.935950	0.133299
1011.106651	0.132149
1011.277334	0.135878
1011.447998	0.136838
1011.618645	0.138545
1011.789273	0.139223
1011.959882	0.141205
1012.130474	0.143070
1012.301048	0.143719
1012.471603	0.143604
1012.642140	0.144058
1012.812658	0.142063
1012.983159	0.140615
1013.153641	0.137491
1013.324105	0.137796
1013.494551	0.136457
1013.664979	0.135793
1013.835388	0.133710
1014.005779	0.133800
1014.176152	0.133808
1014.346507	0.133740
1014.516843	0.133894
1014.687162	0.135028
1014.857462	0.135027
1015.027744	0.135803
1015.198007	0.136903
1015.368252	0.137399
1015.538480	0.138112
1015.708689	0.138674
1015.878879	0.138434
1016.049052	0.138846
1016.219206	0.138937
1016.389342	0.138522
1016.559460	0.136582
1016.729559	0.135400
1016.899641	0.136410
1017.069704	0.137189
1017.239749	0.137568
1017.409775	0.138083
1017.579784	0.135794
1017.749774	0.135982
1017.919746	0.136313
1018.089700	0.137430
1018.259635	0.136943
1018.429553	0.135464
1018.599452	0.135140
1018.769333	0.135645
1018.939195	0.134205
1019.109040	0.134959
1019.278866	0.135406
1019.448674	0.134776
1019.618464	0.134405
1019.788235	0.133699
1019.957989	0.134363
1020.127724	0.133314
1020.297441	0.132032
1020.467139	0.131845
1020.636820	0.132860
1020.806482	0.132966
1020.976126	0.133318
1021.145752	0.134061
1021.315359	0.135693
1021.484948	0.134466
1021.654519	0.135491
1021.824072	0.135156
1021.993607	0.137000
1022.163123	0.135670
1022.332621	0.136676
1022.502101	0.138443
1022.671563	0.138018
1022.841007	0.139086
1023.010432	0.140097
1023.179839	0.140518
1023.349228	0.140828
1023.518598	0.140534
1023.687951	0.141677
1023.857285	0.140113
1024.026601	0.138379
1024.195899	0.139846
1024.365178	0.137785
1024.534439	0.138391
1024.703682	0.137998
1024.872907	0.138607
1025.042114	0.138231
1025.211302	0.138996
1025.380472	0.138713
1025.549624	0.139934
1025.718758	0.137135
1025.887873	0.138426
1026.056970	0.138792
1026.226049	0.139073
1026.395110	0.138336
1026.564153	0.138507
1026.733177	0.136952
1026.902183	0.137413
1027.071171	0.135720
1027.240141	0.139516
1027.409092	0.138877
1027.578026	0.137557
1027.746940	0.137347
1027.915837	0.138745
1028.084716	0.139433
1028.253576	0.141657
1028.422418	0.141536
1028.591242	0.141026
1028.760048	0.139387
1028.928835	0.139496
1029.097604	0.140337
1029.266355	0.139140
1029.435088	0.138704
1029.603803	0.138597
1029.772499	0.136428
1029.941177	0.137033
1030.109837	0.138572
1030.278478	0.137773
1030.447102	0.138140
1030.615707	0.138663
1030.784294	0.141371
1030.952863	0.140930
1031.121413	0.139740
1031.289945	0.138755
1031.458460	0.138809
1031.626955	0.140816
1031.795433	0.140451
1031.963892	0.139818
1032.132334	0.139877
1032.300756	0.138303
1032.469161	0.139332
1032.637548	0.138793
1032.805916	0.139717
1032.974266	0.138560
1033.142598	0.135839
1033.310911	0.138112
1033.479207	0.138589
1033.647484	0.136585
1033.815743	0.135993
1033.983983	0.132737
1034.152206	0.132554
1034.320410	0.132666
1034.488596	0.132408
1034.656764	0.133394
1034.824914	0.132398
1034.993045	0.131928
1035.161158	0.132634
1035.329253	0.131346
1035.497330	0.133183
1035.665388	0.133375
1035.833428	0.132806
1036.001450	0.133507
1036.169454	0.133664
1036.337440	0.134247
1036.505407	0.133837
1036.673356	0.135641
1036.841287	0.137360
1037.009200	0.138412
1037.177094	0.139051
1037.344970	0.139284
1037.512828	0.139183
1037.680668	0.136659
1037.848489	0.134604
1038.016293	0.135199
1038.184078	0.134723
1038.351845	0.133370
1038.519593	0.133236
1038.687324	0.134275
1038.855036	0.134862
1039.022730	0.133455
1039.190406	0.135960
1039.358063	0.135499
1039.525702	0.137461
1039.693323	0.137112
1039.860926	0.138054
1040.028511	0.137197
1040.196077	0.137065
1040.363625	0.135134
1040.531155	0.136133
1040.698667	0.133924
1040.866161	0.134889
1041.033636	0.131819
1041.201093	0.131559
1041.368532	0.130988
1041.535952	0.132976
1041.703355	0.131500
1041.870739	0.132601
1042.038105	0.131149
1042.205452	0.133625
1042.372782	0.136161
1042.540093	0.136263
1042.707386	0.134986
1042.874661	0.136464
1043.041918	0.133861
1043.209156	0.133722
1043.376376	0.133898
1043.543578	0.135456
1043.710762	0.133181
1043.877927	0.130761
1044.045074	0.130428
1044.212203	0.131714
1044.379314	0.131485
1044.546407	0.132416
1044.713481	0.134238
1044.880537	0.133002
1045.047575	0.134653
1045.214595	0.136000
1045.381596	0.136574
1045.548579	0.135099
1045.715544	0.134871
1045.882491	0.134724
1046.049420	0.135298
1046.216330	0.133572
1046.383222	0.135017
1046.550096	0.132998
1046.716951	0.130768
1046.883789	0.131179
1047.050608	0.134535
1047.217409	0.134759
1047.384192	0.134111
1047.550956	0.133254
1047.717703	0.131774
1047.884431	0.134477
1048.051140	0.135054
1048.217832	0.138103
1048.384505	0.137734
1048.551161	0.136760
1048.717798	0.136751
1048.884416	0.138485
1049.051017	0.138013
1049.217599	0.140721
1049.384163	0.138860
1049.550709	0.138586
1049.717237	0.136693
1049.883746	0.135938
1050.050237	0.135761
1050.216710	0.134707
1050.383165	0.133461
1050.549601	0.132439
1050.716019	0.131390
1050.882420	0.130542
1051.048801	0.130898
1051.215165	0.132264
1051.381510	0.132438
1051.547837	0.133876
1051.714146	0.133812
1051.880437	0.131404
1052.046709	0.133129
1052.212964	0.132705
1052.379200	0.132914
1052.545417	0.135545
1052.711617	0.134924
1052.877798	0.135714
1053.043961	0.134668
1053.210106	0.137469
1053.376233	0.138559
1053.542341	0.136803
1053.708432	0.137123
1053.874504	0.137908
1054.040557	0.135499
1054.206593	0.136219
1054.372610	0.135190
1054.538609	0.135637
1054.704590	0.133428
1054.870553	0.133483
1055.036497	0.133191
1055.202424	0.134009
1055.368331	0.132184
1055.534221	0.132222
1055.700093	0.132127
1055.865946	0.131540
1056.031781	0.131965
1056.197598	0.132011
1056.363397	0.130801
1056.529177	0.132924
1056.694939	0.133445
1056.860683	0.135175
1057.026409	0.133854
1057.192116	0.133372
1057.357806	0.136340
1057.523477	0.135044
1057.689130	0.133783
1057.854764	0.136924
1058.020381	0.137310
1058.185979	0.137460
1058.351559	0.136757
1058.517120	0.137080
1058.682664	0.135914
1058.848189	0.135102
1059.013696	0.134096
1059.179185	0.133879
1059.344656	0.132397
1059.510108	0.131024
1059.675542	0.130681
1059.840958	0.130496
1060.006356	0.130987
1060.171735	0.132099
1060.337096	0.132723
1060.502439	0.135217
1060.667764	0.138169
1060.833071	0.138429
1060.998359	0.138184
1061.163629	0.138986
1061.328881	0.137487
1061.494115	0.138068
1061.659330	0.138056
1061.824527	0.136886
1061.989706	0.134775
1062.154867	0.135880
1062.320010	0.137013
1062.485134	0.138833
1062.650240	0.136922
1062.815328	0.138881
1062.980398	0.140442
1063.145449	0.139387
1063.310482	0.138434
1063.475497	0.140933
1063.640494	0.138142
1063.805473	0.137295
1063.970433	0.137080
1064.135375	0.137814
1064.300299	0.138191
1064.465204	0.137143
1064.630092	0.139243
1064.794961	0.139198
1064.959812	0.137244
1065.124645	0.137454
1065.289459	0.136470
1065.454256	0.136814
1065.619034	0.135372
1065.783793	0.136088
1065.948535	0.136446
1066.113258	0.136276
1066.277964	0.136434
1066.442651	0.140055
1066.607319	0.142208
1066.771970	0.143520
1066.936602	0.142961
1067.101216	0.145637
1067.265812	0.144162
1067.430389	0.144945
1067.594949	0.143546
1067.759490	0.144311
1067.924013	0.141782
1068.088518	0.141342
1068.253004	0.139588
1068.417472	0.140984
1068.581922	0.140497
1068.746354	0.141661
1068.910768	0.140932
1069.075163	0.142239
1069.239540	0.143655
1069.403899	0.143470
1069.568240	0.140534
1069.732562	0.142796
1069.896866	0.140711
1070.061152	0.138743
1070.225420	0.138267
1070.389670	0.137687
1070.553901	0.136613
1070.718114	0.136596
1070.882309	0.137160
1071.046486	0.139679
1071.210644	0.140264
1071.374784	0.140310
1071.538906	0.143657
1071.703010	0.144442
1071.867096	0.146685
1072.031163	0.147599
1072.195212	0.145261
1072.359243	0.145149
1072.523256	0.143432
1072.687250	0.144229
1072.851226	0.146173
1073.015184	0.145329
1073.179124	0.145588
1073.343045	0.144506
1073.506949	0.144054
1073.670834	0.143357
1073.834701	0.142736
1073.998549	0.144097
1074.162380	0.143390
1074.326192	0.142872
1074.489986	0.143496
1074.653761	0.141744
1074.817519	0.141230
1074.981258	0.143454
1075.144979	0.146342
1075.308682	0.145788
1075.472367	0.145400
1075.636033	0.147145
1075.799681	0.146739
1075.963311	0.145849
1076.126923	0.143033
1076.290516	0.142697
1076.454092	0.140225
1076.617649	0.137560
1076.781187	0.138699
1076.944708	0.138910
1077.108210	0.136786
1077.271695	0.136539
1077.435160	0.139108
1077.598608	0.142932
1077.762038	0.143811
1077.925449	0.146233
1078.088842	0.148934
1078.252217	0.150023
1078.415573	0.148938
1078.578912	0.149537
1078.742232	0.150845
1078.905534	0.149081
1079.068817	0.151645
1079.232083	0.150668
1079.395330	0.148200
1079.558559	0.144005
1079.721770	0.143363
1079.884962	0.144299
1080.048136	0.146170
1080.211293	0.145651
1080.374430	0.144573
1080.537550	0.141151
1080.700651	0.142012
1080.863735	0.143638
1081.026800	0.146387
1081.189846	0.143310
1081.352875	0.144738
1081.515885	0.142085
1081.678877	0.140577
1081.841851	0.140833
1082.004807	0.142885
1082.167744	0.144481
1082.330663	0.144062
1082.493564	0.145846
1082.656447	0.148558
1082.819312	0.145429
1082.982158	0.149835
1083.144986	0.150074
1083.307796	0.149783
1083.470587	0.149367
1083.633361	0.146726
1083.796116	0.149137
1083.958853	0.147468
1084.121571	0.148712
1084.284272	0.153108
1084.446954	0.148741
1084.609618	0.150543
1084.772264	0.154034
1084.934892	0.152398
1085.097501	0.151526
1085.260092	0.147368
1085.422665	0.149649
1085.585220	0.147860
1085.747756	0.148437
1085.910274	0.146362
1086.072774	0.147001
1086.235256	0.144679
1086.397720	0.146320
1086.560165	0.148195
1086.722592	0.149300
1086.885001	0.150793
1087.047392	0.152363
1087.209764	0.151256
1087.372119	0.155244
1087.534455	0.155186
1087.696772	0.155474
1087.859072	0.157440
1088.021353	0.157996
1088.183616	0.159234
1088.345861	0.154817
1088.508088	0.152712
1088.670296	0.155175
1088.832486	0.153427
1088.994658	0.150362
1089.156812	0.152073
1089.318948	0.152331
1089.481065	0.152633
1089.643164	0.150929
1089.805245	0.154862
1089.967308	0.158958
1090.129352	0.155705
1090.291378	0.155836
1090.453386	0.157917
1090.615376	0.153604
1090.777347	0.152376
1090.939301	0.151222
1091.101236	0.155568
1091.263153	0.152246
1091.425051	0.148517
1091.586932	0.149580
1091.748794	0.149506
1091.910638	0.151128
1092.072463	0.152438
1092.234271	0.150516
1092.396060	0.152925
1092.557831	0.148954
1092.719584	0.149951
1092.881319	0.151233
1093.043035	0.147216
1093.204733	0.149637
1093.366413	0.148182
1093.528075	0.148256
1093.689718	0.151355
1093.851343	0.150640
1094.012950	0.148947
1094.174539	0.148959
1094.336110	0.146897
1094.497662	0.152049
1094.659196	0.151671
1094.820712	0.151041
1094.982210	0.151834
1095.143689	0.152609
1095.305151	0.151118
1095.466594	0.154071
1095.628018	0.153133
1095.789425	0.157298
1095.950813	0.152339
1096.112183	0.150282
1096.273535	0.154125
1096.434869	0.151604
1096.596184	0.150042
1096.757482	0.149910
1096.918761	0.148504
1097.080021	0.151110
1097.241264	0.149893
1097.402488	0.152678
1097.563694	0.152815
1097.724882	0.149849
1097.886052	0.153691
1098.047203	0.152513
1098.208336	0.155020
1098.369451	0.154099
1098.530548	0.156357
1098.691627	0.151170
1098.852687	0.151590
1099.013729	0.152765
1099.174753	0.153038
1099.335758	0.154245
1099.496746	0.154182
1099.657715	0.155450
1099.818666	0.159063
1099.979599	0.155994
1100.140513	0.160356
1100.301409	0.161511
1100.462287	0.161109
1100.623147	0.160693
1100.783989	0.161713
1100.944812	0.162240
1101.105617	0.161737
1101.266404	0.159188
1101.427173	0.158245
1101.587923	0.160128
1101.748656	0.158986
1101.909370	0.156551
1102.070066	0.156033
1102.230743	0.154565
1102.391403	0.155854
1102.552044	0.151185
1102.712667	0.152625
1102.873271	0.155639
1103.033858	0.156068
1103.194426	0.156868
1103.354976	0.161208
1103.515508	0.161001
1103.676021	0.158987
1103.836517	0.155769
1103.996994	0.153583
1104.157453	0.157179
1104.317893	0.153185
1104.478316	0.155124
1104.638720	0.152708
1104.799106	0.149056
1104.959474	0.152070
1105.119823	0.154315
1105.280155	0.158831
1105.440468	0.158352
1105.600763	0.156234
1105.761039	0.158170
1105.921298	0.155217
1106.081538	0.156880
1106.241760	0.163675
1106.401964	0.160648
1106.562149	0.156887
1106.722316	0.156418
1106.882465	0.163574
1107.042596	0.158864
1107.202709	0.160176
1107.362803	0.161365
1107.522879	0.164195
1107.682937	0.156848
1107.842977	0.160046
1108.002999	0.161094
1108.163002	0.159493
1108.322987	0.155318
1108.482954	0.159505
1108.642902	0.160050
1108.802833	0.156039
1108.962745	0.153720
1109.122639	0.156884
1109.282515	0.154332
1109.442372	0.160293
1109.602211	0.161058
1109.762032	0.167771
1109.921835	0.164993
1110.081620	0.163223
1110.241386	0.167412
1110.401134	0.166596
1110.560864	0.168101
1110.720576	0.167258
1110.880269	0.163325
1111.039945	0.163584
1111.199602	0.162623
1111.359240	0.164114
1111.518861	0.164863
1111.678463	0.165753
1111.838047	0.168961
1111.997613	0.167542
1112.157161	0.169362
1112.316690	0.172098
1112.476202	0.174386
1112.635695	0.170892
1112.795169	0.170040
1112.954626	0.168568
1113.114064	0.164687
1113.273484	0.162864
1113.432886	0.160086
1113.592270	0.161081
1113.751635	0.158050
1113.910983	0.151247
1114.070312	0.149489
1114.229622	0.154380
1114.388915	0.156101
1114.548189	0.157098
1114.707445	0.157029
1114.866683	0.157822
1115.025903	0.158788
1115.185104	0.159517
1115.344287	0.160413
1115.503452	0.165875
1115.662599	0.164997
1115.821727	0.160891
1115.980838	0.158872
1116.139930	0.161234
1116.299004	0.155932
1116.458059	0.151906
1116.617097	0.149313
1116.776116	0.153453
1116.935117	0.152888
1117.094099	0.152653
1117.253064	0.156428
1117.412010	0.159990
1117.570938	0.157887
1117.729848	0.167804
1117.888740	0.172355
1118.047613	0.173548
1118.206468	0.173477
1118.365305	0.165974
1118.524124	0.163173
1118.682924	0.166956
1118.841707	0.167672
1119.000471	0.167440
1119.159216	0.169779
1119.317944	0.163765
1119.476653	0.164891
1119.635344	0.162839
1119.794017	0.165182
1119.952672	0.168611
1120.111308	0.166197
1120.269927	0.164701
1120.428527	0.164670
1120.587108	0.160998
1120.745672	0.164208
1120.904217	0.161245
1121.062744	0.162095
1121.221253	0.164709
1121.379744	0.162348
1121.538216	0.159189
1121.696671	0.157030
1121.855107	0.155002
1122.013524	0.152369
1122.171924	0.154705
1122.330305	0.155873
1122.488668	0.158210
1122.647013	0.154961
1122.805340	0.158585
1122.963648	0.159672
1123.121938	0.161564
1123.280210	0.164723
1123.438464	0.163934
1123.596700	0.159836
1123.754917	0.165792
1123.913116	0.164195
1124.071297	0.168067
1124.229459	0.166056
1124.387604	0.173475
1124.545730	0.173379
1124.703838	0.176360
1124.861928	0.179248
1125.019999	0.186005
1125.178052	0.185719
1125.336088	0.190340
1125.494104	0.192081
1125.652103	0.190053
1125.810083	0.183499
1125.968045	0.182887
1126.125989	0.185272
1126.283915	0.184934
1126.441823	0.184684
1126.599712	0.186248
1126.757583	0.182854
1126.915436	0.180485
1127.073270	0.182359
1127.231087	0.176433
1127.388885	0.176700
1127.546665	0.169970
1127.704426	0.172256
1127.862170	0.170083
1128.019895	0.165197
1128.177602	0.161055
1128.335291	0.163236
1128.492961	0.164974
1128.650614	0.173510
1128.808248	0.178535
1128.965864	0.180986
1129.123461	0.183583
1129.281041	0.183627
1129.438602	0.181193
1129.596145	0.183406
1129.753670	0.192583
1129.911176	0.185779
1130.068665	0.178875
1130.226135	0.181365
1130.383587	0.180971
1130.541020	0.174900
1130.698436	0.169921
1130.855833	0.170185
1131.013212	0.168588
1131.170573	0.162242
1131.327915	0.165180
1131.485239	0.169795
1131.642545	0.168632
1131.799833	0.168441
1131.957103	0.171037
1132.114354	0.173453
1132.271588	0.173873
1132.428803	0.174479
1132.585999	0.168811
1132.743178	0.167387
1132.900338	0.163691
1133.057480	0.162138
1133.214604	0.161917
1133.371710	0.158742
1133.528797	0.161208
1133.685866	0.158579
1133.842917	0.164923
1133.999950	0.166921
1134.156964	0.171122
1134.313960	0.173635
1134.470938	0.173319
1134.627898	0.171753
1134.784840	0.173468
1134.941763	0.173998
1135.098668	0.176958
1135.255555	0.169980
1135.412424	0.169337
1135.569274	0.171150
1135.726107	0.179308
1135.882921	0.178240
1136.039716	0.179496
1136.196494	0.181774
1136.353253	0.187667
1136.509995	0.190976
1136.666717	0.190667
1136.823422	0.187831
1136.980109	0.193829
1137.136777	0.188917
1137.293427	0.190576
1137.450059	0.195720
1137.606672	0.194632
1137.763267	0.188717
1137.919844	0.188844
1138.076403	0.194347
1138.232944	0.198939
1138.389466	0.186791
1138.545971	0.186963
1138.702457	0.189351
1138.858924	0.176509
1139.015374	0.172870
1139.171805	0.170069
1139.328218	0.171497
1139.484613	0.173711
1139.640990	0.175453
1139.797348	0.178904
1139.953688	0.178438
1140.110010	0.171161
1140.266314	0.177619
1140.422600	0.182596
1140.578867	0.185063
1140.735116	0.178182
1140.891347	0.173032
1141.047559	0.170581
1141.203754	0.171958
1141.359930	0.168848
1141.516088	0.172924
1141.672228	0.178235
1141.828349	0.170675
1141.984452	0.170134
1142.140537	0.169946
1142.296604	0.173239
1142.452653	0.170653
1142.608683	0.169327
1142.764695	0.164875
1142.920689	0.157286
1143.076665	0.154187
1143.232622	0.162646
1143.388562	0.164456
1143.544483	0.160096
1143.700385	0.147194
1143.856270	0.150952
1144.012136	0.148106
1144.167985	0.157160
1144.323814	0.161736
1144.479626	0.161243
1144.635420	0.156837
1144.791195	0.159493
1144.946952	0.162991
1145.102691	0.169205
1145.258411	0.164843
1145.414113	0.171303
1145.569798	0.164084
1145.725463	0.160060
1145.881111	0.157518
1146.036741	0.151345
1146.192352	0.143328
1146.347945	0.143100
1146.503519	0.143136
1146.659076	0.140977
1146.814614	0.136658
1146.970134	0.139081
1147.125636	0.142867
1147.281120	0.139151
1147.436585	0.149307
1147.592032	0.153525
1147.747461	0.161305
1147.902872	0.163673
1148.058265	0.167862
1148.213639	0.159303
1148.368995	0.161405
1148.524333	0.160156
1148.679653	0.166589
1148.834954	0.165596
1148.990237	0.167317
1149.145502	0.170700
1149.300749	0.174340
1149.455977	0.171415
1149.611188	0.179135
1149.766380	0.175068
1149.921553	0.179083
1150.076709	0.186096
1150.231846	0.188897
1150.386966	0.188326
1150.542066	0.178184
1150.697149	0.173513
1150.852214	0.171311
1151.007260	0.171559
1151.162288	0.183843
1151.317298	0.185206
1151.472289	0.183919
1151.627263	0.181598
1151.782218	0.180009
1151.937155	0.183879
1152.092073	0.186619
1152.246974	0.187788
1152.401856	0.186696
1152.556720	0.179958
1152.711566	0.179767
1152.866393	0.179270
1153.021203	0.172856
1153.175994	0.175597
1153.330767	0.178479
1153.485521	0.176044
1153.640258	0.183378
1153.794976	0.185309
1153.949676	0.183821
1154.104358	0.178025
1154.259021	0.170538
1154.413667	0.170140
1154.568294	0.169840
1154.722903	0.164103
1154.877493	0.165803
1155.032066	0.166775
1155.186620	0.164674
1155.341156	0.163684
1155.495674	0.172697
1155.650173	0.171793
1155.804654	0.185270
1155.959118	0.190104
1156.113562	0.204581
1156.267989	0.209939
1156.422397	0.209022
1156.576788	0.213173
1156.731160	0.206240
1156.885513	0.200802
1157.039849	0.199318
1157.194166	0.197148
1157.348465	0.199368
1157.502746	0.181474
1157.657009	0.168319
1157.811253	0.157497
1157.965479	0.161388
1158.119687	0.162584
1158.273877	0.164067
1158.428048	0.165964
1158.582201	0.159293
1158.736337	0.148767
1158.890453	0.154259
1159.044552	0.159934
1159.198632	0.173235
1159.352694	0.163125
1159.506738	0.161660
1159.660764	0.161558
1159.814771	0.164136
1159.968761	0.170650
1160.122732	0.163396
1160.276685	0.157802
1160.430619	0.158209
1160.584535	0.146354
1160.738434	0.151941
1160.892313	0.157864
1161.046175	0.154754
1161.200019	0.159757
1161.353844	0.149152
1161.507651	0.153519
1161.661440	0.151915
1161.815210	0.157243
1161.968962	0.164460
1162.122697	0.166971
1162.276412	0.166956
1162.430110	0.165970
1162.583789	0.166770
1162.737451	0.174931
1162.891094	0.186873
1163.044718	0.198205
1163.198325	0.198596
1163.351913	0.206075
1163.505483	0.197707
1163.659035	0.192586
1163.812569	0.193985
1163.966084	0.186647
1164.119581	0.183404
1164.273060	0.188817
1164.426521	0.186883
1164.579964	0.182186
1164.733388	0.170641
1164.886794	0.163853
1165.040182	0.172420
1165.193551	0.176158
1165.346903	0.178462
1165.500236	0.174677
1165.653551	0.155634
1165.806848	0.153807
1165.960126	0.152165
1166.113386	0.156132
1166.266628	0.168755
1166.419852	0.166755
1166.573058	0.173145
1166.726245	0.159294
1166.879414	0.165747
1167.032565	0.160841
1167.185698	0.159869
1167.338812	0.158427
1167.491909	0.152969
1167.644987	0.156679
1167.798046	0.157808
1167.951088	0.146444
1168.104111	0.159168
1168.257117	0.160179
1168.410103	0.178625
1168.563072	0.179938
1168.716023	0.174217
1168.868955	0.184358
1169.021869	0.178202
1169.174765	0.166415
1169.327642	0.160961
1169.480501	0.162582
1169.633343	0.166794
1169.786165	0.154921
1169.938970	0.154406
1170.091757	0.165064
1170.244525	0.155524
1170.397275	0.154708
1170.550007	0.164448
1170.702720	0.172593
1170.855415	0.165765
1171.008092	0.154632
1171.160751	0.156970
1171.313392	0.156691
1171.466014	0.145941
1171.618619	0.153740
1171.771205	0.153740
1171.923772	0.153740
