sample name	sample
index	822
start time	 03-31-2021  04:00:46 PM
880	0.006102
Peak Time (s)	92.536
Peak Height 	0.006102
calc peak height	90,93
Baseline Time (s)	11.036
Baseline Value 	-0.001734
subtract baseline	10,4
Abs	0.021948
Peak Time (s)	91.035
Peak Height 	0.02195
calc peak height	90,93
Baseline Time (s)	11.036
Baseline Value 	4.6498E-4
subtract baseline	10,3
PK_550	0.018472
Peak Time (s)	92.536
Peak Height 	0.01847
calc peak height	90,93
Baseline Time (s)	11.536
Baseline Value 	-1.6001E-4
subtract baseline	10,2
PK_880	0.020136
Peak Time (s)	92.536
Peak Height 	0.02014
calc peak height	90,93
Baseline Time (s)	9.536
Baseline Value 	1.7178E-4
subtract baseline	10,1


Time (s)	A880-A510	A880-A775	A880-A975	A880	I510	I775	I975	I880	
0.035500	0.000335	0.000128	-0.003140	0.001339	6633.662121	39268.536669	4037.928008	21530.746660
0.536000	-0.000885	0.000292	-0.005370	0.003066	6610.084012	39138.871303	4029.555386	21457.735808
1.036500	-0.002314	0.000196	-0.004311	0.003142	6598.107255	39124.644675	4031.628216	21454.541422
1.536500	-0.003774	0.000269	-0.005165	0.007007	6556.063380	38812.212425	4021.724016	21292.285734
2.037000	0.000201	-0.000096	0.002154	0.000766	6637.186623	39297.554260	4050.480031	21555.025760
2.536500	-0.001072	0.000559	-0.003111	0.001385	6622.018871	39300.621610	4037.890672	21528.805623
3.037000	-0.000489	-0.000274	-0.002862	-0.001402	6649.081955	39463.460726	4044.363634	21647.174607
3.535000	-0.003199	-0.000418	-0.001632	0.005254	6574.378303	38899.701378	4032.824625	21365.686379
4.035000	-0.000931	-0.000413	0.003831	0.000453	6630.609123	39297.230308	4054.775366	21568.296702
4.535000	0.000620	0.000465	0.001652	0.000309	6644.227822	39382.329461	4050.382136	21574.401087
5.035500	0.000510	-0.000788	-0.000113	-0.000319	6648.405504	39330.270005	4047.937471	21601.095627
5.536000	-0.005993	-0.001206	-0.002790	0.004113	6561.356359	38928.768536	4032.789922	21413.626475
6.036000	-0.001532	-0.000576	-0.002871	-0.000553	6633.861682	39367.368117	4042.529800	21611.019615
6.536000	0.000305	-0.000004	-0.002012	-0.000122	6645.162976	39379.128479	4043.444918	21592.700456
7.036500	0.002276	0.000032	0.003005	0.000408	6656.787154	39337.950986	4053.086833	21570.187391
7.537000	-0.003041	0.000174	-0.003558	0.004998	6577.647314	38969.548230	4029.304443	21376.444083
8.040000	-0.000104	0.000891	0.003964	0.000655	6635.621956	39388.988358	4054.626071	21559.708323
8.534500	-0.000466	0.000592	-0.004270	0.000475	6634.164308	39379.035076	4037.361055	21567.363148
9.035000	0.001967	-0.000210	-0.001920	0.000171	6656.201466	39337.517939	4043.014264	21580.250505
9.535500	0.000000	-0.000501	-0.000972	-0.000090	6642.455837	39335.135701	4045.602131	21591.366559
10.036000	0.000285	0.000933	0.001300	0.000374	6641.015976	39415.923916	4049.484077	21571.652227
10.536000	0.000525	-0.000638	0.001985	-0.000328	6648.598642	39343.526588	4052.475554	21601.484719
11.036000	-0.002125	0.000597	0.000000	0.000000	6624.675563	39419.065570	4047.494113	21587.526014
11.536000	-0.001227	0.000000	0.006296	-0.000073	6632.453491	39375.388047	4061.269071	21590.623625
12.037000	0.000724	0.000216	0.003620	-0.000302	6649.991515	39412.529574	4055.953442	21600.358473
12.537000	-0.001357	0.000290	0.000805	0.000065	6630.304668	39388.047354	4049.084752	21584.763529
13.037000	-0.000287	0.000457	0.003696	0.000490	6635.482476	39366.570796	4054.402481	21566.707242
13.537000	0.000423	-0.000555	-0.002127	0.000331	6642.467250	39295.541990	4042.232208	21573.478332
14.035500	-0.001643	-0.000129	0.001057	0.001898	6613.357075	39200.818873	4045.691987	21507.097663
14.535500	0.000381	-0.000040	0.000356	0.002768	6622.582523	39136.116187	4042.329122	21470.329362
15.036000	0.000288	0.001244	-0.003176	0.001436	6632.507396	39353.349571	4037.643861	21526.627333
15.536000	-0.001505	-0.000244	0.000150	0.000682	6624.175648	39292.182768	4046.352634	21558.559692
16.036500	-0.001217	0.000726	0.004782	0.001042	6623.601868	39343.023026	4055.558851	21543.317628
16.536500	-0.002774	0.000256	-0.001581	0.000798	6613.107464	39324.131881	4042.400800	21553.653483
17.036500	0.000850	0.001571	0.002868	-0.002027	6664.954766	39670.384337	4058.063919	21673.845294
17.537000	-0.001274	-0.000122	-0.003120	0.000852	6624.664298	39288.244910	4039.005040	21551.360857
18.040500	-0.002194	0.000903	0.000983	0.001539	6611.823190	39316.332008	4046.301010	21522.258302
18.535000	0.001429	0.000759	0.002988	0.002179	6635.698490	39251.200028	4049.232532	21495.205832
19.035500	-0.002396	-0.001404	0.002333	-0.000004	6622.537758	39252.821053	4052.526645	21587.699762
19.535500	-0.000421	-0.000477	0.004497	0.001125	6629.311558	39236.099852	4054.761991	21539.809595
20.035500	-0.002590	0.000932	0.004084	0.001801	6606.579619	39297.019717	4052.408765	21511.195428
20.536000	-0.000554	0.001182	0.001293	0.002358	6618.382557	39271.424355	4045.209640	21487.635313
21.036500	-0.000233	0.000440	-0.001827	0.001578	6627.189465	39274.617115	4040.211587	21520.630157
21.537000	-0.004448	0.000281	-0.003449	0.001164	6596.870364	39295.802697	4037.640401	21538.139910
22.037000	0.000350	0.001565	-0.004027	0.002419	6625.127206	39298.259112	4033.756268	21485.071244
22.540000	-0.000499	-0.000028	0.004699	0.001280	6627.450144	39260.478103	4054.864240	21533.248411
23.034500	-0.001034	0.000617	0.002246	0.001952	6617.787976	39258.279796	4048.125153	21504.795414
23.535000	-0.000675	0.000504	-0.002025	0.002346	6617.507780	39216.149434	4038.156487	21488.148973
24.035500	0.000107	-0.000518	-0.000147	0.001289	6632.229671	39219.095091	4044.415861	21532.861183
24.535500	-0.003621	0.000129	-0.004328	0.001686	6599.288463	39239.755451	4034.668529	21516.029324
25.036000	-0.000266	-0.000091	0.004380	0.000888	6632.460408	39287.855424	4055.023072	21549.855594
25.536500	0.001465	0.001154	0.005733	0.002463	6633.712270	39260.391512	4054.543272	21483.210549
26.036500	0.000965	0.000707	-0.000397	0.001745	6635.453326	39282.861589	4042.905318	21513.541778
26.537000	0.000566	0.000478	0.000293	0.001651	6633.003111	39271.634103	4044.581750	21517.505862
27.037500	-0.000399	0.000328	0.004658	-0.001371	6649.560921	39511.162094	4060.530290	21645.867693
27.537500	-0.001951	-0.000066	0.000877	-0.000061	6626.556790	39368.966455	4049.510380	21590.136862
28.035000	-0.001802	0.000549	0.003640	0.001530	6615.025253	39287.703299	4052.037378	21522.667007
28.535500	0.000933	0.000340	0.002324	0.001092	6640.446692	39306.646299	4050.141488	21541.178686
29.035500	-0.001090	-0.000086	0.000487	0.000511	6628.873404	39319.603174	4047.443402	21565.836919
29.536000	-0.000475	0.000686	0.001418	0.004717	6600.200494	39034.946923	4040.437208	21388.217578
30.036000	-0.002979	-0.000516	0.000309	0.000244	6615.890148	39305.967742	4047.633631	21577.150726
30.536500	-0.002960	-0.000222	0.000633	0.001790	6603.719709	39202.061729	4045.013093	21511.658911
31.036500	0.000099	0.000780	0.000356	0.002178	6625.047461	39252.991104	4043.591424	21495.249986
31.541000	-0.001668	-0.000508	-0.002161	0.003376	6601.384271	39047.090474	4035.681698	21444.680544
32.037500	0.000706	0.001444	0.004541	0.001619	6634.388623	39354.744021	4053.789929	21518.881422
32.537500	-0.001025	0.001008	0.004730	0.001012	6625.377608	39369.024519	4055.512786	21544.601109
33.035500	0.000372	0.001040	0.000304	-0.000878	6651.795220	39529.445929	4050.035176	21624.846295
33.535500	-0.001970	0.000240	-0.005496	0.003080	6601.331256	39133.357884	4029.260497	21457.140508
34.036000	-0.001641	0.000423	-0.002795	0.002195	6611.007061	39221.954028	4036.841820	21494.533797
34.536000	-0.001597	0.000759	0.001935	0.002648	6607.745313	39212.214048	4045.964188	21475.382274
35.036000	-0.002357	-0.000489	0.001172	0.001288	6612.525383	39221.517209	4047.245047	21532.887411
35.537000	-0.000926	-0.000746	-0.000336	0.001445	6622.703326	39187.162238	4043.677528	21526.246421
36.037000	-0.000575	0.000132	0.007381	0.001495	6625.117077	39255.888495	4060.218119	21524.129285
36.539000	-0.000389	-0.000369	0.005703	0.001630	6625.526130	39203.152569	4056.281088	21518.428045
37.034500	-0.001046	0.000079	-0.002983	0.001648	6620.124699	39238.811737	4037.604338	21517.673683
37.535000	-0.001080	0.000051	-0.003572	0.001808	6618.567888	39223.210544	4036.013562	21510.879192
38.035500	-0.000479	0.000422	-0.005304	0.002764	6615.729373	39174.662014	4030.330229	21470.480335
38.536000	-0.003216	-0.000279	0.000398	0.001794	6601.655770	39196.998716	4044.501430	21511.474156
39.036000	-0.000498	0.000703	-0.001321	0.002521	6617.519589	39218.102011	4039.279720	21480.730220
39.536000	-0.001233	0.000575	-0.001447	0.002294	6613.464143	39226.328431	4039.495959	21490.325759
40.036500	0.000025	0.000091	0.001207	0.002197	6624.295168	39194.191891	4045.370485	21494.420034
40.536500	-0.003134	0.000102	0.004037	0.002363	6597.779628	39181.374526	4051.095595	21487.416181
41.039500	-0.003302	0.000508	0.002103	0.002179	6597.910017	39230.383661	4047.332579	21495.212507
41.537000	-0.002571	0.000437	0.003293	0.002364	6602.249166	39209.101910	4049.491737	21487.392718
42.034500	-0.001107	-0.001118	0.003807	0.001653	6619.588370	39139.071695	4052.129110	21517.429065
42.535000	-0.001996	-0.000518	-0.006282	0.001898	6610.542325	39168.550953	4030.095520	21507.087315
43.035500	-0.002092	-0.000187	0.003937	0.001714	6611.235279	39211.191635	4052.277734	21514.846614
43.536000	0.001644	0.000280	0.000800	-0.002831	6677.920730	39629.546068	4055.324278	21708.190511
44.036000	-0.000933	0.000511	0.001770	0.000817	6627.672384	39343.785592	4049.541330	21552.832613
44.536500	-0.003770	0.000198	-0.002229	0.000728	6605.724655	39325.169547	4041.167347	21556.635375
45.037000	-0.000079	0.000742	-0.000201	0.001192	6631.516756	39331.833205	4044.508127	21536.951273
45.536500	0.000521	0.000777	-0.000526	0.000987	6637.980123	39351.746196	4044.250041	21545.629807
46.037500	0.000295	0.000133	0.004309	0.000676	6638.660725	39324.118312	4055.326310	21558.831202
46.537000	-0.002360	0.000102	-0.001616	0.000365	6619.879435	39347.401823	4043.250850	21572.045016
47.035000	-0.000858	0.000398	-0.000971	0.002040	6618.490712	39232.740831	4041.050294	21501.059099
47.535000	0.000677	0.000275	0.001767	0.001856	6632.258921	39237.818016	4047.303729	21508.869472
48.035500	-0.001379	0.000711	-0.000345	0.001351	6619.835561	39316.029826	4043.860476	21530.232135
48.536000	0.000393	0.001014	0.003692	0.000998	6636.862899	39370.674201	4053.296084	21545.193247
49.036000	-0.000570	0.000968	0.003765	-0.001119	6646.148427	39543.664775	4058.040250	21635.140189
49.536500	0.001756	0.000941	0.005286	-0.000706	6661.589606	39506.783022	4060.447045	21617.520882
50.049000	0.001908	0.000606	0.001099	0.006381	6605.931775	38891.288683	4036.222192	21318.466651
50.537000	-0.004917	0.003320	0.006679	0.045131	6261.405849	36047.623479	3968.481017	19766.654375
51.037000	-0.035370	0.000812	-0.009406	-0.023733	6549.345906	41473.556447	4078.769932	22623.741680
51.537500	-0.061575	-0.012784	-0.013933	-0.124735	7188.689249	50011.106788	4318.506412	27725.461366
52.035000	-0.045180	-0.116195	-0.012778	-0.352482	10237.462881	65535.000000	5153.678719	44676.544798
52.535500	-0.040029	-0.160412	-0.009922	-0.396699	11090.998534	65535.000000	5387.067913	49128.398363
53.035500	-0.031628	-0.152631	-0.008382	-0.388918	11102.344049	65535.000000	5354.653541	48311.753236
53.535500	-0.030470	-0.122628	-0.015101	-0.358914	10591.154471	65535.000000	5173.060132	45296.357187
54.036000	-0.021243	-0.090212	-0.015253	-0.326498	10204.147503	65535.000000	5024.372840	42264.295505
54.536500	-0.015791	-0.076814	-0.016681	-0.312605	10068.309537	65463.875978	4958.184793	41032.485137
55.039500	-0.013345	-0.077921	-0.012336	-0.313683	10124.691251	65459.720333	4981.343890	41126.637954
55.536500	-0.019052	-0.051025	-0.018017	-0.275780	9458.124938	63901.079259	4803.139182	37951.861138
56.037000	-0.014348	-0.031368	-0.008992	-0.241019	9036.151608	61825.586310	4706.006734	35274.035462
56.535000	-0.014286	-0.017674	-0.010838	-0.199718	8502.716418	58213.600022	4555.541277	32358.858679
57.035000	-0.011418	-0.011991	-0.005179	-0.174148	8229.983641	55750.318270	4490.986387	30688.124874
57.535500	-0.007696	-0.008733	-0.015602	-0.154999	8052.616488	53861.425708	4400.410010	29499.821103
58.035500	-0.000546	0.000569	-0.005834	-0.119154	7739.006171	50856.721127	4325.502828	27411.510033
58.536000	-0.002939	-0.000778	-0.007278	-0.104058	7557.788914	49085.263442	4280.267761	26582.309586
59.036500	-0.000433	-0.000767	-0.006757	-0.111643	7661.458667	49895.261095	4302.221273	26995.350625
59.539500	-0.003345	0.000359	-0.005056	-0.093684	7449.659653	48119.149348	4258.597725	26028.931673
60.037000	-0.002934	0.000399	-0.004359	-0.083647	7355.360164	47096.513358	4234.266406	25505.981497
60.534500	-0.004529	0.001495	-0.008749	-0.083266	7336.256732	47168.925920	4222.038811	25486.381110
61.034500	-0.000140	0.003243	-0.001799	-0.075779	7306.488485	46591.443946	4220.670351	25104.430260
61.535000	0.009559	0.006332	-0.001500	-0.089840	7540.363442	48340.141823	4257.841438	25827.262574
62.035500	0.008086	0.004903	-0.010826	-0.099044	7619.242801	49155.856711	4257.518594	26313.183440
62.535000	0.009829	0.006508	-0.000407	-0.094383	7589.309826	48833.505200	4272.769306	26065.821596
63.048000	0.014326	0.007306	-0.000099	-0.090585	7596.466789	48519.216157	4263.502531	25866.203178
63.542000	0.011308	0.007284	0.000913	-0.087144	7530.786157	48158.978132	4257.094171	25686.814647
64.039000	0.011373	0.007937	-0.002609	-0.083166	7491.474174	47815.961849	4237.541670	25481.245773
64.537000	0.012450	0.006633	0.000255	-0.079375	7464.411041	47295.424583	4235.149145	25287.067082
65.037000	0.012751	0.007290	-0.000431	-0.073523	7409.587027	46770.754872	4218.411337	24990.622127
65.537000	0.010216	0.008153	0.003343	-0.069489	7345.602192	46453.752570	4217.752049	24788.604454
66.037500	0.012532	0.007750	-0.001259	-0.065941	7333.716643	46061.770017	4197.250243	24612.456058
66.535000	0.010802	0.008395	0.001901	-0.062337	7282.612839	45770.570629	4196.144671	24434.991455
67.035500	0.012002	0.008758	0.004509	-0.057836	7251.304037	45366.736161	4191.443023	24215.440291
67.536000	0.012458	0.009383	0.008249	-0.054157	7220.967989	45071.119047	4191.594039	24037.649401
68.036000	0.011135	0.008912	0.004249	-0.051723	7185.877661	44791.839562	4175.761726	23920.850685
68.536500	0.012978	0.010171	0.004153	-0.047943	7167.905287	44550.932357	4166.335294	23740.745576
69.036500	0.013745	0.010983	0.009956	-0.044661	7144.695519	44316.340559	4172.457767	23585.654278
69.534000	0.013202	0.010320	0.003320	-0.043385	7127.987507	44133.065006	4153.366664	23525.646556
70.037000	0.013088	0.011040	0.006641	-0.041168	7106.674480	43992.134507	4156.009976	23421.842339
70.537500	0.016794	0.011074	0.014658	-0.039549	7125.757407	43843.529967	4171.460160	23346.399612
71.037500	0.016659	0.011998	0.004426	-0.037258	7103.587786	43715.620961	4141.431169	23240.059388
71.535000	0.014619	0.012000	0.006968	-0.035867	7072.464364	43586.213665	4144.154801	23175.791556
72.035000	0.015528	0.011041	0.006546	-0.034389	7067.317930	43360.055931	4139.661129	23107.706069
72.536000	0.017416	0.012458	0.013133	-0.032237	7064.934121	43292.102531	4150.178105	23008.999741
73.036000	0.014858	0.011674	0.008534	-0.031083	7031.593149	43113.519491	4136.556264	22956.272791
73.536500	0.013308	0.012851	0.009864	-0.027164	6983.001023	42862.239451	4130.486086	22778.275699
74.037000	0.017318	0.013271	0.011585	-0.026584	7013.410443	42847.678415	4133.156665	22752.063048
74.536500	0.017950	0.012868	0.012930	-0.024735	7002.589992	42642.449659	4131.976110	22668.727196
75.034500	0.018398	0.014085	0.011370	-0.021393	6976.988756	42449.840456	4120.563174	22519.049664
75.534500	0.017429	0.014108	0.015912	-0.019225	6949.429463	42256.384714	4126.073922	22422.532749
76.035000	0.015887	0.013189	0.011725	-0.018306	6927.942270	42091.337002	4114.256927	22381.761648
76.535000	0.017540	0.013706	0.009405	-0.016519	6926.775737	41977.697800	4104.850549	22302.736766
77.036000	0.017736	0.013780	0.010138	-0.015456	6919.247223	41889.469371	4104.098995	22255.910406
77.535500	0.014133	0.014358	0.012110	-0.013326	6869.781259	41751.359523	4103.738883	22162.372258
78.039000	0.017641	0.014490	0.010852	-0.012178	6890.065257	41661.265089	4098.278469	22112.169285
78.535500	0.017287	0.015041	0.012648	-0.010623	6873.642382	41572.346237	4098.821237	22044.324895
79.037000	0.017058	0.013919	0.010638	-0.009944	6865.868406	41413.501560	4092.750302	22014.820127
79.537500	0.018065	0.015034	0.011388	-0.007429	6852.977741	41290.453270	4088.785402	21905.817622
80.037500	0.017566	0.014694	0.010353	-0.006869	6843.954671	41211.493944	4085.215181	21881.627141
80.535000	0.018210	0.014772	0.013938	-0.005545	6838.173042	41102.617863	4090.278886	21824.593125
81.035000	0.018472	0.015240	0.014410	-0.004500	6831.520836	41052.210286	4088.992622	21779.659499
81.535500	0.020098	0.015628	0.012031	-0.002819	6831.056743	40939.619701	4079.929899	21707.656915
82.036000	0.020126	0.015349	0.017533	-0.002460	6828.251677	40884.212100	4091.425186	21692.316968
82.539000	0.021857	0.016051	0.014342	-0.000458	6825.956703	40771.502313	4079.819679	21606.989748
83.036500	0.019349	0.015563	0.012004	-0.000725	6807.018542	40752.335775	4075.229163	21618.329302
83.537000	0.021240	0.017776	0.014879	0.001872	6801.076139	40719.172133	4075.843436	21508.177709
84.037000	0.018826	0.015777	0.014567	0.000753	6790.199066	40643.126109	4077.630019	21555.547783
84.537500	0.017750	0.016794	0.015946	0.001762	6772.756498	40643.860423	4078.451288	21512.835396
85.038000	0.019689	0.017550	0.018720	0.002851	6779.851404	40615.104894	4082.196126	21466.796422
85.535500	0.018991	0.016849	0.015777	0.002707	6775.227366	40567.207071	4075.984537	21472.894247
86.035500	0.019949	0.016256	0.018160	0.002469	6785.232528	40536.673886	4081.802430	21482.962204
86.536000	0.019967	0.017412	0.016696	0.003247	6778.863927	40569.086478	4076.820989	21450.093701
87.035500	0.021094	0.017781	0.015773	0.003974	6782.218711	40538.369693	4073.175405	21419.482453
87.536500	0.019359	0.017444	0.016803	0.003751	6769.586996	40528.535229	4075.945170	21428.876962
88.036500	0.018511	0.016958	0.014289	0.003494	6764.656724	40508.854601	4070.961697	21439.697477
88.537000	0.018969	0.017099	0.021152	0.003849	6765.511194	40490.456599	4085.395271	21424.733508
89.037000	0.019179	0.017542	0.021577	0.004553	6761.408513	40468.081938	4084.773923	21395.145841
89.537500	0.018805	0.017688	0.015111	0.004543	6758.375081	40481.425186	4070.462739	21395.552560
90.034500	0.017238	0.017696	0.016033	0.004612	6744.806038	40476.241726	4072.342482	21392.665902
90.535000	0.019403	0.017101	0.016826	0.004300	6765.380064	40451.967662	4074.781966	21405.783344
91.035500	0.018659	0.017480	0.021948	0.004613	6756.579776	40457.518984	4085.466415	21392.594253
91.536000	0.018369	0.017320	0.016447	0.004844	6752.256339	40423.984130	4072.743322	21382.892284
92.035500	0.018871	0.017862	0.015993	0.005346	6752.256141	40427.402862	4070.636529	21361.815635
92.536000	0.020136	0.018472	0.017900	0.006102	6756.477155	40414.909742	4073.171429	21330.113841
93.036500	0.018091	0.017021	0.015886	0.005450	6744.920715	40346.454319	4070.171378	21357.450033
93.536500	0.018799	0.017499	0.015041	0.005915	6746.939446	40347.578906	4067.295388	21337.964945
94.080500	0.017096	0.018314	0.017941	0.006669	6726.633116	40352.792670	4072.012649	21306.380916
94.534000	0.018011	0.017570	0.017420	0.006058	6739.227577	40341.400242	4072.210780	21331.964340
95.034500	0.017296	0.017921	0.018467	0.008816	6710.623344	40135.969079	4068.447230	21216.788773
95.534500	0.017109	0.017741	0.021656	0.007021	6723.840748	40273.676238	4079.452802	21291.667399
