sample name	sample
index	271
start time	 02-25-2021  11:34:08 AM


Wavelength (nm)	Absorbance
494.344910	-0.001656
494.563924	-0.001656
494.782919	-0.001656
495.001897	0.011059
495.220856	0.017514
495.439797	-0.003720
495.658719	-0.033823
495.877624	-0.015172
496.096510	-0.040336
496.315378	-0.051002
496.534227	-0.060232
496.753059	-0.043273
496.971872	-0.061473
497.190667	0.098980
497.409444	0.133739
497.628203	0.143815
497.846943	0.144428
498.065665	0.145976
498.284369	0.147133
498.503055	0.148575
498.721723	0.148596
498.940372	0.149189
499.159003	0.148686
499.377616	0.148572
499.596210	0.147844
499.814787	0.147659
500.033345	0.147226
500.251885	0.147457
500.470406	0.147165
500.688910	0.147168
500.907395	0.146719
501.125862	0.147100
501.344311	0.147593
501.562742	0.148525
501.781154	0.149060
501.999548	0.149563
502.217924	0.149299
502.436282	0.150350
502.654621	0.152315
502.872942	0.152030
503.091245	0.152751
503.309530	0.152119
503.527797	0.151722
503.746045	0.151770
503.964275	0.151671
504.182487	0.151650
504.400681	0.151377
504.618856	0.150232
504.837013	0.151830
505.055152	0.151854
505.273273	0.151875
505.491376	0.151982
505.709460	0.152601
505.927526	0.153431
506.145574	0.154021
506.363604	0.154692
506.581615	0.155383
506.799608	0.155018
507.017583	0.154806
507.235540	0.154587
507.453478	0.155322
507.671399	0.154860
507.889301	0.155880
508.107185	0.156240
508.325050	0.154917
508.542898	0.155406
508.760727	0.155578
508.978538	0.155676
509.196330	0.155577
509.414105	0.154674
509.631861	0.156382
509.849599	0.155353
510.067319	0.155070
510.285021	0.155436
510.502704	0.155347
510.720369	0.155520
510.938016	0.156364
511.155645	0.158569
511.373255	0.158745
511.590848	0.158114
511.808422	0.159135
512.025977	0.159468
512.243515	0.159954
512.461034	0.159897
512.678536	0.160006
512.896018	0.159860
513.113483	0.157789
513.330930	0.158556
513.548358	0.158268
513.765768	0.157546
513.983160	0.158322
514.200533	0.158490
514.417889	0.158590
514.635226	0.159015
514.852545	0.159186
515.069845	0.160500
515.287128	0.160606
515.504392	0.160831
515.721638	0.161235
515.938866	0.160991
516.156075	0.161164
516.373267	0.161214
516.590440	0.161044
516.807594	0.161264
517.024731	0.161316
517.241850	0.161406
517.458950	0.162245
517.676032	0.162252
517.893095	0.162631
518.110141	0.162669
518.327168	0.163101
518.544177	0.163413
518.761168	0.164204
518.978141	0.164705
519.195095	0.166034
519.412031	0.165821
519.628949	0.166464
519.845849	0.166034
520.062731	0.167017
520.279594	0.166927
520.496439	0.167947
520.713266	0.167829
520.930074	0.168698
521.146865	0.167748
521.363637	0.167934
521.580391	0.168972
521.797127	0.170212
522.013844	0.169680
522.230543	0.169773
522.447224	0.169343
522.663887	0.170370
522.880532	0.169809
523.097158	0.171486
523.313766	0.171695
523.530356	0.171362
523.746928	0.171894
523.963481	0.172297
524.180017	0.172578
524.396534	0.172914
524.613032	0.172665
524.829513	0.173181
525.045975	0.172000
525.262420	0.172329
525.478845	0.172886
525.695253	0.172961
525.911643	0.173054
526.128014	0.173888
526.344367	0.174186
526.560702	0.174255
526.777018	0.174768
526.993316	0.174903
527.209597	0.175172
527.425858	0.175354
527.642102	0.175304
527.858328	0.176040
528.074535	0.176379
528.290724	0.177277
528.506894	0.177369
528.723047	0.177391
528.939181	0.178893
529.155297	0.178903
529.371395	0.179372
529.587475	0.179303
529.803536	0.179777
530.019579	0.180146
530.235604	0.180164
530.451611	0.180641
530.667600	0.181448
530.883570	0.181948
531.099522	0.183169
531.315456	0.183715
531.531372	0.184559
531.747269	0.184231
531.963148	0.184207
532.179009	0.184215
532.394852	0.184830
532.610676	0.184680
532.826482	0.184462
533.042271	0.184326
533.258040	0.183164
533.473792	0.183484
533.689525	0.184046
533.905240	0.184395
534.120937	0.185045
534.336616	0.185822
534.552277	0.186129
534.767919	0.186425
534.983543	0.186766
535.199149	0.188539
535.414736	0.188701
535.630306	0.189175
535.845857	0.189585
536.061390	0.189747
536.276904	0.189216
536.492401	0.189283
536.707879	0.189616
536.923339	0.189957
537.138781	0.189335
537.354204	0.189395
537.569610	0.189686
537.784997	0.189665
538.000366	0.189434
538.215716	0.190176
538.431049	0.190935
538.646363	0.191196
538.861659	0.191117
539.076937	0.191955
539.292196	0.192226
539.507438	0.192093
539.722661	0.193020
539.937866	0.193649
540.153052	0.194037
540.368221	0.194646
540.583371	0.195208
540.798503	0.195364
541.013617	0.195239
541.228712	0.196260
541.443789	0.196872
541.658848	0.197195
541.873889	0.197183
542.088912	0.196843
542.303916	0.196869
542.518902	0.196997
542.733870	0.197827
542.948820	0.198530
543.163752	0.198189
543.378665	0.198310
543.593560	0.198275
543.808437	0.199012
544.023295	0.199460
544.238136	0.199289
544.452958	0.199745
544.667762	0.199553
544.882548	0.199519
545.097315	0.199610
545.312064	0.199982
545.526795	0.200057
545.741508	0.199860
545.956203	0.200336
546.170879	0.200362
546.385537	0.199781
546.600177	0.200233
546.814799	0.200298
547.029402	0.200868
547.243988	0.201229
547.458555	0.201481
547.673103	0.202208
547.887634	0.202263
548.102146	0.202511
548.316640	0.202912
548.531116	0.203108
548.745574	0.203800
548.960013	0.204421
549.174435	0.204314
549.388838	0.204772
549.603222	0.204937
549.817589	0.205297
550.031937	0.206004
550.246267	0.206541
550.460579	0.207209
550.674873	0.206740
550.889148	0.206720
551.103405	0.207346
551.317644	0.207295
551.531865	0.207167
551.746068	0.207656
551.960252	0.207686
552.174418	0.207753
552.388566	0.207675
552.602696	0.208548
552.816807	0.209043
553.030900	0.209686
553.244975	0.210081
553.459032	0.210782
553.673070	0.210654
553.887091	0.210772
554.101093	0.210984
554.315077	0.211459
554.529042	0.211790
554.742990	0.211853
554.956919	0.211664
555.170830	0.212185
555.384722	0.211983
555.598597	0.212234
555.812453	0.212504
556.026291	0.212870
556.240111	0.212593
556.453913	0.212672
556.667696	0.212526
556.881461	0.212462
557.095208	0.212350
557.308937	0.212631
557.522647	0.212858
557.736339	0.213010
557.950013	0.213019
558.163669	0.213600
558.377307	0.214162
558.590926	0.214623
558.804527	0.215389
559.018110	0.215435
559.231675	0.215298
559.445221	0.215489
559.658749	0.215764
559.872259	0.216320
560.085751	0.216319
560.299225	0.215906
560.512680	0.215798
560.726117	0.215653
560.939536	0.215598
561.152937	0.216193
561.366319	0.216668
561.579683	0.216765
561.793029	0.216846
562.006357	0.217075
562.219667	0.217211
562.432958	0.217833
562.646231	0.218179
562.859486	0.218807
563.072723	0.218737
563.285941	0.219103
563.499141	0.219331
563.712323	0.219765
563.925487	0.220113
564.138632	0.220665
564.351760	0.220680
564.564869	0.220611
564.777960	0.220792
564.991032	0.221564
565.204087	0.221063
565.417123	0.221158
565.630141	0.221147
565.843140	0.220940
566.056122	0.220976
566.269085	0.221301
566.482030	0.221678
566.694957	0.221673
566.907866	0.221924
567.120756	0.222817
567.333628	0.223588
567.546482	0.223390
567.759318	0.224042
567.972135	0.224457
568.184935	0.224281
568.397716	0.224028
568.610478	0.224440
568.823223	0.224115
569.035949	0.224078
569.248657	0.223703
569.461347	0.223955
569.674019	0.223814
569.886672	0.223546
570.099308	0.223962
570.311925	0.224300
570.524523	0.224592
570.737104	0.224704
570.949666	0.224921
571.162210	0.225249
571.374736	0.225263
571.587244	0.225613
571.799733	0.226201
572.012205	0.226152
572.224658	0.226629
572.437092	0.226475
572.649509	0.226755
572.861907	0.226601
573.074287	0.226915
573.286649	0.227461
573.498993	0.227331
573.711318	0.227049
573.923625	0.227539
574.135914	0.227273
574.348185	0.227450
574.560438	0.227694
574.772672	0.228111
574.984888	0.228213
575.197086	0.228006
575.409266	0.228162
575.621427	0.228582
575.833570	0.228411
576.045695	0.229115
576.257802	0.229359
576.469890	0.229594
576.681961	0.229749
576.894013	0.229781
577.106046	0.230248
577.318062	0.230441
577.530059	0.230613
577.742039	0.230815
577.954000	0.230617
578.165942	0.230822
578.377867	0.231097
578.589773	0.231671
578.801661	0.231481
579.013531	0.231880
579.225382	0.232231
579.437216	0.232182
579.649031	0.232460
579.860828	0.232817
580.072606	0.233131
580.284367	0.232766
580.496109	0.232214
580.707833	0.233028
580.919539	0.233412
581.131227	0.233862
581.342896	0.234282
581.554547	0.234427
581.766180	0.234493
581.977795	0.234463
582.189391	0.234598
582.400969	0.234827
582.612529	0.234671
582.824071	0.234332
583.035595	0.234168
583.247100	0.234584
583.458587	0.234820
583.670056	0.234643
583.881506	0.235059
584.092939	0.235995
584.304353	0.236408
584.515749	0.236824
584.727127	0.236985
584.938486	0.237269
585.149828	0.236937
585.361151	0.236814
585.572456	0.237439
585.783742	0.237242
585.995011	0.237160
586.206261	0.237063
586.417493	0.237067
586.628706	0.237319
586.839902	0.237175
587.051079	0.237632
587.262238	0.238047
587.473379	0.238109
587.684502	0.238310
587.895606	0.238574
588.106692	0.238969
588.317760	0.239528
588.528810	0.239848
588.739841	0.240270
588.950855	0.240055
589.161850	0.240288
589.372827	0.240654
589.583785	0.241323
589.794726	0.241143
590.005648	0.241353
590.216552	0.241119
590.427437	0.241212
590.638305	0.241445
590.849154	0.242228
591.059985	0.242592
591.270798	0.242592
591.481592	0.242570
591.692369	0.242942
591.903127	0.242819
592.113867	0.242924
592.324588	0.243032
592.535292	0.243287
592.745977	0.243296
592.956644	0.243866
593.167293	0.244013
593.377923	0.244023
593.588536	0.244061
593.799130	0.244374
594.009706	0.244790
594.220263	0.245182
594.430803	0.245205
594.641324	0.245328
594.851827	0.244883
595.062312	0.245317
595.272778	0.245520
595.483227	0.245439
595.693657	0.245768
595.904069	0.245915
596.114462	0.246030
596.324838	0.246028
596.535195	0.245743
596.745534	0.245662
596.955855	0.245796
597.166157	0.246081
597.376441	0.246463
597.586707	0.246459
597.796955	0.246484
598.007185	0.246561
598.217396	0.246518
598.427589	0.247108
598.637764	0.247778
598.847921	0.247788
599.058060	0.247862
599.268180	0.247895
599.478282	0.248172
599.688366	0.248182
599.898431	0.248256
600.108479	0.248585
600.318508	0.248729
600.528519	0.248471
600.738511	0.248414
600.948486	0.248460
601.158442	0.248983
601.368380	0.248666
601.578300	0.249021
601.788202	0.249276
601.998085	0.249774
602.207950	0.249972
602.417797	0.250047
602.627626	0.250208
602.837436	0.250342
603.047228	0.250157
603.257002	0.250629
603.466758	0.250542
603.676496	0.250923
603.886215	0.251166
604.095916	0.251207
604.305599	0.251509
604.515264	0.251685
604.724910	0.251899
604.934538	0.251884
605.144148	0.251779
605.353740	0.251692
605.563314	0.251549
605.772869	0.251320
605.982406	0.251364
606.191925	0.251420
606.401425	0.251567
606.610908	0.251663
606.820372	0.251826
607.029818	0.252222
607.239246	0.252690
607.448655	0.252514
607.658047	0.252486
607.867420	0.252681
608.076775	0.252633
608.286111	0.253027
608.495430	0.253133
608.704730	0.253470
608.914012	0.253568
609.123275	0.253864
609.332521	0.254339
609.541748	0.254894
609.750957	0.254968
609.960148	0.255227
610.169321	0.254824
610.378475	0.254795
610.587611	0.254868
610.796729	0.255131
611.005829	0.255157
611.214910	0.255357
611.423974	0.255409
611.633019	0.255572
611.842045	0.255852
612.051054	0.256530
612.260044	0.257201
612.469017	0.257491
612.677970	0.257515
612.886906	0.257808
613.095824	0.258054
613.304723	0.258432
613.513604	0.258405
613.722467	0.258645
613.931311	0.258641
614.140138	0.258484
614.348946	0.258733
614.557736	0.259012
614.766507	0.259095
614.975261	0.259014
615.183996	0.258581
615.392713	0.259104
615.601412	0.259320
615.810092	0.259398
616.018754	0.259725
616.227399	0.259925
616.436024	0.259947
616.644632	0.260160
616.853222	0.260415
617.061793	0.260987
617.270346	0.260868
617.478880	0.260983
617.687397	0.261102
617.895895	0.261238
618.104375	0.261059
618.312837	0.261233
618.521281	0.261285
618.729706	0.261662
618.938113	0.261666
619.146502	0.262156
619.354873	0.262202
619.563226	0.262404
619.771560	0.262216
619.979876	0.262702
620.188174	0.262823
620.396453	0.263118
620.604715	0.262853
620.812958	0.262890
621.021183	0.262789
621.229390	0.263171
621.437578	0.263555
621.645748	0.263993
621.853900	0.263765
622.062034	0.264234
622.270150	0.264495
622.478247	0.264823
622.686326	0.265224
622.894387	0.265768
623.102430	0.265632
623.310454	0.265596
623.518461	0.265668
623.726449	0.266068
623.934418	0.266026
624.142370	0.266241
624.350303	0.266566
624.558218	0.266812
624.766115	0.266620
624.973994	0.266945
625.181855	0.267158
625.389697	0.267480
625.597521	0.267679
625.805327	0.268196
626.013114	0.268114
626.220883	0.268293
626.428634	0.268324
626.636367	0.268681
626.844082	0.269002
627.051778	0.269399
627.259457	0.269460
627.467117	0.269463
627.674758	0.268949
627.882382	0.269313
628.089987	0.269201
628.297574	0.269295
628.505143	0.269163
628.712694	0.268654
628.920226	0.268525
629.127740	0.268495
629.335236	0.268699
629.542714	0.268989
629.750174	0.269170
629.957615	0.269530
630.165038	0.269739
630.372443	0.270126
630.579829	0.270678
630.787198	0.270765
630.994548	0.271194
631.201880	0.271379
631.409194	0.271877
631.616489	0.271752
631.823766	0.271766
632.031025	0.271637
632.238266	0.271705
632.445489	0.271746
632.652693	0.271959
632.859879	0.272201
633.067047	0.272228
633.274197	0.272330
633.481329	0.272511
633.688442	0.272826
633.895537	0.273475
634.102614	0.273749
634.309672	0.274078
634.516713	0.274229
634.723735	0.274320
634.930739	0.274774
635.137724	0.274619
635.344692	0.274735
635.551641	0.274784
635.758572	0.274807
635.965485	0.274854
636.172379	0.275044
636.379256	0.275307
636.586114	0.275151
636.792954	0.275092
636.999775	0.275361
637.206579	0.275779
637.413364	0.275938
637.620131	0.276257
637.826880	0.276403
638.033610	0.276607
638.240323	0.276574
638.447017	0.277201
638.653692	0.277454
638.860350	0.278013
639.066990	0.277983
639.273611	0.277987
639.480214	0.278032
639.686798	0.278081
639.893365	0.278120
640.099913	0.278356
640.306443	0.278293
640.512955	0.278302
640.719449	0.278079
640.925924	0.278333
641.132381	0.278468
641.338820	0.278716
641.545241	0.278982
641.751644	0.279449
641.958028	0.279724
642.164394	0.279938
642.370742	0.280306
642.577071	0.280687
642.783383	0.280786
642.989676	0.281282
643.195951	0.281320
643.402207	0.281449
643.608446	0.281396
643.814666	0.281709
644.020868	0.281779
644.227052	0.282238
644.433218	0.282381
644.639365	0.282722
644.845494	0.282876
645.051605	0.282913
645.257698	0.283174
645.463772	0.283353
645.669828	0.283344
645.875866	0.283494
646.081886	0.283474
646.287888	0.283816
646.493871	0.284018
646.699836	0.284080
646.905783	0.284572
647.111712	0.284806
647.317622	0.284995
647.523514	0.285174
647.729388	0.285408
647.935244	0.285860
648.141082	0.286065
648.346901	0.286180
648.552702	0.286386
648.758485	0.286507
648.964250	0.286834
649.169996	0.286968
649.375724	0.287196
649.581434	0.287472
649.787126	0.287602
649.992800	0.287662
650.198455	0.288077
650.404092	0.288488
650.609711	0.288402
650.815311	0.288542
651.020894	0.288963
651.226458	0.289247
651.432004	0.289554
651.637532	0.289562
651.843041	0.289610
652.048532	0.289610
652.254006	0.289680
652.459460	0.289941
652.664897	0.290096
652.870315	0.290299
653.075716	0.290346
653.281097	0.290430
653.486461	0.290729
653.691807	0.290922
653.897134	0.291237
654.102443	0.291486
654.307734	0.291961
654.513006	0.291984
654.718261	0.291927
654.923497	0.292398
655.128715	0.292720
655.333915	0.292616
655.539096	0.293078
655.744259	0.293055
655.949404	0.293004
656.154531	0.293339
656.359640	0.293729
656.564730	0.293945
656.769802	0.293805
656.974856	0.293933
657.179892	0.294233
657.384909	0.294191
657.589908	0.294487
657.794889	0.294835
657.999852	0.295022
658.204797	0.295168
658.409723	0.295597
658.614631	0.296153
658.819521	0.296238
659.024393	0.296660
659.229246	0.297001
659.434081	0.297270
659.638898	0.297576
659.843697	0.297865
660.048478	0.298072
660.253240	0.297991
660.457984	0.298216
660.662710	0.298407
660.867417	0.298736
661.072107	0.298809
661.276778	0.298772
661.481431	0.299151
661.686066	0.298981
661.890682	0.299192
662.095281	0.299752
662.299861	0.299862
662.504422	0.300310
662.708966	0.300588
662.913491	0.301063
663.117999	0.301512
663.322488	0.301557
663.526958	0.301921
663.731411	0.302190
663.935845	0.302260
664.140261	0.302328
664.344659	0.302561
664.549038	0.302367
664.753400	0.302562
664.957743	0.302772
665.162068	0.303026
665.366375	0.303298
665.570663	0.303559
665.774933	0.304047
665.979185	0.304315
666.183419	0.304356
666.387635	0.304890
666.591832	0.304664
666.796011	0.304667
667.000172	0.304800
667.204315	0.304825
667.408439	0.304743
667.612545	0.304784
667.816634	0.305143
668.020703	0.305242
668.224755	0.305209
668.428788	0.305668
668.632803	0.305964
668.836800	0.305979
669.040779	0.306239
669.244739	0.306524
669.448681	0.306647
669.652605	0.306665
669.856511	0.307002
670.060399	0.307266
670.264268	0.307610
670.468119	0.307759
670.671952	0.307898
670.875767	0.307961
671.079563	0.308354
671.283341	0.308580
671.487101	0.308804
671.690843	0.308962
671.894567	0.309048
672.098272	0.309053
672.301959	0.309485
672.505628	0.309934
672.709278	0.310530
672.912911	0.310719
673.116525	0.310957
673.320121	0.311349
673.523699	0.311801
673.727258	0.312456
673.930799	0.312802
674.134322	0.313027
674.337827	0.313442
674.541314	0.313588
674.744782	0.314011
674.948232	0.314183
675.151664	0.314342
675.355078	0.314401
675.558474	0.314356
675.761851	0.314604
675.965210	0.314849
676.168551	0.314955
676.371873	0.315117
676.575178	0.314903
676.778464	0.315198
676.981732	0.315527
677.184981	0.315622
677.388213	0.315806
677.591426	0.315915
677.794621	0.316293
677.997798	0.316690
678.200956	0.316866
678.404097	0.317478
678.607219	0.317873
678.810323	0.318144
679.013408	0.318771
679.216476	0.319061
679.419525	0.319547
679.622556	0.319549
679.825569	0.319794
680.028563	0.320171
680.231540	0.320319
680.434498	0.320234
680.637438	0.320530
680.840359	0.320509
681.043263	0.320963
681.246148	0.321034
681.449015	0.321291
681.651864	0.321456
681.854694	0.321637
682.057506	0.321751
682.260301	0.321946
682.463076	0.321886
682.665834	0.322020
682.868573	0.322232
683.071295	0.322362
683.273998	0.322448
683.476682	0.322494
683.679349	0.322646
683.881997	0.323062
684.084627	0.323409
684.287239	0.323761
684.489833	0.323986
684.692408	0.323711
684.894965	0.323840
685.097504	0.323955
685.300025	0.324151
685.502527	0.324074
685.705012	0.324185
685.907478	0.324447
686.109925	0.324487
686.312355	0.324909
686.514766	0.325235
686.717159	0.325656
686.919534	0.325917
687.121891	0.326088
687.324230	0.326517
687.526550	0.326632
687.728852	0.326503
687.931136	0.326817
688.133401	0.326890
688.335649	0.326983
688.537878	0.327094
688.740089	0.327258
688.942281	0.327436
689.144456	0.327587
689.346612	0.327701
689.548750	0.328062
689.750870	0.328469
689.952971	0.328348
690.155055	0.328559
690.357120	0.328589
690.559167	0.328606
690.761195	0.328631
690.963206	0.328582
691.165198	0.328510
691.367172	0.328627
691.569128	0.328364
691.771065	0.328856
691.972984	0.329026
692.174885	0.329169
692.376768	0.329515
692.578633	0.329657
692.780479	0.329872
692.982308	0.330247
693.184118	0.330530
693.385909	0.330800
693.587683	0.330797
693.789438	0.331004
693.991175	0.331027
694.192894	0.331231
694.394595	0.331444
694.596277	0.331639
694.797941	0.331775
694.999587	0.331702
695.201215	0.331683
695.402824	0.331797
695.604416	0.331797
695.805989	0.332110
696.007543	0.332097
696.209080	0.332500
696.410598	0.332564
696.612099	0.332911
696.813580	0.333192
697.015044	0.333450
697.216490	0.333716
697.417917	0.334077
697.619326	0.334254
697.820717	0.334194
698.022089	0.334160
698.223444	0.334449
698.424780	0.334540
698.626098	0.334720
698.827397	0.334850
699.028679	0.335047
699.229942	0.335097
699.431187	0.335192
699.632414	0.335795
699.833622	0.336194
700.034813	0.336399
700.235985	0.336539
700.437139	0.336673
700.638274	0.336717
700.839392	0.336789
701.040491	0.336989
701.241572	0.337223
701.442635	0.337389
701.643679	0.337343
701.844706	0.337496
702.045714	0.337526
702.246704	0.337590
702.447675	0.337894
702.648629	0.337966
702.849564	0.337892
703.050481	0.337891
703.251380	0.337787
703.452260	0.337754
703.653122	0.337956
703.853966	0.338042
704.054792	0.338064
704.255600	0.337876
704.456389	0.337832
704.657160	0.337835
704.857913	0.337743
705.058648	0.337651
705.259365	0.337585
705.460063	0.337012
705.660743	0.336911
705.861405	0.337062
706.062048	0.337115
706.262674	0.337088
706.463281	0.337288
706.663870	0.337596
706.864441	0.337950
707.064993	0.338092
707.265527	0.338361
707.466043	0.338651
707.666541	0.338614
707.867021	0.338961
708.067482	0.339270
708.267925	0.339238
708.468350	0.339189
708.668757	0.339328
708.869145	0.339647
709.069516	0.339954
709.269868	0.340009
709.470201	0.340187
709.670517	0.340134
709.870814	0.340247
710.071093	0.340447
710.271354	0.340564
710.471597	0.340642
710.671821	0.340697
710.872028	0.340571
711.072216	0.340565
711.272385	0.340691
711.472537	0.340583
711.672670	0.340192
711.872785	0.340310
712.072882	0.340301
712.272961	0.340001
712.473021	0.339885
712.673063	0.340097
712.873087	0.339723
713.073093	0.339226
713.273081	0.339269
713.473050	0.339520
713.673001	0.339344
713.872934	0.339578
714.072849	0.339562
714.272745	0.339534
714.472623	0.339481
714.672483	0.339876
714.872325	0.340307
715.072148	0.340361
715.271954	0.340227
715.471741	0.340255
715.671509	0.340019
715.871260	0.339978
716.070992	0.339853
716.270707	0.339705
716.470403	0.339663
716.670080	0.339497
716.869740	0.339664
717.069381	0.339777
717.269004	0.339682
717.468609	0.339424
717.668195	0.339259
717.867764	0.339360
718.067314	0.339470
718.266846	0.339452
718.466360	0.339284
718.665855	0.339114
718.865332	0.338807
719.064791	0.338685
719.264232	0.338728
719.463655	0.338831
719.663059	0.338653
719.862445	0.338427
720.061813	0.338154
720.261163	0.338181
720.460494	0.337972
720.659807	0.337819
720.859102	0.337860
721.058379	0.338051
721.257638	0.337846
721.456878	0.337868
721.656100	0.337761
721.855304	0.337651
722.054490	0.337446
722.253657	0.337157
722.452806	0.337282
722.651937	0.337142
722.851050	0.336744
723.050145	0.336748
723.249221	0.336476
723.448279	0.336544
723.647319	0.336688
723.846340	0.336517
724.045344	0.336803
724.244329	0.336687
724.443296	0.336694
724.642245	0.336838
724.841175	0.336798
725.040088	0.336933
725.238982	0.336582
725.437857	0.336443
725.636715	0.336481
725.835554	0.336660
726.034376	0.336678
726.233179	0.336361
726.431963	0.336105
726.630730	0.336023
726.829478	0.335671
727.028208	0.335890
727.226920	0.335760
727.425614	0.335797
727.624289	0.335366
727.822946	0.335237
728.021585	0.335407
728.220206	0.335470
728.418808	0.335293
728.617392	0.335220
728.815958	0.334786
729.014506	0.334251
729.213036	0.334047
729.411547	0.333936
729.610040	0.333834
729.808515	0.333501
730.006972	0.333250
730.205410	0.333033
730.403831	0.332930
730.602233	0.332928
730.800616	0.333262
730.998982	0.333273
731.197329	0.333273
731.395658	0.333172
731.593969	0.333096
731.792262	0.333180
731.990536	0.332901
732.188793	0.332797
732.387031	0.332675
732.585250	0.332547
732.783452	0.332251
732.981635	0.332081
733.179800	0.331541
733.377947	0.331423
733.576076	0.331227
733.774186	0.331245
733.972278	0.331240
734.170352	0.331285
734.368408	0.330977
734.566446	0.330834
734.764465	0.330615
734.962466	0.331035
735.160449	0.330830
735.358413	0.330616
735.556360	0.330416
735.754288	0.330152
735.952198	0.329780
736.150090	0.329574
736.347963	0.329632
736.545818	0.329396
736.743655	0.328884
736.941474	0.328783
737.139275	0.328581
737.337057	0.328719
737.534821	0.328646
737.732567	0.328587
737.930295	0.328577
738.128005	0.328357
738.325696	0.328360
738.523369	0.328392
738.721024	0.328256
738.918660	0.327998
739.116279	0.327773
739.313879	0.327424
739.511461	0.327118
739.709024	0.326887
739.906570	0.326758
740.104097	0.326457
740.301606	0.326060
740.499097	0.325777
740.696569	0.325480
740.894024	0.325514
741.091460	0.325119
741.288878	0.324916
741.486277	0.325011
741.683659	0.324706
741.881022	0.324650
742.078367	0.324774
742.275694	0.324747
742.473002	0.324797
742.670293	0.324121
742.867565	0.324057
743.064819	0.324088
743.262054	0.323730
743.459272	0.323553
743.656471	0.323006
743.853652	0.322760
744.050815	0.322503
744.247959	0.322495
744.445085	0.322548
744.642194	0.322526
744.839283	0.322072
745.036355	0.322052
745.233408	0.321830
745.430444	0.321692
745.627461	0.321673
745.824459	0.321404
746.021440	0.320904
746.218402	0.320602
746.415346	0.320692
746.612272	0.320545
746.809180	0.320237
747.006069	0.319997
747.202940	0.320072
747.399793	0.319815
747.596628	0.319674
747.793444	0.319530
747.990243	0.319349
748.187023	0.319032
748.383784	0.318988
748.580528	0.318778
748.777253	0.318914
748.973960	0.318885
749.170649	0.318626
749.367320	0.318615
749.563973	0.318483
749.760607	0.318718
749.957223	0.318541
750.153821	0.318554
750.350400	0.318705
750.546962	0.318501
750.743505	0.318341
750.940030	0.318194
751.136536	0.317917
751.333025	0.318184
751.529495	0.317588
751.725947	0.317265
751.922381	0.317141
752.118796	0.316978
752.315194	0.317088
752.511573	0.316748
752.707934	0.316600
752.904276	0.316674
753.100601	0.316349
753.296907	0.316389
753.493195	0.316601
753.689465	0.316279
753.885716	0.315988
754.081949	0.315451
754.278164	0.315329
754.474361	0.315056
754.670540	0.314857
754.866700	0.314522
755.062843	0.314324
755.258967	0.313913
755.455072	0.313977
755.651160	0.313825
755.847229	0.313645
756.043280	0.313528
756.239313	0.313448
756.435328	0.313133
756.631324	0.313017
756.827302	0.312969
757.023262	0.312882
757.219204	0.312602
757.415127	0.312204
757.611033	0.312054
757.806920	0.311949
758.002788	0.311920
758.198639	0.311808
758.394471	0.311675
758.590286	0.311402
758.786081	0.310984
758.981859	0.310604
759.177619	0.310644
759.373360	0.310791
759.569083	0.310399
759.764788	0.310124
759.960474	0.309913
760.156143	0.309674
760.351793	0.309675
760.547425	0.309855
760.743038	0.309652
760.938634	0.309272
761.134211	0.308839
761.329770	0.308754
761.525311	0.308647
761.720833	0.308673
761.916338	0.308578
762.111824	0.308428
762.307292	0.308333
762.502741	0.308564
762.698173	0.308618
762.893586	0.308422
763.088981	0.308248
763.284358	0.308183
763.479716	0.307842
763.675057	0.307927
763.870379	0.307661
764.065683	0.307200
764.260968	0.306901
764.456236	0.306708
764.651485	0.306638
764.846716	0.306320
765.041929	0.305895
765.237123	0.305958
765.432299	0.305595
765.627457	0.305706
765.822597	0.305798
766.017719	0.305827
766.212822	0.305668
766.407907	0.305635
766.602974	0.305948
766.798023	0.306089
766.993054	0.305950
767.188066	0.305971
767.383060	0.305795
767.578036	0.305650
767.772993	0.305429
767.967933	0.305342
768.162854	0.305160
768.357757	0.305099
768.552642	0.304817
768.747508	0.304696
768.942356	0.304473
769.137186	0.304407
769.331998	0.304294
769.526792	0.304118
769.721567	0.304025
769.916324	0.304096
770.111063	0.303781
770.305784	0.303936
770.500486	0.303989
770.695171	0.303658
770.889837	0.303310
771.084484	0.303098
771.279114	0.303029
771.473725	0.302878
771.668318	0.302576
771.862893	0.302362
772.057450	0.302066
772.251988	0.301844
772.446509	0.302276
772.641011	0.302399
772.835494	0.302441
773.029960	0.302505
773.224407	0.302638
773.418836	0.302693
773.613247	0.302754
773.807640	0.302746
774.002014	0.302942
774.196370	0.302777
774.390708	0.302728
774.585028	0.302636
774.779330	0.302430
774.973613	0.302248
775.167878	0.302078
775.362125	0.301939
775.556354	0.301978
775.750564	0.301445
775.944756	0.301183
776.138930	0.300907
776.333086	0.300823
776.527223	0.300483
776.721343	0.300596
776.915444	0.300742
777.109526	0.300827
777.303591	0.300705
777.497637	0.300771
777.691666	0.300814
777.885676	0.300908
778.079667	0.300883
778.273641	0.301360
778.467596	0.301395
778.661533	0.301231
778.855452	0.301201
779.049352	0.301155
779.243235	0.301136
779.437099	0.301131
779.630945	0.301193
779.824773	0.301222
780.018582	0.300878
780.212373	0.300381
780.406146	0.300412
780.599901	0.300304
780.793638	0.300170
780.987356	0.300130
781.181056	0.300098
781.374738	0.299860
781.568402	0.299767
781.762047	0.299952
781.955674	0.300202
782.149283	0.300139
782.342874	0.300271
782.536447	0.300338
782.730001	0.300621
782.923537	0.300492
783.117055	0.300510
783.310555	0.300705
783.504036	0.300601
783.697499	0.300528
783.890944	0.300128
784.084371	0.300058
784.277780	0.300147
784.471170	0.299876
784.664542	0.300054
784.857896	0.300076
785.051231	0.299843
785.244549	0.299848
785.437848	0.299750
785.631129	0.300104
785.824392	0.300094
786.017636	0.300250
786.210863	0.300304
786.404071	0.300142
786.597260	0.300145
786.790432	0.300238
786.983585	0.300201
787.176721	0.300178
787.369838	0.300133
787.562936	0.300055
787.756017	0.299724
787.949079	0.299515
788.142123	0.299321
788.335149	0.299173
788.528156	0.299141
788.721146	0.299002
788.914117	0.299092
789.107070	0.299179
789.300005	0.299270
789.492921	0.299130
789.685819	0.299239
789.878699	0.299569
790.071561	0.299614
790.264405	0.299779
790.457230	0.300041
790.650037	0.300241
790.842826	0.300530
791.035597	0.300828
791.228349	0.301479
791.421084	0.301733
791.613800	0.302181
791.806497	0.302720
791.999177	0.302968
792.191838	0.303188
792.384481	0.303327
792.577106	0.303411
792.769713	0.303479
792.962301	0.303495
793.154871	0.303946
793.347423	0.303888
793.539957	0.303981
793.732473	0.304335
793.924970	0.304546
794.117449	0.304602
794.309910	0.304616
794.502353	0.304694
794.694777	0.304729
794.887183	0.304448
795.079571	0.304350
795.271941	0.304240
795.464293	0.303723
795.656626	0.303684
795.848941	0.303830
796.041238	0.304036
796.233516	0.304274
796.425777	0.304263
796.618019	0.304481
796.810243	0.304707
797.002449	0.304792
797.194636	0.305147
797.386805	0.305292
797.578956	0.305207
797.771089	0.305289
797.963204	0.305435
798.155300	0.305383
798.347378	0.305688
798.539438	0.305732
798.731480	0.305978
798.923503	0.306339
799.115509	0.306671
799.307496	0.306996
799.499465	0.307017
799.691415	0.307069
799.883348	0.307390
800.075262	0.307455
800.267158	0.307497
800.459035	0.307468
800.650895	0.307580
800.842736	0.307469
801.034559	0.307680
801.226364	0.308065
801.418150	0.308073
801.609919	0.308348
801.801669	0.308348
801.993401	0.308597
802.185114	0.308894
802.376810	0.308829
802.568487	0.308875
802.760146	0.308994
802.951787	0.309006
803.143409	0.309303
803.335014	0.309430
803.526600	0.309837
803.718168	0.310032
803.909717	0.310495
804.101249	0.310538
804.292762	0.310782
804.484257	0.310989
804.675734	0.311090
804.867192	0.311284
805.058632	0.311632
805.250054	0.311669
805.441458	0.311626
805.632844	0.311552
805.824211	0.312169
806.015561	0.312758
806.206891	0.312937
806.398204	0.313185
806.589499	0.313157
806.780775	0.313337
806.972033	0.313603
807.163273	0.313811
807.354495	0.313947
807.545698	0.313796
807.736883	0.313745
807.928050	0.314017
808.119199	0.314257
808.310329	0.314471
808.501441	0.314689
808.692535	0.314693
808.883611	0.314973
809.074669	0.315275
809.265708	0.315382
809.456729	0.315460
809.647732	0.315669
809.838717	0.315855
810.029683	0.316225
810.220632	0.316356
810.411562	0.316705
810.602474	0.316971
810.793367	0.317337
810.984242	0.317530
811.175100	0.317700
811.365938	0.317795
811.556759	0.318095
811.747562	0.318101
811.938346	0.318326
812.129112	0.318786
812.319860	0.318836
812.510589	0.319368
812.701300	0.320138
812.891994	0.320539
813.082668	0.320963
813.273325	0.321298
813.463964	0.322064
813.654584	0.322602
813.845186	0.322796
814.035769	0.323673
814.226335	0.323580
814.416882	0.323707
814.607411	0.324066
814.797922	0.324228
814.988415	0.324502
815.178889	0.324376
815.369345	0.324124
815.559783	0.324159
815.750203	0.324329
815.940605	0.324391
816.130988	0.324496
816.321353	0.324641
816.511700	0.324952
816.702028	0.325189
816.892339	0.325478
817.082631	0.325604
817.272905	0.326025
817.463161	0.326077
817.653398	0.326027
817.843617	0.326399
818.033819	0.326926
818.224001	0.327186
818.414166	0.327190
818.604312	0.327311
818.794440	0.327949
818.984550	0.328247
819.174642	0.328782
819.364716	0.329483
819.554771	0.329899
819.744808	0.329847
819.934827	0.329914
820.124827	0.330160
820.314810	0.330552
820.504774	0.330763
820.694720	0.330718
820.884647	0.330664
821.074557	0.330891
821.264448	0.330762
821.454321	0.331164
821.644176	0.331390
821.834012	0.331924
822.023831	0.332141
822.213631	0.332461
822.403413	0.332865
822.593176	0.333285
822.782922	0.333867
822.972649	0.334308
823.162358	0.334522
823.352049	0.335239
823.541721	0.335171
823.731376	0.335411
823.921012	0.335445
824.110629	0.335798
824.300229	0.335704
824.489811	0.335567
824.679374	0.335809
824.868919	0.336248
825.058445	0.336300
825.247954	0.336672
825.437444	0.336776
825.626916	0.337581
825.816370	0.337854
826.005806	0.338549
826.195223	0.338891
826.384622	0.339360
826.574003	0.339683
826.763366	0.340252
826.952711	0.340604
827.142037	0.341243
827.331345	0.341069
827.520635	0.341631
827.709906	0.341725
827.899160	0.342359
828.088395	0.342753
828.277612	0.342809
828.466810	0.342654
828.655991	0.342964
828.845153	0.343186
829.034297	0.343912
829.223423	0.344342
829.412531	0.345086
829.601620	0.345473
829.790691	0.345659
829.979744	0.346306
830.168779	0.346792
830.357795	0.347132
830.546793	0.347520
830.735773	0.347994
830.924735	0.348246
831.113679	0.348238
831.302604	0.348416
831.491511	0.348751
831.680400	0.348979
831.869271	0.349505
832.058123	0.350155
832.246957	0.350583
832.435773	0.350525
832.624571	0.350557
832.813351	0.350899
833.002112	0.351366
833.190855	0.351517
833.379580	0.351878
833.568287	0.352473
833.756975	0.352532
833.945645	0.352929
834.134297	0.353511
834.322931	0.353825
834.511547	0.354270
834.700144	0.354520
834.888723	0.355206
835.077284	0.355305
835.265826	0.355265
835.454351	0.355820
835.642857	0.356402
835.831345	0.356575
836.019815	0.357160
836.208266	0.357767
836.396699	0.358135
836.585114	0.358578
836.773511	0.359354
836.961890	0.359707
837.150250	0.360255
837.338592	0.360642
837.526916	0.361142
837.715222	0.361453
837.903510	0.361864
838.091779	0.362292
838.280030	0.362799
838.468263	0.362986
838.656477	0.363567
838.844674	0.363571
839.032852	0.363706
839.221012	0.363972
839.409153	0.364417
839.597277	0.364631
839.785382	0.364918
839.973469	0.365077
840.161538	0.365796
840.349589	0.366053
840.537621	0.366818
840.725635	0.367559
840.913631	0.367873
841.101609	0.368319
841.289568	0.368631
841.477509	0.369180
841.665432	0.369874
841.853337	0.370118
842.041224	0.370643
842.229092	0.370922
842.416942	0.371034
842.604774	0.371854
842.792588	0.372261
842.980383	0.372626
843.168160	0.373515
843.355919	0.373527
843.543660	0.374277
843.731382	0.374796
843.919087	0.375296
844.106773	0.375469
844.294441	0.375889
844.482090	0.376245
844.669722	0.376632
844.857335	0.376526
845.044930	0.376965
845.232507	0.377239
845.420065	0.377644
845.607605	0.378004
845.795127	0.378606
845.982631	0.379153
846.170117	0.379863
846.357584	0.380515
846.545033	0.380630
846.732464	0.381050
846.919877	0.381207
847.107272	0.381624
847.294648	0.381934
847.482006	0.382414
847.669346	0.382699
847.856667	0.382650
848.043971	0.383120
848.231256	0.383978
848.418523	0.384093
848.605771	0.384674
848.793002	0.385020
848.980214	0.385282
849.167408	0.385748
849.354584	0.385993
849.541742	0.386627
849.728881	0.386858
849.916002	0.386685
850.103105	0.387466
850.290190	0.387633
850.477256	0.388041
850.664304	0.388528
850.851334	0.388886
851.038346	0.389356
851.225340	0.389657
851.412315	0.389992
851.599272	0.390328
851.786211	0.390664
851.973132	0.390963
852.160034	0.390884
852.346918	0.391190
852.533784	0.391375
852.720632	0.391355
852.907462	0.391098
853.094273	0.391510
853.281066	0.392021
853.467841	0.392213
853.654598	0.392564
853.841336	0.392970
854.028056	0.393536
854.214758	0.393760
854.401442	0.394247
854.588107	0.395041
854.774755	0.395266
854.961384	0.395619
855.147995	0.396024
855.334587	0.396216
855.521162	0.396738
855.707718	0.396858
855.894256	0.397556
856.080775	0.398026
856.267277	0.398562
856.453760	0.399137
856.640225	0.399610
856.826672	0.399986
857.013101	0.400847
857.199511	0.401120
857.385903	0.401821
857.572277	0.401982
857.758633	0.402494
857.944970	0.402742
858.131290	0.403242
858.317591	0.403371
858.503873	0.403695
858.690138	0.403324
858.876384	0.404158
859.062612	0.404596
859.248822	0.405067
859.435014	0.405198
859.621188	0.405789
859.807343	0.405950
859.993480	0.406754
860.179599	0.407495
860.365699	0.408129
860.551781	0.408431
860.737846	0.408484
860.923891	0.408856
861.109919	0.409293
861.295929	0.409363
861.481920	0.409511
861.667893	0.409476
861.853848	0.409299
862.039784	0.409696
862.225702	0.409505
862.411603	0.409820
862.597484	0.410088
862.783348	0.410085
862.969193	0.410729
863.155021	0.411370
863.340830	0.411741
863.526620	0.412104
863.712393	0.412436
863.898147	0.413185
864.083883	0.413700
864.269601	0.414522
864.455301	0.415293
864.640982	0.415149
864.826645	0.414973
865.012290	0.415340
865.197917	0.415671
865.383526	0.416044
865.569116	0.416426
865.754688	0.416482
865.940242	0.415938
866.125777	0.415927
866.311295	0.416782
866.496794	0.417323
866.682275	0.417834
866.867737	0.418192
867.053182	0.418300
867.238608	0.418261
867.424016	0.418470
867.609406	0.419118
867.794778	0.419075
867.980131	0.418984
868.165466	0.419172
868.350783	0.419420
868.536082	0.419408
868.721362	0.419603
868.906625	0.419388
869.091869	0.419372
869.277094	0.419596
869.462302	0.420009
869.647491	0.420217
869.832662	0.420282
870.017815	0.420618
870.202950	0.421181
870.388066	0.421521
870.573165	0.422446
870.758245	0.423116
870.943306	0.423090
871.128350	0.423318
871.313375	0.423941
871.498382	0.424437
871.683371	0.424455
871.868342	0.424562
872.053294	0.424877
872.238229	0.424950
872.423144	0.425081
872.608042	0.425277
872.792922	0.425848
872.977783	0.425845
873.162626	0.425899
873.347451	0.426230
873.532258	0.426291
873.717046	0.426585
873.901816	0.426855
874.086568	0.427421
874.271302	0.427629
874.456017	0.427912
874.640715	0.427940
874.825394	0.428154
875.010055	0.428365
875.194697	0.428317
875.379322	0.428231
875.563928	0.428499
875.748516	0.427875
875.933085	0.428173
876.117637	0.427929
876.302170	0.428085
876.486685	0.428497
876.671182	0.428518
876.855661	0.429260
877.040121	0.429524
877.224563	0.429600
877.408987	0.429968
877.593393	0.430202
877.777780	0.430656
877.962150	0.430721
878.146501	0.430794
878.330833	0.430431
878.515148	0.430337
878.699444	0.430434
878.883722	0.430270
879.067982	0.430681
879.252224	0.430366
879.436447	0.430284
879.620653	0.430510
879.804840	0.430526
879.989008	0.431086
880.173159	0.430944
880.357291	0.431217
880.541405	0.431587
880.725501	0.431802
880.909579	0.432191
881.093638	0.432170
881.277680	0.432075
881.461703	0.431932
881.645707	0.432201
881.829694	0.432484
882.013662	0.432749
882.197612	0.432854
882.381544	0.432723
882.565458	0.432883
882.749353	0.433713
882.933230	0.434109
883.117089	0.434328
883.300930	0.434257
883.484753	0.434257
883.668557	0.434057
883.852343	0.434050
884.036111	0.434037
884.219861	0.434578
884.403592	0.434146
884.587305	0.434155
884.771000	0.434399
884.954677	0.434749
885.138335	0.435038
885.321976	0.434602
885.505598	0.434326
885.689201	0.434769
885.872787	0.434309
886.056354	0.434161
886.239904	0.433941
886.423434	0.433958
886.606947	0.433523
886.790442	0.433759
886.973918	0.434351
887.157376	0.434856
887.340816	0.435007
887.524237	0.435029
887.707641	0.435323
887.891026	0.435126
888.074393	0.434973
888.257741	0.434906
888.441072	0.434712
888.624384	0.434466
888.807678	0.433242
888.990954	0.433128
889.174211	0.433173
889.357451	0.433150
889.540672	0.433403
889.723875	0.433418
889.907059	0.433666
890.090226	0.433611
890.273374	0.434070
890.456504	0.434831
890.639616	0.434420
890.822709	0.434670
891.005785	0.434337
891.188842	0.433791
891.371881	0.433874
891.554901	0.434008
891.737904	0.434234
891.920888	0.433818
892.103854	0.433985
892.286802	0.433915
892.469731	0.433456
892.652643	0.433137
892.835536	0.433882
893.018410	0.433993
893.201267	0.434091
893.384106	0.433753
893.566926	0.433491
893.749728	0.433574
893.932511	0.433580
894.115277	0.433825
894.298024	0.434321
894.480753	0.434159
894.663464	0.433562
894.846157	0.433031
895.028831	0.432788
895.211487	0.432888
895.394125	0.432820
895.576745	0.432829
895.759346	0.432448
895.941930	0.432269
896.124495	0.432327
896.307041	0.432011
896.489570	0.431341
896.672080	0.431228
896.854573	0.431045
897.037046	0.430417
897.219502	0.430158
897.401940	0.430445
897.584359	0.430338
897.766760	0.429906
897.949143	0.430270
898.131507	0.430542
898.313854	0.430394
898.496182	0.429943
898.678492	0.429857
898.860783	0.429622
899.043057	0.428307
899.225312	0.427826
899.407549	0.427312
899.589768	0.427073
899.771968	0.426713
899.954151	0.426435
900.136315	0.426497
900.318461	0.426363
900.500588	0.425350
900.682698	0.425046
900.864789	0.424839
901.046862	0.424455
901.228917	0.423621
901.410953	0.423129
901.592971	0.422604
901.774972	0.422193
901.956953	0.421533
902.138917	0.421851
902.320862	0.422008
902.502790	0.421101
902.684699	0.420605
902.866589	0.420467
903.048462	0.420306
903.230316	0.419806
903.412152	0.418914
903.593970	0.419009
903.775770	0.418153
903.957551	0.417976
904.139314	0.418158
904.321059	0.418251
904.502786	0.418325
904.684494	0.418250
904.866185	0.418455
905.047857	0.418344
905.229510	0.417499
905.411146	0.418041
905.592763	0.417591
905.774363	0.417168
905.955943	0.416717
906.137506	0.415515
906.319051	0.415400
906.500577	0.414957
906.682085	0.414719
906.863575	0.415143
907.045046	0.414118
907.226500	0.413589
907.407935	0.412967
907.589352	0.412979
907.770750	0.413513
907.952131	0.413513
908.133493	0.412510
908.314837	0.412105
908.496163	0.411349
908.677470	0.411423
908.858760	0.411105
909.040031	0.411042
909.221284	0.410637
909.402518	0.409180
909.583735	0.408217
909.764933	0.408041
909.946113	0.407293
910.127275	0.406623
910.308418	0.405939
910.489544	0.404898
910.670651	0.403785
910.851740	0.402726
911.032810	0.402544
911.213863	0.401633
911.394897	0.401323
911.575913	0.401609
911.756911	0.401471
911.937890	0.400883
912.118851	0.401051
912.299794	0.401179
912.480719	0.400607
912.661626	0.400444
912.842514	0.400699
913.023384	0.400355
913.204236	0.399231
913.385070	0.398447
913.565886	0.397708
913.746683	0.397310
913.927462	0.396526
914.108223	0.396532
914.288965	0.396183
914.469690	0.394846
914.650396	0.393746
914.831084	0.393392
915.011754	0.393318
915.192405	0.393238
915.373038	0.392541
915.553653	0.392194
915.734250	0.392010
915.914829	0.391595
916.095389	0.391070
916.275931	0.390719
916.456455	0.390151
916.636961	0.389092
916.817448	0.388363
916.997917	0.387881
917.178368	0.387179
917.358801	0.385957
917.539216	0.384754
917.719612	0.383867
917.899990	0.383249
918.080350	0.382271
918.260692	0.381793
918.441015	0.380321
918.621320	0.379351
918.801607	0.378530
918.981876	0.376579
919.162127	0.375573
919.342359	0.374844
919.522573	0.374263
919.702769	0.374231
919.882947	0.372872
920.063106	0.372858
920.243247	0.372279
920.423370	0.371649
920.603475	0.372643
920.783562	0.372165
920.963630	0.372114
921.143680	0.372303
921.323712	0.371350
921.503725	0.371258
921.683721	0.370898
921.863698	0.370755
922.043657	0.370431
922.223598	0.369336
922.403520	0.368986
922.583424	0.367507
922.763311	0.366357
922.943178	0.365457
923.123028	0.364267
923.302859	0.363390
923.482673	0.362734
923.662467	0.361213
923.842244	0.360745
924.022003	0.359616
924.201743	0.359210
924.381465	0.358014
924.561169	0.356737
924.740854	0.355741
924.920522	0.354768
925.100171	0.353108
925.279802	0.352511
925.459414	0.351140
925.639009	0.350963
925.818585	0.350446
925.998143	0.349193
926.177683	0.348463
926.357205	0.347731
926.536708	0.346593
926.716193	0.345856
926.895660	0.345149
927.075109	0.343401
927.254539	0.342041
927.433951	0.341005
927.613345	0.341029
927.792721	0.341024
927.972079	0.340321
928.151418	0.339581
928.330739	0.338918
928.510042	0.338228
928.689327	0.338433
928.868593	0.337674
929.047841	0.336819
929.227071	0.335439
929.406283	0.333244
929.585476	0.332471
929.764652	0.331116
929.943809	0.329691
930.122948	0.328297
930.302068	0.327692
930.481171	0.326801
930.660255	0.325767
930.839321	0.324391
931.018369	0.323962
931.197398	0.322335
931.376409	0.321422
931.555402	0.320559
931.734377	0.320091
931.913334	0.318289
932.092272	0.316680
932.271192	0.315535
932.450094	0.313948
932.628978	0.313714
932.807844	0.313519
932.986691	0.312809
933.165520	0.311467
933.344331	0.309306
933.523123	0.308383
933.701898	0.308076
933.880654	0.306989
934.059392	0.306420
934.238111	0.304614
934.416813	0.304140
934.595496	0.303451
934.774161	0.303057
934.952808	0.302751
935.131437	0.301887
935.310047	0.300226
935.488639	0.298773
935.667213	0.298690
935.845769	0.297922
936.024306	0.296075
936.202825	0.294935
936.381326	0.293971
936.559809	0.293193
936.738274	0.293292
936.916720	0.292802
937.095148	0.291924
937.273558	0.291106
937.451950	0.290503
937.630323	0.289678
937.808678	0.288223
937.987015	0.287863
938.165334	0.286680
938.343635	0.285047
938.521917	0.284711
938.700181	0.284961
938.878427	0.283324
939.056655	0.281903
939.234864	0.281733
939.413055	0.281805
939.591228	0.279508
939.769383	0.278730
939.947519	0.277781
940.125638	0.275743
940.303738	0.274153
940.481820	0.272590
940.659883	0.271997
940.837929	0.270148
941.015956	0.269035
941.193965	0.270177
941.371955	0.268876
941.549928	0.267693
941.727882	0.265762
941.905818	0.264070
942.083736	0.263561
942.261636	0.261889
942.439517	0.261458
942.617380	0.259778
942.795225	0.257067
942.973052	0.255795
943.150860	0.254178
943.328651	0.253668
943.506423	0.252674
943.684176	0.251230
943.861912	0.249985
944.039629	0.247448
944.217328	0.246991
944.395009	0.245513
944.572672	0.244311
944.750317	0.243226
944.927943	0.242219
945.105551	0.242317
945.283141	0.240788
945.460712	0.240779
945.638265	0.239845
945.815801	0.238355
945.993317	0.237260
946.170816	0.236345
946.348297	0.236262
946.525759	0.234547
946.703203	0.232258
946.880629	0.233441
947.058036	0.230568
947.235425	0.230583
947.412797	0.228447
947.590149	0.227081
947.767484	0.225917
947.944800	0.223596
948.122099	0.223449
948.299379	0.221760
948.476640	0.218831
948.653884	0.219280
948.831109	0.216747
949.008316	0.215212
949.185505	0.214550
949.362676	0.213929
949.539828	0.211986
949.716962	0.210219
949.894078	0.209662
950.071176	0.208325
950.248256	0.206995
950.425317	0.205811
950.602360	0.205798
950.779385	0.204960
950.956391	0.204597
951.133380	0.205046
951.310350	0.205331
951.487302	0.203857
951.664235	0.203950
951.841151	0.202875
952.018048	0.202337
952.194927	0.199906
952.371788	0.199024
952.548631	0.195499
952.725455	0.192663
952.902261	0.190938
953.079049	0.191822
953.255819	0.189361
953.432570	0.188559
953.609303	0.188313
953.786018	0.188919
953.962715	0.186266
954.139394	0.186118
954.316054	0.186209
954.492696	0.184042
954.669320	0.180865
954.845926	0.180738
955.022513	0.179014
955.199083	0.176607
955.375634	0.176409
955.552166	0.177315
955.728681	0.177128
955.905177	0.175437
956.081655	0.175166
956.258115	0.174245
956.434557	0.173800
956.610980	0.173306
956.787385	0.172867
956.963772	0.169774
957.140141	0.169231
957.316492	0.169086
957.492824	0.169094
957.669138	0.168816
957.845434	0.170526
958.021712	0.168801
958.197971	0.167493
958.374212	0.167252
958.550435	0.165954
958.726640	0.165511
958.902826	0.164993
959.078995	0.164023
959.255145	0.163825
959.431277	0.162000
959.607390	0.160530
959.783486	0.160372
959.959563	0.159168
960.135622	0.159667
960.311662	0.157220
960.487685	0.155329
960.663689	0.154901
960.839675	0.153973
961.015643	0.153111
961.191593	0.152871
961.367524	0.152725
961.543437	0.152852
961.719332	0.152316
961.895209	0.151112
962.071067	0.150305
962.246907	0.151926
962.422730	0.150974
962.598533	0.150969
962.774319	0.149884
962.950086	0.149338
963.125835	0.149816
963.301566	0.150529
963.477279	0.151731
963.652973	0.152501
963.828650	0.150076
964.004308	0.150439
964.179947	0.151664
964.355569	0.153204
964.531172	0.152329
964.706757	0.154131
964.882324	0.152674
965.057873	0.154137
965.233403	0.154695
965.408916	0.153213
965.584410	0.153911
965.759885	0.153169
965.935343	0.153149
966.110782	0.152609
966.286203	0.148875
966.461606	0.150701
966.636991	0.146746
966.812357	0.143798
966.987705	0.144482
967.163035	0.142005
967.338347	0.140405
967.513641	0.140704
967.688916	0.141075
967.864173	0.140573
968.039412	0.140106
968.214632	0.141622
968.389835	0.143821
968.565019	0.143728
968.740185	0.146299
968.915333	0.150190
969.090462	0.150140
969.265573	0.149628
969.440667	0.151444
969.615741	0.149985
969.790798	0.151100
969.965836	0.153016
970.140856	0.152977
970.315858	0.152473
970.490842	0.148149
970.665808	0.146118
970.840755	0.146151
971.015684	0.142467
971.190595	0.143241
971.365487	0.142044
971.540362	0.137653
971.715218	0.138906
971.890056	0.137348
972.064875	0.135732
972.239677	0.136901
972.414460	0.137548
972.589225	0.140646
972.763972	0.138772
972.938700	0.136934
973.113411	0.137018
973.288103	0.135953
973.462777	0.137202
973.637432	0.138277
973.812070	0.137683
973.986689	0.135829
974.161290	0.135434
974.335873	0.134845
974.510437	0.134993
974.684984	0.136205
974.859512	0.134893
975.034022	0.133237
975.208513	0.131981
975.382987	0.133048
975.557442	0.134900
975.731879	0.133621
975.906298	0.136647
976.080698	0.137036
976.255080	0.138515
976.429445	0.138410
976.603790	0.141290
976.778118	0.142612
976.952427	0.141177
977.126719	0.140886
977.300992	0.142979
977.475246	0.140511
977.649483	0.143775
977.823701	0.144458
977.997901	0.145755
978.172083	0.145327
978.346247	0.146845
978.520392	0.146366
978.694519	0.145660
978.868628	0.146351
979.042719	0.148368
979.216791	0.146045
979.390845	0.144222
979.564882	0.143929
979.738899	0.142739
979.912899	0.142047
980.086880	0.142756
980.260843	0.141879
980.434788	0.139306
980.608715	0.140413
980.782623	0.140254
980.956514	0.139920
981.130386	0.140457
981.304240	0.140046
981.478075	0.139982
981.651892	0.138806
981.825692	0.139489
981.999472	0.142011
982.173235	0.141004
982.346980	0.140336
982.520706	0.142299
982.694414	0.142093
982.868104	0.141859
983.041775	0.142013
983.215428	0.144668
983.389064	0.145314
983.562680	0.143127
983.736279	0.143348
983.909860	0.142907
984.083422	0.140054
984.256966	0.139789
984.430491	0.139533
984.603999	0.140119
984.777488	0.138352
984.950959	0.138816
985.124412	0.141812
985.297847	0.140371
985.471263	0.141818
985.644661	0.143744
985.818041	0.145654
985.991403	0.146132
986.164747	0.146436
986.338072	0.145856
986.511379	0.147795
986.684668	0.145596
986.857938	0.146623
987.031191	0.146269
987.204425	0.146939
987.377641	0.144248
987.550839	0.143371
987.724018	0.142938
987.897179	0.144168
988.070322	0.142193
988.243447	0.141909
988.416554	0.141085
988.589642	0.140995
988.762712	0.139065
988.935764	0.139989
989.108798	0.140001
989.281813	0.139812
989.454811	0.138413
989.627790	0.137318
989.800751	0.139673
989.973693	0.139033
990.146617	0.139792
990.319524	0.142713
990.492412	0.143643
990.665281	0.145343
990.838133	0.145612
991.010966	0.146328
991.183781	0.146330
991.356578	0.144800
991.529356	0.145533
991.702117	0.144762
991.874859	0.141949
992.047583	0.140754
992.220288	0.139311
992.392976	0.137334
992.565645	0.137505
992.738296	0.137371
992.910929	0.136488
993.083543	0.136837
993.256139	0.137275
993.428718	0.137404
993.601277	0.137725
993.773819	0.139074
993.946342	0.140861
994.118848	0.141719
994.291335	0.142949
994.463803	0.143557
994.636254	0.141837
994.808686	0.141918
994.981100	0.142968
995.153496	0.143868
995.325874	0.143319
995.498233	0.143290
995.670574	0.141130
995.842897	0.140221
996.015202	0.139627
996.187488	0.141333
996.359757	0.141837
996.532007	0.140201
996.704239	0.139885
996.876452	0.140685
997.048648	0.141048
997.220825	0.144237
997.392984	0.144125
997.565124	0.144014
997.737247	0.143201
997.909351	0.143649
998.081437	0.143082
998.253505	0.142203
998.425554	0.141709
998.597586	0.140873
998.769599	0.137911
998.941594	0.139670
999.113571	0.141028
999.285529	0.141730
999.457469	0.142285
999.629391	0.144435
999.801295	0.144287
999.973181	0.144047
1000.145048	0.142126
1000.316897	0.142729
1000.488728	0.142005
1000.660541	0.141018
1000.832335	0.139864
1001.004111	0.138525
1001.175869	0.138989
1001.347609	0.139946
1001.519331	0.140510
1001.691034	0.142968
1001.862719	0.143605
1002.034386	0.143079
1002.206035	0.142356
1002.377665	0.143688
1002.549277	0.144500
1002.720871	0.144032
1002.892447	0.142360
1003.064004	0.143067
1003.235544	0.142302
1003.407065	0.142972
1003.578568	0.143882
1003.750052	0.144809
1003.921519	0.144821
1004.092967	0.144239
1004.264397	0.144185
1004.435809	0.145000
1004.607202	0.144147
1004.778577	0.146622
1004.949934	0.144467
1005.121273	0.144381
1005.292594	0.146702
1005.463896	0.146310
1005.635180	0.145195
1005.806446	0.144769
1005.977694	0.143589
1006.148923	0.143578
1006.320135	0.141585
1006.491328	0.142075
1006.662503	0.141394
1006.833659	0.139389
1007.004798	0.139631
1007.175918	0.140803
1007.347020	0.141066
1007.518103	0.141969
1007.689169	0.142573
1007.860216	0.140464
1008.031245	0.140837
1008.202256	0.140560
1008.373248	0.142117
1008.544223	0.141311
1008.715179	0.141742
1008.886117	0.140501
1009.057036	0.141520
1009.227938	0.141250
1009.398821	0.144053
1009.569686	0.143817
1009.740533	0.142351
1009.911361	0.142044
1010.082172	0.142116
1010.252964	0.140815
1010.423738	0.142695
1010.594493	0.142498
1010.765231	0.141936
1010.935950	0.141874
1011.106651	0.141808
1011.277334	0.144584
1011.447998	0.142130
1011.618645	0.142251
1011.789273	0.143591
1011.959882	0.141905
1012.130474	0.140487
1012.301048	0.139524
1012.471603	0.137843
1012.642140	0.138583
1012.812658	0.138560
1012.983159	0.140356
1013.153641	0.140963
1013.324105	0.139597
1013.494551	0.139350
1013.664979	0.140281
1013.835388	0.141164
1014.005779	0.141881
1014.176152	0.140903
1014.346507	0.139822
1014.516843	0.139870
1014.687162	0.140363
1014.857462	0.143109
1015.027744	0.141831
1015.198007	0.142227
1015.368252	0.142473
1015.538480	0.143763
1015.708689	0.145014
1015.878879	0.145511
1016.049052	0.143897
1016.219206	0.143175
1016.389342	0.139669
1016.559460	0.141391
1016.729559	0.142481
1016.899641	0.141246
1017.069704	0.139861
1017.239749	0.139129
1017.409775	0.138725
1017.579784	0.137680
1017.749774	0.138094
1017.919746	0.139320
1018.089700	0.139813
1018.259635	0.138205
1018.429553	0.140380
1018.599452	0.142284
1018.769333	0.143969
1018.939195	0.145210
1019.109040	0.147658
1019.278866	0.145684
1019.448674	0.146272
1019.618464	0.145714
1019.788235	0.148518
1019.957989	0.147202
1020.127724	0.145826
1020.297441	0.144458
1020.467139	0.143637
1020.636820	0.141388
1020.806482	0.142579
1020.976126	0.142434
1021.145752	0.141895
1021.315359	0.138452
1021.484948	0.138705
1021.654519	0.136409
1021.824072	0.137603
1021.993607	0.137480
1022.163123	0.140302
1022.332621	0.139765
1022.502101	0.138971
1022.671563	0.141446
1022.841007	0.142271
1023.010432	0.141940
1023.179839	0.144497
1023.349228	0.145280
1023.518598	0.144601
1023.687951	0.142926
1023.857285	0.143670
1024.026601	0.145808
1024.195899	0.144396
1024.365178	0.144032
1024.534439	0.143536
1024.703682	0.144833
1024.872907	0.143502
1025.042114	0.144708
1025.211302	0.145253
1025.380472	0.145625
1025.549624	0.142952
1025.718758	0.142185
1025.887873	0.141456
1026.056970	0.143373
1026.226049	0.140584
1026.395110	0.140329
1026.564153	0.140084
1026.733177	0.140488
1026.902183	0.140578
1027.071171	0.142505
1027.240141	0.143573
1027.409092	0.143818
1027.578026	0.143694
1027.746940	0.145043
1027.915837	0.144122
1028.084716	0.143542
1028.253576	0.145016
1028.422418	0.145978
1028.591242	0.145680
1028.760048	0.144934
1028.928835	0.145197
1029.097604	0.144285
1029.266355	0.143297
1029.435088	0.142596
1029.603803	0.141415
1029.772499	0.140241
1029.941177	0.137820
1030.109837	0.137437
1030.278478	0.137053
1030.447102	0.139864
1030.615707	0.138181
1030.784294	0.137367
1030.952863	0.139066
1031.121413	0.139156
1031.289945	0.137582
1031.458460	0.137719
1031.626955	0.137241
1031.795433	0.136387
1031.963892	0.133817
1032.132334	0.135093
1032.300756	0.135469
1032.469161	0.134574
1032.637548	0.134318
1032.805916	0.135889
1032.974266	0.136086
1033.142598	0.136511
1033.310911	0.137181
1033.479207	0.137142
1033.647484	0.137717
1033.815743	0.138358
1033.983983	0.138733
1034.152206	0.140379
1034.320410	0.138804
1034.488596	0.139889
1034.656764	0.140998
1034.824914	0.142738
1034.993045	0.143607
1035.161158	0.143132
1035.329253	0.142901
1035.497330	0.142419
1035.665388	0.142045
1035.833428	0.142007
1036.001450	0.141785
1036.169454	0.137712
1036.337440	0.136588
1036.505407	0.135753
1036.673356	0.135697
1036.841287	0.135562
1037.009200	0.134658
1037.177094	0.135571
1037.344970	0.136219
1037.512828	0.136486
1037.680668	0.138350
1037.848489	0.138270
1038.016293	0.137870
1038.184078	0.138432
1038.351845	0.139401
1038.519593	0.139983
1038.687324	0.139623
1038.855036	0.139584
1039.022730	0.138775
1039.190406	0.140267
1039.358063	0.141054
1039.525702	0.143066
1039.693323	0.142771
1039.860926	0.143875
1040.028511	0.145977
1040.196077	0.146070
1040.363625	0.144820
1040.531155	0.145013
1040.698667	0.145454
1040.866161	0.144696
1041.033636	0.144541
1041.201093	0.144112
1041.368532	0.142413
1041.535952	0.142691
1041.703355	0.141123
1041.870739	0.142144
1042.038105	0.141488
1042.205452	0.140422
1042.372782	0.141093
1042.540093	0.139910
1042.707386	0.140058
1042.874661	0.141614
1043.041918	0.138528
1043.209156	0.140321
1043.376376	0.141701
1043.543578	0.140612
1043.710762	0.140799
1043.877927	0.139360
1044.045074	0.140082
1044.212203	0.141941
1044.379314	0.143349
1044.546407	0.144848
1044.713481	0.144644
1044.880537	0.143623
1045.047575	0.146192
1045.214595	0.145759
1045.381596	0.147374
1045.548579	0.146121
1045.715544	0.144180
1045.882491	0.141877
1046.049420	0.143154
1046.216330	0.143423
1046.383222	0.144090
1046.550096	0.143303
1046.716951	0.144534
1046.883789	0.143382
1047.050608	0.144780
1047.217409	0.144688
1047.384192	0.144529
1047.550956	0.143863
1047.717703	0.142199
1047.884431	0.141663
1048.051140	0.141224
1048.217832	0.138786
1048.384505	0.140001
1048.551161	0.139146
1048.717798	0.139226
1048.884416	0.138484
1049.051017	0.138430
1049.217599	0.137495
1049.384163	0.137094
1049.550709	0.136902
1049.717237	0.138056
1049.883746	0.136780
1050.050237	0.135942
1050.216710	0.137581
1050.383165	0.140502
1050.549601	0.140421
1050.716019	0.142797
1050.882420	0.142900
1051.048801	0.143013
1051.215165	0.142223
1051.381510	0.143898
1051.547837	0.145313
1051.714146	0.144335
1051.880437	0.141579
1052.046709	0.140351
1052.212964	0.140773
1052.379200	0.141039
1052.545417	0.142456
1052.711617	0.142604
1052.877798	0.142811
1053.043961	0.142222
1053.210106	0.139793
1053.376233	0.138885
1053.542341	0.139683
1053.708432	0.138651
1053.874504	0.138989
1054.040557	0.139308
1054.206593	0.139206
1054.372610	0.138648
1054.538609	0.139038
1054.704590	0.140246
1054.870553	0.143358
1055.036497	0.142979
1055.202424	0.144782
1055.368331	0.142971
1055.534221	0.142785
1055.700093	0.143564
1055.865946	0.142219
1056.031781	0.140759
1056.197598	0.140986
1056.363397	0.139880
1056.529177	0.142026
1056.694939	0.139600
1056.860683	0.143159
1057.026409	0.142182
1057.192116	0.142857
1057.357806	0.144313
1057.523477	0.145192
1057.689130	0.147180
1057.854764	0.146392
1058.020381	0.144009
1058.185979	0.144386
1058.351559	0.141299
1058.517120	0.139872
1058.682664	0.140047
1058.848189	0.140142
1059.013696	0.140003
1059.179185	0.139676
1059.344656	0.138491
1059.510108	0.138888
1059.675542	0.138527
1059.840958	0.138310
1060.006356	0.140850
1060.171735	0.140411
1060.337096	0.140540
1060.502439	0.141836
1060.667764	0.141538
1060.833071	0.143452
1060.998359	0.143441
1061.163629	0.145425
1061.328881	0.143822
1061.494115	0.143756
1061.659330	0.143870
1061.824527	0.142398
1061.989706	0.140132
1062.154867	0.141034
1062.320010	0.140441
1062.485134	0.140577
1062.650240	0.139937
1062.815328	0.145082
1062.980398	0.143580
1063.145449	0.142961
1063.310482	0.144292
1063.475497	0.145443
1063.640494	0.143547
1063.805473	0.144581
1063.970433	0.146498
1064.135375	0.146446
1064.300299	0.143684
1064.465204	0.143582
1064.630092	0.145398
1064.794961	0.144125
1064.959812	0.145181
1065.124645	0.147287
1065.289459	0.147506
1065.454256	0.145502
1065.619034	0.143341
1065.783793	0.142954
1065.948535	0.143793
1066.113258	0.143617
1066.277964	0.144614
1066.442651	0.145373
1066.607319	0.145057
1066.771970	0.143761
1066.936602	0.142362
1067.101216	0.145755
1067.265812	0.145167
1067.430389	0.146598
1067.594949	0.145908
1067.759490	0.145242
1067.924013	0.144320
1068.088518	0.142964
1068.253004	0.142969
1068.417472	0.145766
1068.581922	0.146443
1068.746354	0.148509
1068.910768	0.148036
1069.075163	0.148268
1069.239540	0.148101
1069.403899	0.151107
1069.568240	0.152630
1069.732562	0.154501
1069.896866	0.153687
1070.061152	0.151877
1070.225420	0.151309
1070.389670	0.150098
1070.553901	0.152109
1070.718114	0.151330
1070.882309	0.148165
1071.046486	0.148251
1071.210644	0.147741
1071.374784	0.146034
1071.538906	0.143993
1071.703010	0.143461
1071.867096	0.144291
1072.031163	0.144117
1072.195212	0.144140
1072.359243	0.142924
1072.523256	0.141566
1072.687250	0.141518
1072.851226	0.141868
1073.015184	0.141811
1073.179124	0.142334
1073.343045	0.143694
1073.506949	0.141461
1073.670834	0.141999
1073.834701	0.145148
1073.998549	0.144622
1074.162380	0.145501
1074.326192	0.147945
1074.489986	0.149635
1074.653761	0.151642
1074.817519	0.150548
1074.981258	0.151633
1075.144979	0.153972
1075.308682	0.149933
1075.472367	0.152037
1075.636033	0.151256
1075.799681	0.152284
1075.963311	0.153377
1076.126923	0.153060
1076.290516	0.151917
1076.454092	0.149011
1076.617649	0.146456
1076.781187	0.148252
1076.944708	0.148212
1077.108210	0.146645
1077.271695	0.144468
1077.435160	0.143789
1077.598608	0.142310
1077.762038	0.141176
1077.925449	0.143138
1078.088842	0.143513
1078.252217	0.144092
1078.415573	0.144030
1078.578912	0.147205
1078.742232	0.147061
1078.905534	0.149609
1079.068817	0.150781
1079.232083	0.152855
1079.395330	0.152569
1079.558559	0.155071
1079.721770	0.155211
1079.884962	0.153906
1080.048136	0.151078
1080.211293	0.153785
1080.374430	0.149929
1080.537550	0.150104
1080.700651	0.150375
1080.863735	0.150091
1081.026800	0.150139
1081.189846	0.148539
1081.352875	0.147659
1081.515885	0.150059
1081.678877	0.149102
1081.841851	0.150452
1082.004807	0.146091
1082.167744	0.148188
1082.330663	0.150489
1082.493564	0.150030
1082.656447	0.152142
1082.819312	0.154284
1082.982158	0.152138
1083.144986	0.148095
1083.307796	0.148881
1083.470587	0.151347
1083.633361	0.147846
1083.796116	0.145888
1083.958853	0.144675
1084.121571	0.146591
1084.284272	0.145968
1084.446954	0.147077
1084.609618	0.152109
1084.772264	0.151306
1084.934892	0.154041
1085.097501	0.155672
1085.260092	0.155702
1085.422665	0.156070
1085.585220	0.155316
1085.747756	0.156783
1085.910274	0.158489
1086.072774	0.159412
1086.235256	0.159244
1086.397720	0.157513
1086.560165	0.154344
1086.722592	0.156727
1086.885001	0.155877
1087.047392	0.155780
1087.209764	0.153074
1087.372119	0.151848
1087.534455	0.150163
1087.696772	0.151510
1087.859072	0.152327
1088.021353	0.157740
1088.183616	0.158763
1088.345861	0.159993
1088.508088	0.156132
1088.670296	0.158159
1088.832486	0.155687
1088.994658	0.155555
1089.156812	0.157853
1089.318948	0.155240
1089.481065	0.152560
1089.643164	0.151991
1089.805245	0.152327
1089.967308	0.156520
1090.129352	0.157723
1090.291378	0.161766
1090.453386	0.164331
1090.615376	0.161428
1090.777347	0.166075
1090.939301	0.168614
1091.101236	0.167628
1091.263153	0.166768
1091.425051	0.165424
1091.586932	0.164733
1091.748794	0.162054
1091.910638	0.161460
1092.072463	0.164275
1092.234271	0.164400
1092.396060	0.163786
1092.557831	0.162416
1092.719584	0.163693
1092.881319	0.163216
1093.043035	0.163231
1093.204733	0.163422
1093.366413	0.160578
1093.528075	0.159279
1093.689718	0.156878
1093.851343	0.152868
1094.012950	0.151162
1094.174539	0.151064
1094.336110	0.152976
1094.497662	0.152506
1094.659196	0.152730
1094.820712	0.155067
1094.982210	0.153368
1095.143689	0.156914
1095.305151	0.159539
1095.466594	0.161861
1095.628018	0.161554
1095.789425	0.160625
1095.950813	0.162340
1096.112183	0.161443
1096.273535	0.161101
1096.434869	0.163593
1096.596184	0.163818
1096.757482	0.164270
1096.918761	0.166046
1097.080021	0.167566
1097.241264	0.168115
1097.402488	0.168179
1097.563694	0.174541
1097.724882	0.173331
1097.886052	0.171831
1098.047203	0.167421
1098.208336	0.166714
1098.369451	0.167607
1098.530548	0.169503
1098.691627	0.171812
1098.852687	0.169459
1099.013729	0.165814
1099.174753	0.166642
1099.335758	0.169391
1099.496746	0.169604
1099.657715	0.171649
1099.818666	0.168697
1099.979599	0.169546
1100.140513	0.170906
1100.301409	0.172671
1100.462287	0.172434
1100.623147	0.170913
1100.783989	0.168322
1100.944812	0.168152
1101.105617	0.168885
1101.266404	0.173722
1101.427173	0.169436
1101.587923	0.162688
1101.748656	0.162518
1101.909370	0.159214
1102.070066	0.162443
1102.230743	0.164544
1102.391403	0.165945
1102.552044	0.162431
1102.712667	0.158103
1102.873271	0.158882
1103.033858	0.162445
1103.194426	0.161274
1103.354976	0.163699
1103.515508	0.164197
1103.676021	0.165936
1103.836517	0.164680
1103.996994	0.167899
1104.157453	0.170844
1104.317893	0.173706
1104.478316	0.171040
1104.638720	0.170234
1104.799106	0.163861
1104.959474	0.163177
1105.119823	0.159078
1105.280155	0.157603
1105.440468	0.156822
1105.600763	0.158858
1105.761039	0.156881
1105.921298	0.157953
1106.081538	0.157547
1106.241760	0.165667
1106.401964	0.167511
1106.562149	0.170089
1106.722316	0.168532
1106.882465	0.167191
1107.042596	0.160692
1107.202709	0.161502
1107.362803	0.160784
1107.522879	0.162536
1107.682937	0.164402
1107.842977	0.160060
1108.002999	0.156511
1108.163002	0.164310
1108.322987	0.161201
1108.482954	0.159933
1108.642902	0.158901
1108.802833	0.157416
1108.962745	0.154461
1109.122639	0.152547
1109.282515	0.152969
1109.442372	0.156880
1109.602211	0.152811
1109.762032	0.154799
1109.921835	0.156168
1110.081620	0.157821
1110.241386	0.163357
1110.401134	0.170701
1110.560864	0.169993
1110.720576	0.172763
1110.880269	0.170694
1111.039945	0.171301
1111.199602	0.174166
1111.359240	0.177234
1111.518861	0.175952
1111.678463	0.170332
1111.838047	0.168660
1111.997613	0.167096
1112.157161	0.165585
1112.316690	0.169819
1112.476202	0.173707
1112.635695	0.173036
1112.795169	0.177493
1112.954626	0.176377
1113.114064	0.182184
1113.273484	0.179444
1113.432886	0.186168
1113.592270	0.185467
1113.751635	0.178324
1113.910983	0.171575
1114.070312	0.170409
1114.229622	0.168891
1114.388915	0.171421
1114.548189	0.171803
1114.707445	0.171025
1114.866683	0.164200
1115.025903	0.168863
1115.185104	0.171916
1115.344287	0.177994
1115.503452	0.181587
1115.662599	0.182584
1115.821727	0.177525
1115.980838	0.179522
1116.139930	0.179040
1116.299004	0.182038
1116.458059	0.175707
1116.617097	0.175351
1116.776116	0.174094
1116.935117	0.170925
1117.094099	0.166434
1117.253064	0.168411
1117.412010	0.162617
1117.570938	0.165238
1117.729848	0.163763
1117.888740	0.165804
1118.047613	0.167633
1118.206468	0.166416
1118.365305	0.168024
1118.524124	0.165512
1118.682924	0.165866
1118.841707	0.166393
1119.000471	0.168595
1119.159216	0.170586
1119.317944	0.173751
1119.476653	0.175182
1119.635344	0.181114
1119.794017	0.184680
1119.952672	0.189819
1120.111308	0.194142
1120.269927	0.196019
1120.428527	0.193993
1120.587108	0.195978
1120.745672	0.194653
1120.904217	0.196895
1121.062744	0.188035
1121.221253	0.185827
1121.379744	0.181237
1121.538216	0.178120
1121.696671	0.175813
1121.855107	0.177156
1122.013524	0.179859
1122.171924	0.178461
1122.330305	0.175129
1122.488668	0.176158
1122.647013	0.176893
1122.805340	0.183166
1122.963648	0.187379
1123.121938	0.187383
1123.280210	0.191483
1123.438464	0.183472
1123.596700	0.181444
1123.754917	0.181606
1123.913116	0.179996
1124.071297	0.174919
1124.229459	0.169527
1124.387604	0.164343
1124.545730	0.166968
1124.703838	0.157924
1124.861928	0.159327
1125.019999	0.161318
1125.178052	0.159686
1125.336088	0.165015
1125.494104	0.168827
1125.652103	0.167489
1125.810083	0.170232
1125.968045	0.168675
1126.125989	0.174204
1126.283915	0.174863
1126.441823	0.176883
1126.599712	0.180110
1126.757583	0.178116
1126.915436	0.181423
1127.073270	0.181651
1127.231087	0.178533
1127.388885	0.183194
1127.546665	0.182415
1127.704426	0.183623
1127.862170	0.183331
1128.019895	0.178925
1128.177602	0.176084
1128.335291	0.172224
1128.492961	0.172825
1128.650614	0.175061
1128.808248	0.175747
1128.965864	0.176711
1129.123461	0.174642
1129.281041	0.170182
1129.438602	0.166274
1129.596145	0.166231
1129.753670	0.171012
1129.911176	0.171931
1130.068665	0.168967
1130.226135	0.168872
1130.383587	0.168312
1130.541020	0.170489
1130.698436	0.169529
1130.855833	0.171087
1131.013212	0.174580
1131.170573	0.169109
1131.327915	0.173322
1131.485239	0.181377
1131.642545	0.176433
1131.799833	0.165435
1131.957103	0.165339
1132.114354	0.167565
1132.271588	0.167796
1132.428803	0.167314
1132.585999	0.168329
1132.743178	0.170588
1132.900338	0.160869
1133.057480	0.167563
1133.214604	0.175992
1133.371710	0.175214
1133.528797	0.168824
1133.685866	0.169693
1133.842917	0.171357
1133.999950	0.174853
1134.156964	0.169750
1134.313960	0.174810
1134.470938	0.170288
1134.627898	0.168640
1134.784840	0.174462
1134.941763	0.184911
1135.098668	0.181644
1135.255555	0.175407
1135.412424	0.175915
1135.569274	0.176842
1135.726107	0.182080
1135.882921	0.183926
1136.039716	0.190727
1136.196494	0.182122
1136.353253	0.177996
1136.509995	0.181705
1136.666717	0.188321
1136.823422	0.180670
1136.980109	0.184345
1137.136777	0.179935
1137.293427	0.182716
1137.450059	0.179551
1137.606672	0.179647
1137.763267	0.183291
1137.919844	0.183200
1138.076403	0.186697
1138.232944	0.185523
1138.389466	0.177697
1138.545971	0.183364
1138.702457	0.178310
1138.858924	0.182197
1139.015374	0.180925
1139.171805	0.177253
1139.328218	0.180525
1139.484613	0.176691
1139.640990	0.184125
1139.797348	0.195690
1139.953688	0.193635
1140.110010	0.195409
1140.266314	0.193502
1140.422600	0.203014
1140.578867	0.202268
1140.735116	0.202258
1140.891347	0.199718
1141.047559	0.194192
1141.203754	0.198634
1141.359930	0.189390
1141.516088	0.189161
1141.672228	0.188619
1141.828349	0.183572
1141.984452	0.187810
1142.140537	0.183550
1142.296604	0.187071
1142.452653	0.192742
1142.608683	0.190611
1142.764695	0.193729
1142.920689	0.195982
1143.076665	0.194178
1143.232622	0.195483
1143.388562	0.189495
1143.544483	0.193336
1143.700385	0.197459
1143.856270	0.197861
1144.012136	0.183469
1144.167985	0.183743
1144.323814	0.176596
1144.479626	0.175632
1144.635420	0.168546
1144.791195	0.172462
1144.946952	0.169941
1145.102691	0.167090
1145.258411	0.169833
1145.414113	0.172780
1145.569798	0.179033
1145.725463	0.177497
1145.881111	0.172603
1146.036741	0.173478
1146.192352	0.173443
1146.347945	0.174665
1146.503519	0.170919
1146.659076	0.163693
1146.814614	0.167412
1146.970134	0.161973
1147.125636	0.163199
1147.281120	0.167164
1147.436585	0.175264
1147.592032	0.173160
1147.747461	0.179039
1147.902872	0.183356
1148.058265	0.188420
1148.213639	0.189410
1148.368995	0.188909
1148.524333	0.197662
1148.679653	0.194089
1148.834954	0.191794
1148.990237	0.181751
1149.145502	0.176513
1149.300749	0.172477
1149.455977	0.173020
1149.611188	0.169305
1149.766380	0.171447
1149.921553	0.161778
1150.076709	0.165275
1150.231846	0.164236
1150.386966	0.182994
1150.542066	0.182466
1150.697149	0.182859
1150.852214	0.175414
1151.007260	0.174806
1151.162288	0.168440
1151.317298	0.172796
1151.472289	0.170867
1151.627263	0.171455
1151.782218	0.161369
1151.937155	0.168664
1152.092073	0.172518
1152.246974	0.182694
1152.401856	0.184775
1152.556720	0.197642
1152.711566	0.194078
1152.866393	0.203495
1153.021203	0.198613
1153.175994	0.203053
1153.330767	0.190302
1153.485521	0.180582
1153.640258	0.172462
1153.794976	0.167959
1153.949676	0.162628
1154.104358	0.166083
1154.259021	0.157960
1154.413667	0.159222
1154.568294	0.159554
1154.722903	0.165721
1154.877493	0.160861
1155.032066	0.161847
1155.186620	0.171047
1155.341156	0.172935
1155.495674	0.172518
1155.650173	0.174400
1155.804654	0.175513
1155.959118	0.162826
1156.113562	0.161072
1156.267989	0.169003
1156.422397	0.168563
1156.576788	0.172153
1156.731160	0.169882
1156.885513	0.167684
1157.039849	0.177513
1157.194166	0.176334
1157.348465	0.205325
1157.502746	0.202798
1157.657009	0.206220
1157.811253	0.200392
1157.965479	0.194343
1158.119687	0.197615
1158.273877	0.205309
1158.428048	0.187107
1158.582201	0.196102
1158.736337	0.174237
1158.890453	0.172518
1159.044552	0.167202
1159.198632	0.179381
1159.352694	0.173665
1159.506738	0.169720
1159.660764	0.169773
1159.814771	0.167934
1159.968761	0.162330
1160.122732	0.153050
1160.276685	0.158223
1160.430619	0.159180
1160.584535	0.162643
1160.738434	0.168567
1160.892313	0.164160
1161.046175	0.158963
1161.200019	0.167507
1161.353844	0.156348
1161.507651	0.163439
1161.661440	0.167911
1161.815210	0.174974
1161.968962	0.172556
1162.122697	0.171566
1162.276412	0.173967
1162.430110	0.177348
1162.583789	0.178831
1162.737451	0.184401
1162.891094	0.190056
1163.044718	0.176702
1163.198325	0.170967
1163.351913	0.161591
1163.505483	0.149312
1163.659035	0.147051
1163.812569	0.143088
1163.966084	0.144476
1164.119581	0.143247
1164.273060	0.145323
1164.426521	0.166635
1164.579964	0.160719
1164.733388	0.160040
1164.886794	0.161437
1165.040182	0.171781
1165.193551	0.179575
1165.346903	0.176207
1165.500236	0.181025
1165.653551	0.181909
1165.806848	0.166397
1165.960126	0.171289
1166.113386	0.165999
1166.266628	0.156150
1166.419852	0.157012
1166.573058	0.144355
1166.726245	0.144895
1166.879414	0.146268
1167.032565	0.137102
1167.185698	0.139526
1167.338812	0.138903
1167.491909	0.142064
1167.644987	0.156208
1167.798046	0.150231
1167.951088	0.155369
1168.104111	0.166160
1168.257117	0.164583
1168.410103	0.170366
1168.563072	0.171102
1168.716023	0.174342
1168.868955	0.177842
1169.021869	0.195321
1169.174765	0.182568
1169.327642	0.184028
1169.480501	0.174905
1169.633343	0.168935
1169.786165	0.173586
1169.938970	0.174821
1170.091757	0.172325
1170.244525	0.170512
1170.397275	0.165319
1170.550007	0.178110
1170.702720	0.168503
1170.855415	0.167114
1171.008092	0.182922
1171.160751	0.187893
1171.313392	0.191690
1171.466014	0.181108
1171.618619	0.244777
1171.771205	0.244777
1171.923772	0.244777
