sample name	sample
index	268
start time	 02-25-2021  11:26:01 AM


Wavelength (nm)	Absorbance
494.344910	-0.069315
494.563924	-0.069315
494.782919	-0.069315
495.001897	0.010418
495.220856	0.011738
495.439797	0.066129
495.658719	0.075759
495.877624	0.094767
496.096510	0.072463
496.315378	0.124693
496.534227	0.158225
496.753059	0.169151
496.971872	0.172276
497.190667	0.069934
497.409444	0.062788
497.628203	0.065074
497.846943	0.064267
498.065665	0.064493
498.284369	0.062552
498.503055	0.062161
498.721723	0.061425
498.940372	0.060692
499.159003	0.060585
499.377616	0.060853
499.596210	0.060165
499.814787	0.059679
500.033345	0.058820
500.251885	0.059389
500.470406	0.059219
500.688910	0.059752
500.907395	0.060067
501.125862	0.061435
501.344311	0.060129
501.562742	0.059842
501.781154	0.060329
501.999548	0.060936
502.217924	0.061297
502.436282	0.061928
502.654621	0.062369
502.872942	0.061646
503.091245	0.059901
503.309530	0.061100
503.527797	0.061634
503.746045	0.061994
503.964275	0.062389
504.182487	0.062245
504.400681	0.061879
504.618856	0.061119
504.837013	0.062926
505.055152	0.063341
505.273273	0.063396
505.491376	0.062951
505.709460	0.062849
505.927526	0.062662
506.145574	0.061861
506.363604	0.062714
506.581615	0.062544
506.799608	0.061973
507.017583	0.062848
507.235540	0.062414
507.453478	0.062365
507.671399	0.062289
507.889301	0.062640
508.107185	0.063071
508.325050	0.062083
508.542898	0.062652
508.760727	0.063401
508.978538	0.062536
509.196330	0.062949
509.414105	0.062561
509.631861	0.063346
509.849599	0.063809
510.067319	0.063972
510.285021	0.064427
510.502704	0.064337
510.720369	0.063439
510.938016	0.064122
511.155645	0.064088
511.373255	0.064177
511.590848	0.063538
511.808422	0.062578
512.025977	0.062745
512.243515	0.063006
512.461034	0.062797
512.678536	0.063316
512.896018	0.063411
513.113483	0.063690
513.330930	0.064233
513.548358	0.064347
513.765768	0.065684
513.983160	0.065978
514.200533	0.065751
514.417889	0.065410
514.635226	0.065239
514.852545	0.065352
515.069845	0.064886
515.287128	0.065007
515.504392	0.064330
515.721638	0.063926
515.938866	0.063638
516.156075	0.062901
516.373267	0.062936
516.590440	0.063194
516.807594	0.063153
517.024731	0.063468
517.241850	0.063229
517.458950	0.063707
517.676032	0.063182
517.893095	0.063279
518.110141	0.064471
518.327168	0.065264
518.544177	0.065190
518.761168	0.065074
518.978141	0.065011
519.195095	0.065266
519.412031	0.065706
519.628949	0.065508
519.845849	0.065449
520.062731	0.065429
520.279594	0.065435
520.496439	0.065655
520.713266	0.066558
520.930074	0.066326
521.146865	0.067046
521.363637	0.066807
521.580391	0.067715
521.797127	0.067855
522.013844	0.067504
522.230543	0.067837
522.447224	0.067366
522.663887	0.066987
522.880532	0.067743
523.097158	0.067183
523.313766	0.067621
523.530356	0.068170
523.746928	0.068622
523.963481	0.068947
524.180017	0.069120
524.396534	0.069473
524.613032	0.069599
524.829513	0.069902
525.045975	0.070470
525.262420	0.070205
525.478845	0.069795
525.695253	0.069816
525.911643	0.070162
526.128014	0.070108
526.344367	0.070600
526.560702	0.070520
526.777018	0.070425
526.993316	0.070552
527.209597	0.071183
527.425858	0.071304
527.642102	0.071757
527.858328	0.071897
528.074535	0.072052
528.290724	0.072421
528.506894	0.072556
528.723047	0.072509
528.939181	0.072524
529.155297	0.072253
529.371395	0.072829
529.587475	0.072461
529.803536	0.072185
530.019579	0.072066
530.235604	0.071778
530.451611	0.072144
530.667600	0.072390
530.883570	0.072630
531.099522	0.073365
531.315456	0.073542
531.531372	0.074172
531.747269	0.075269
531.963148	0.075894
532.179009	0.076057
532.394852	0.076351
532.610676	0.076527
532.826482	0.077185
533.042271	0.076982
533.258040	0.076506
533.473792	0.076544
533.689525	0.076580
533.905240	0.076466
534.120937	0.077340
534.336616	0.077113
534.552277	0.077281
534.767919	0.076523
534.983543	0.076353
535.199149	0.076704
535.414736	0.076602
535.630306	0.076369
535.845857	0.076351
536.061390	0.076041
536.276904	0.076595
536.492401	0.076234
536.707879	0.076602
536.923339	0.076593
537.138781	0.077167
537.354204	0.077367
537.569610	0.077240
537.784997	0.077417
538.000366	0.077339
538.215716	0.077256
538.431049	0.077673
538.646363	0.077862
538.861659	0.078736
539.076937	0.078521
539.292196	0.078954
539.507438	0.079105
539.722661	0.079390
539.937866	0.079707
540.153052	0.079892
540.368221	0.080123
540.583371	0.080372
540.798503	0.079925
541.013617	0.079903
541.228712	0.079330
541.443789	0.079385
541.658848	0.079430
541.873889	0.079491
542.088912	0.079223
542.303916	0.079559
542.518902	0.079532
542.733870	0.080050
542.948820	0.080377
543.163752	0.081128
543.378665	0.081380
543.593560	0.081415
543.808437	0.081321
544.023295	0.081722
544.238136	0.081965
544.452958	0.082445
544.667762	0.082127
544.882548	0.082037
545.097315	0.082256
545.312064	0.082411
545.526795	0.082983
545.741508	0.083292
545.956203	0.083017
546.170879	0.083088
546.385537	0.082838
546.600177	0.083452
546.814799	0.083400
547.029402	0.083237
547.243988	0.083471
547.458555	0.083309
547.673103	0.083993
547.887634	0.084455
548.102146	0.084777
548.316640	0.084940
548.531116	0.085142
548.745574	0.085200
548.960013	0.085708
549.174435	0.085647
549.388838	0.085557
549.603222	0.085046
549.817589	0.085257
550.031937	0.085164
550.246267	0.085606
550.460579	0.085654
550.674873	0.085904
550.889148	0.085580
551.103405	0.085597
551.317644	0.085954
551.531865	0.086297
551.746068	0.086186
551.960252	0.086317
552.174418	0.086108
552.388566	0.086152
552.602696	0.086516
552.816807	0.086368
553.030900	0.086467
553.244975	0.086555
553.459032	0.086642
553.673070	0.086924
553.887091	0.086913
554.101093	0.087264
554.315077	0.087298
554.529042	0.087654
554.742990	0.088166
554.956919	0.088762
555.170830	0.088609
555.384722	0.088360
555.598597	0.088479
555.812453	0.088460
556.026291	0.088330
556.240111	0.088395
556.453913	0.088486
556.667696	0.088229
556.881461	0.087874
557.095208	0.087835
557.308937	0.087823
557.522647	0.087685
557.736339	0.087850
557.950013	0.088278
558.163669	0.088275
558.377307	0.088114
558.590926	0.088321
558.804527	0.088624
559.018110	0.089263
559.231675	0.089732
559.445221	0.090139
559.658749	0.090216
559.872259	0.090395
560.085751	0.090467
560.299225	0.090298
560.512680	0.090233
560.726117	0.090222
560.939536	0.089985
561.152937	0.090304
561.366319	0.090129
561.579683	0.090021
561.793029	0.089602
562.006357	0.089672
562.219667	0.090025
562.432958	0.090480
562.646231	0.090569
562.859486	0.090844
563.072723	0.090352
563.285941	0.090797
563.499141	0.091024
563.712323	0.091385
563.925487	0.091839
564.138632	0.091612
564.351760	0.091303
564.564869	0.091623
564.777960	0.091557
564.991032	0.091493
565.204087	0.091409
565.417123	0.091669
565.630141	0.091777
565.843140	0.091502
566.056122	0.091656
566.269085	0.091868
566.482030	0.091698
566.694957	0.092132
566.907866	0.092724
567.120756	0.092783
567.333628	0.092588
567.546482	0.092405
567.759318	0.092767
567.972135	0.093424
568.184935	0.093892
568.397716	0.093831
568.610478	0.093263
568.823223	0.092975
569.035949	0.092928
569.248657	0.093223
569.461347	0.093302
569.674019	0.093286
569.886672	0.092780
570.099308	0.092456
570.311925	0.092804
570.524523	0.093089
570.737104	0.093224
570.949666	0.092964
571.162210	0.093144
571.374736	0.093552
571.587244	0.093471
571.799733	0.093596
572.012205	0.093874
572.224658	0.093840
572.437092	0.094040
572.649509	0.094409
572.861907	0.095099
573.074287	0.095019
573.286649	0.094683
573.498993	0.094958
573.711318	0.095137
573.923625	0.095414
574.135914	0.095414
574.348185	0.095394
574.560438	0.095635
574.772672	0.095310
574.984888	0.095300
575.197086	0.095554
575.409266	0.095422
575.621427	0.095400
575.833570	0.095230
576.045695	0.095542
576.257802	0.095915
576.469890	0.095685
576.681961	0.096053
576.894013	0.096347
577.106046	0.096673
577.318062	0.096953
577.530059	0.097006
577.742039	0.097002
577.954000	0.097061
578.165942	0.096967
578.377867	0.097105
578.589773	0.097126
578.801661	0.097169
579.013531	0.097239
579.225382	0.097158
579.437216	0.097597
579.649031	0.097510
579.860828	0.097299
580.072606	0.097383
580.284367	0.097590
580.496109	0.097513
580.707833	0.097647
580.919539	0.097677
581.131227	0.097731
581.342896	0.097439
581.554547	0.097709
581.766180	0.097854
581.977795	0.098315
582.189391	0.098321
582.400969	0.098341
582.612529	0.098545
582.824071	0.098494
583.035595	0.098841
583.247100	0.099160
583.458587	0.099358
583.670056	0.099618
583.881506	0.099404
584.092939	0.099206
584.304353	0.099447
584.515749	0.099103
584.727127	0.099164
584.938486	0.098950
585.149828	0.099066
585.361151	0.098905
585.572456	0.098972
585.783742	0.099225
585.995011	0.099701
586.206261	0.099744
586.417493	0.100287
586.628706	0.100176
586.839902	0.100326
587.051079	0.100498
587.262238	0.100824
587.473379	0.100903
587.684502	0.100811
587.895606	0.100894
588.106692	0.101046
588.317760	0.100933
588.528810	0.101288
588.739841	0.101462
588.950855	0.101480
589.161850	0.101763
589.372827	0.101797
589.583785	0.101754
589.794726	0.101992
590.005648	0.102284
590.216552	0.102252
590.427437	0.102495
590.638305	0.102598
590.849154	0.102499
591.059985	0.102414
591.270798	0.102538
591.481592	0.102558
591.692369	0.102361
591.903127	0.102418
592.113867	0.102713
592.324588	0.102719
592.535292	0.102763
592.745977	0.102846
592.956644	0.102979
593.167293	0.102857
593.377923	0.103114
593.588536	0.103098
593.799130	0.102961
594.009706	0.102995
594.220263	0.102925
594.430803	0.102869
594.641324	0.102698
594.851827	0.102936
595.062312	0.103056
595.272778	0.103355
595.483227	0.103480
595.693657	0.103746
595.904069	0.103858
596.114462	0.103935
596.324838	0.104053
596.535195	0.104337
596.745534	0.104273
596.955855	0.104315
597.166157	0.103911
597.376441	0.103908
597.586707	0.103824
597.796955	0.103716
598.007185	0.103564
598.217396	0.103705
598.427589	0.103861
598.637764	0.103971
598.847921	0.104114
599.058060	0.104589
599.268180	0.104620
599.478282	0.104828
599.688366	0.104807
599.898431	0.104944
600.108479	0.105093
600.318508	0.105184
600.528519	0.104901
600.738511	0.104690
600.948486	0.104425
601.158442	0.104457
601.368380	0.104498
601.578300	0.104753
601.788202	0.104900
601.998085	0.104791
602.207950	0.104699
602.417797	0.104734
602.627626	0.105217
602.837436	0.105271
603.047228	0.105550
603.257002	0.105721
603.466758	0.105636
603.676496	0.105742
603.886215	0.105727
604.095916	0.105972
604.305599	0.106091
604.515264	0.106183
604.724910	0.106254
604.934538	0.106387
605.144148	0.106182
605.353740	0.106058
605.563314	0.106252
605.772869	0.106436
605.982406	0.106265
606.191925	0.106649
606.401425	0.106591
606.610908	0.106839
606.820372	0.106509
607.029818	0.106460
607.239246	0.106582
607.448655	0.106414
607.658047	0.106234
607.867420	0.106205
608.076775	0.105982
608.286111	0.105846
608.495430	0.106014
608.704730	0.106446
608.914012	0.106390
609.123275	0.106619
609.332521	0.106909
609.541748	0.107025
609.750957	0.107485
609.960148	0.107497
610.169321	0.107636
610.378475	0.107557
610.587611	0.107252
610.796729	0.107371
611.005829	0.107241
611.214910	0.107087
611.423974	0.107123
611.633019	0.106820
611.842045	0.107072
612.051054	0.107213
612.260044	0.107282
612.469017	0.107423
612.677970	0.107896
612.886906	0.108019
613.095824	0.108129
613.304723	0.108353
613.513604	0.108793
613.722467	0.108879
613.931311	0.108949
614.140138	0.109144
614.348946	0.109551
614.557736	0.109519
614.766507	0.109742
614.975261	0.110000
615.183996	0.110232
615.392713	0.110000
615.601412	0.109939
615.810092	0.110065
616.018754	0.109887
616.227399	0.109854
616.436024	0.109843
616.644632	0.109941
616.853222	0.109952
617.061793	0.109693
617.270346	0.109780
617.478880	0.109780
617.687397	0.109809
617.895895	0.110021
618.104375	0.110171
618.312837	0.110304
618.521281	0.110414
618.729706	0.110362
618.938113	0.110702
619.146502	0.110922
619.354873	0.111370
619.563226	0.111451
619.771560	0.111548
619.979876	0.111541
620.188174	0.111573
620.396453	0.111359
620.604715	0.111509
620.812958	0.111193
621.021183	0.111165
621.229390	0.111274
621.437578	0.111470
621.645748	0.111479
621.853900	0.111403
622.062034	0.111712
622.270150	0.112025
622.478247	0.112109
622.686326	0.112486
622.894387	0.112560
623.102430	0.112495
623.310454	0.112421
623.518461	0.112560
623.726449	0.112824
623.934418	0.112799
624.142370	0.112878
624.350303	0.113095
624.558218	0.113349
624.766115	0.113513
624.973994	0.113666
625.181855	0.114042
625.389697	0.114007
625.597521	0.114101
625.805327	0.114344
626.013114	0.114505
626.220883	0.114571
626.428634	0.114500
626.636367	0.114640
626.844082	0.114513
627.051778	0.114547
627.259457	0.114692
627.467117	0.114645
627.674758	0.114535
627.882382	0.114336
628.089987	0.114102
628.297574	0.114166
628.505143	0.114002
628.712694	0.114159
628.920226	0.114145
629.127740	0.114218
629.335236	0.114203
629.542714	0.114082
629.750174	0.114282
629.957615	0.114275
630.165038	0.114371
630.372443	0.114483
630.579829	0.114341
630.787198	0.114355
630.994548	0.114637
631.201880	0.114903
631.409194	0.114829
631.616489	0.114881
631.823766	0.115227
632.031025	0.115388
632.238266	0.115671
632.445489	0.115743
632.652693	0.115634
632.859879	0.115493
633.067047	0.115543
633.274197	0.115725
633.481329	0.115806
633.688442	0.115950
633.895537	0.115824
634.102614	0.115804
634.309672	0.116108
634.516713	0.116483
634.723735	0.116433
634.930739	0.116355
635.137724	0.116447
635.344692	0.116370
635.551641	0.116160
635.758572	0.116281
635.965485	0.116235
636.172379	0.116112
636.379256	0.115740
636.586114	0.115743
636.792954	0.115821
636.999775	0.115836
637.206579	0.116015
637.413364	0.116145
637.620131	0.116306
637.826880	0.116503
638.033610	0.116323
638.240323	0.116605
638.447017	0.116885
638.653692	0.116917
638.860350	0.117164
639.066990	0.117270
639.273611	0.117424
639.480214	0.117293
639.686798	0.117227
639.893365	0.117463
640.099913	0.117562
640.306443	0.117586
640.512955	0.117514
640.719449	0.117404
640.925924	0.117609
641.132381	0.117810
641.338820	0.118129
641.545241	0.118412
641.751644	0.118839
641.958028	0.118876
642.164394	0.119210
642.370742	0.119642
642.577071	0.119947
642.783383	0.119782
642.989676	0.119744
643.195951	0.119647
643.402207	0.119645
643.608446	0.119473
643.814666	0.119535
644.020868	0.119351
644.227052	0.119416
644.433218	0.119529
644.639365	0.119825
644.845494	0.119893
645.051605	0.120150
645.257698	0.120338
645.463772	0.120667
645.669828	0.120697
645.875866	0.120755
646.081886	0.120798
646.287888	0.120883
646.493871	0.120910
646.699836	0.121119
646.905783	0.121216
647.111712	0.121121
647.317622	0.121103
647.523514	0.121520
647.729388	0.121499
647.935244	0.121685
648.141082	0.121662
648.346901	0.121794
648.552702	0.121732
648.758485	0.121736
648.964250	0.121941
649.169996	0.122115
649.375724	0.121989
649.581434	0.122341
649.787126	0.122436
649.992800	0.122568
650.198455	0.122738
650.404092	0.122875
650.609711	0.123041
650.815311	0.123185
651.020894	0.123369
651.226458	0.123674
651.432004	0.123679
651.637532	0.123612
651.843041	0.123763
652.048532	0.123855
652.254006	0.124042
652.459460	0.124243
652.664897	0.124335
652.870315	0.124241
653.075716	0.124385
653.281097	0.124393
653.486461	0.124511
653.691807	0.124642
653.897134	0.124754
654.102443	0.124712
654.307734	0.124545
654.513006	0.124610
654.718261	0.124626
654.923497	0.124480
655.128715	0.124858
655.333915	0.125040
655.539096	0.125072
655.744259	0.124908
655.949404	0.124892
656.154531	0.125063
656.359640	0.125108
656.564730	0.125352
656.769802	0.125420
656.974856	0.125294
657.179892	0.125407
657.384909	0.125543
657.589908	0.125784
657.794889	0.126164
657.999852	0.126317
658.204797	0.126358
658.409723	0.126509
658.614631	0.126753
658.819521	0.126873
659.024393	0.126685
659.229246	0.126758
659.434081	0.127015
659.638898	0.126969
659.843697	0.126914
660.048478	0.127401
660.253240	0.127498
660.457984	0.127327
660.662710	0.127578
660.867417	0.127879
661.072107	0.127927
661.276778	0.127751
661.481431	0.127980
661.686066	0.128214
661.890682	0.127967
662.095281	0.127886
662.299861	0.128238
662.504422	0.128332
662.708966	0.128593
662.913491	0.128708
663.117999	0.129004
663.322488	0.128931
663.526958	0.129029
663.731411	0.129163
663.935845	0.129404
664.140261	0.129398
664.344659	0.129330
664.549038	0.129157
664.753400	0.129373
664.957743	0.129507
665.162068	0.129717
665.366375	0.129820
665.570663	0.129861
665.774933	0.129763
665.979185	0.129686
666.183419	0.129726
666.387635	0.129880
666.591832	0.129764
666.796011	0.129613
667.000172	0.129415
667.204315	0.129422
667.408439	0.129565
667.612545	0.129754
667.816634	0.130090
668.020703	0.130149
668.224755	0.130237
668.428788	0.130150
668.632803	0.130342
668.836800	0.130677
669.040779	0.130799
669.244739	0.130825
669.448681	0.130937
669.652605	0.130903
669.856511	0.131169
670.060399	0.131342
670.264268	0.131648
670.468119	0.131616
670.671952	0.131486
670.875767	0.131460
671.079563	0.131626
671.283341	0.131734
671.487101	0.131720
671.690843	0.131719
671.894567	0.131852
672.098272	0.131876
672.301959	0.131994
672.505628	0.132360
672.709278	0.132543
672.912911	0.132618
673.116525	0.132702
673.320121	0.133155
673.523699	0.133318
673.727258	0.133333
673.930799	0.133546
674.134322	0.133862
674.337827	0.134115
674.541314	0.134299
674.744782	0.134314
674.948232	0.134392
675.151664	0.134403
675.355078	0.134419
675.558474	0.134726
675.761851	0.134823
675.965210	0.134932
676.168551	0.135067
676.371873	0.135105
676.575178	0.135320
676.778464	0.135545
676.981732	0.135583
677.184981	0.135658
677.388213	0.135565
677.591426	0.135680
677.794621	0.135573
677.997798	0.135483
678.200956	0.135604
678.404097	0.135922
678.607219	0.136038
678.810323	0.136244
679.013408	0.136526
679.216476	0.136855
679.419525	0.136977
679.622556	0.137331
679.825569	0.137556
680.028563	0.137688
680.231540	0.137634
680.434498	0.137829
680.637438	0.137989
680.840359	0.138125
681.043263	0.138072
681.246148	0.138260
681.449015	0.138304
681.651864	0.138262
681.854694	0.138559
682.057506	0.138647
682.260301	0.138682
682.463076	0.138680
682.665834	0.138867
682.868573	0.138895
683.071295	0.138896
683.273998	0.139132
683.476682	0.139306
683.679349	0.139206
683.881997	0.139343
684.084627	0.139250
684.287239	0.139388
684.489833	0.139255
684.692408	0.139265
684.894965	0.139271
685.097504	0.139085
685.300025	0.139185
685.502527	0.139229
685.705012	0.139125
685.907478	0.139333
686.109925	0.139269
686.312355	0.139489
686.514766	0.139590
686.717159	0.139786
686.919534	0.140040
687.121891	0.139830
687.324230	0.140127
687.526550	0.140292
687.728852	0.140344
687.931136	0.140473
688.133401	0.140360
688.335649	0.140425
688.537878	0.140592
688.740089	0.140633
688.942281	0.140748
689.144456	0.140573
689.346612	0.140514
689.548750	0.140478
689.750870	0.140493
689.952971	0.140612
690.155055	0.140782
690.357120	0.140660
690.559167	0.140609
690.761195	0.140826
690.963206	0.140992
691.165198	0.141082
691.367172	0.141286
691.569128	0.141315
691.771065	0.141320
691.972984	0.141306
692.174885	0.141538
692.376768	0.141728
692.578633	0.141781
692.780479	0.141887
692.982308	0.141986
693.184118	0.141877
693.385909	0.141985
693.587683	0.142083
693.789438	0.142194
693.991175	0.142184
694.192894	0.142189
694.394595	0.142225
694.596277	0.142224
694.797941	0.142284
694.999587	0.142440
695.201215	0.142542
695.402824	0.142628
695.604416	0.142518
695.805989	0.142586
696.007543	0.142342
696.209080	0.142452
696.410598	0.142561
696.612099	0.142720
696.813580	0.142671
697.015044	0.142744
697.216490	0.142931
697.417917	0.143207
697.619326	0.143157
697.820717	0.143468
698.022089	0.143418
698.223444	0.143495
698.424780	0.143544
698.626098	0.143917
698.827397	0.143792
699.028679	0.143768
699.229942	0.143733
699.431187	0.143967
699.632414	0.144230
699.833622	0.144429
700.034813	0.144586
700.235985	0.144684
700.437139	0.144564
700.638274	0.144917
700.839392	0.145085
701.040491	0.145227
701.241572	0.145394
701.442635	0.145377
701.643679	0.145486
701.844706	0.145595
702.045714	0.145678
702.246704	0.145733
702.447675	0.145976
702.648629	0.145889
702.849564	0.146143
703.050481	0.146215
703.251380	0.146198
703.452260	0.146206
703.653122	0.146191
703.853966	0.146307
704.054792	0.146309
704.255600	0.145999
704.456389	0.146139
704.657160	0.145894
704.857913	0.145604
705.058648	0.145667
705.259365	0.145643
705.460063	0.145400
705.660743	0.145141
705.861405	0.145096
706.062048	0.145066
706.262674	0.144911
706.463281	0.144913
706.663870	0.144870
706.864441	0.144860
707.064993	0.144908
707.265527	0.144899
707.466043	0.144995
707.666541	0.144969
707.867021	0.145239
708.067482	0.145454
708.267925	0.145628
708.468350	0.146028
708.668757	0.146093
708.869145	0.146189
709.069516	0.146444
709.269868	0.146725
709.470201	0.147062
709.670517	0.147037
709.870814	0.146888
710.071093	0.146904
710.271354	0.146816
710.471597	0.146876
710.671821	0.147028
710.872028	0.147024
711.072216	0.146964
711.272385	0.146775
711.472537	0.146683
711.672670	0.146774
711.872785	0.146751
712.072882	0.146762
712.272961	0.146523
712.473021	0.146508
712.673063	0.146550
712.873087	0.146407
713.073093	0.146544
713.273081	0.146550
713.473050	0.146662
713.673001	0.146724
713.872934	0.146709
714.072849	0.146890
714.272745	0.146798
714.472623	0.146866
714.672483	0.147039
714.872325	0.146908
715.072148	0.146933
715.271954	0.146995
715.471741	0.146906
715.671509	0.146977
715.871260	0.147054
716.070992	0.147039
716.270707	0.146999
716.470403	0.146858
716.670080	0.146947
716.869740	0.146982
717.069381	0.146799
717.269004	0.146857
717.468609	0.146750
717.668195	0.146785
717.867764	0.146731
718.067314	0.146517
718.266846	0.146740
718.466360	0.146722
718.665855	0.146749
718.865332	0.146699
719.064791	0.146611
719.264232	0.146610
719.463655	0.146497
719.663059	0.146421
719.862445	0.146355
720.061813	0.145939
720.261163	0.145888
720.460494	0.145832
720.659807	0.145818
720.859102	0.145868
721.058379	0.145854
721.257638	0.145624
721.456878	0.145531
721.656100	0.145544
721.855304	0.145805
722.054490	0.145603
722.253657	0.145557
722.452806	0.145394
722.651937	0.145464
722.851050	0.145206
723.050145	0.145241
723.249221	0.145428
723.448279	0.145546
723.647319	0.145553
723.846340	0.145735
724.045344	0.145763
724.244329	0.145886
724.443296	0.145656
724.642245	0.145621
724.841175	0.145779
725.040088	0.145647
725.238982	0.145579
725.437857	0.145265
725.636715	0.145173
725.835554	0.144988
726.034376	0.144889
726.233179	0.144908
726.431963	0.144966
726.630730	0.144807
726.829478	0.144870
727.028208	0.144881
727.226920	0.144993
727.425614	0.145073
727.624289	0.145054
727.822946	0.145115
728.021585	0.145163
728.220206	0.145244
728.418808	0.145099
728.617392	0.144909
728.815958	0.144770
729.014506	0.144703
729.213036	0.144591
729.411547	0.144463
729.610040	0.144582
729.808515	0.144305
730.006972	0.144274
730.205410	0.144284
730.403831	0.144222
730.602233	0.144163
730.800616	0.144220
730.998982	0.144169
731.197329	0.144329
731.395658	0.144087
731.593969	0.143998
731.792262	0.143744
731.990536	0.143757
732.188793	0.143697
732.387031	0.143741
732.585250	0.143408
732.783452	0.143705
732.981635	0.143677
733.179800	0.143512
733.377947	0.143525
733.576076	0.143461
733.774186	0.143288
733.972278	0.143482
734.170352	0.143413
734.368408	0.143516
734.566446	0.143110
734.764465	0.142869
734.962466	0.142974
735.160449	0.143124
735.358413	0.143157
735.556360	0.143272
735.754288	0.143027
735.952198	0.142845
736.150090	0.142735
736.347963	0.142714
736.545818	0.142672
736.743655	0.142567
736.941474	0.142494
737.139275	0.142541
737.337057	0.142342
737.534821	0.142369
737.732567	0.142239
737.930295	0.142247
738.128005	0.141973
738.325696	0.142037
738.523369	0.141955
738.721024	0.141662
738.918660	0.141551
739.116279	0.141542
739.313879	0.141442
739.511461	0.141600
739.709024	0.141639
739.906570	0.141693
740.104097	0.141636
740.301606	0.141513
740.499097	0.141705
740.696569	0.141779
740.894024	0.141817
741.091460	0.141596
741.288878	0.141433
741.486277	0.141068
741.683659	0.141086
741.881022	0.140862
742.078367	0.140764
742.275694	0.140682
742.473002	0.140606
742.670293	0.140600
742.867565	0.140491
743.064819	0.140441
743.262054	0.140499
743.459272	0.140410
743.656471	0.140234
743.853652	0.140208
744.050815	0.140170
744.247959	0.140029
744.445085	0.139693
744.642194	0.139805
744.839283	0.139829
745.036355	0.140030
745.233408	0.140012
745.430444	0.140046
745.627461	0.140345
745.824459	0.140188
746.021440	0.139959
746.218402	0.139847
746.415346	0.139615
746.612272	0.139413
746.809180	0.139194
747.006069	0.139072
747.202940	0.138996
747.399793	0.138651
747.596628	0.138682
747.793444	0.138802
747.990243	0.138776
748.187023	0.138923
748.383784	0.139067
748.580528	0.138889
748.777253	0.138951
748.973960	0.139137
749.170649	0.139254
749.367320	0.139160
749.563973	0.139010
749.760607	0.139036
749.957223	0.139083
750.153821	0.139048
750.350400	0.139129
750.546962	0.139120
750.743505	0.138939
750.940030	0.138669
751.136536	0.138335
751.333025	0.138027
751.529495	0.138116
751.725947	0.138053
751.922381	0.137848
752.118796	0.137973
752.315194	0.137433
752.511573	0.137446
752.707934	0.137493
752.904276	0.137854
753.100601	0.138223
753.296907	0.138264
753.493195	0.138091
753.689465	0.138270
753.885716	0.138095
754.081949	0.138586
754.278164	0.138642
754.474361	0.138763
754.670540	0.138413
754.866700	0.138182
755.062843	0.138034
755.258967	0.137953
755.455072	0.137822
755.651160	0.137477
755.847229	0.137077
756.043280	0.136808
756.239313	0.136597
756.435328	0.136432
756.631324	0.136503
756.827302	0.136456
757.023262	0.136417
757.219204	0.136275
757.415127	0.136375
757.611033	0.136491
757.806920	0.136355
758.002788	0.136205
758.198639	0.136291
758.394471	0.136099
758.590286	0.135851
758.786081	0.135473
758.981859	0.135278
759.177619	0.135221
759.373360	0.135009
759.569083	0.134996
759.764788	0.134820
759.960474	0.134850
760.156143	0.134809
760.351793	0.135000
760.547425	0.135115
760.743038	0.135089
760.938634	0.135157
761.134211	0.135009
761.329770	0.135067
761.525311	0.135170
761.720833	0.135063
761.916338	0.135052
762.111824	0.134677
762.307292	0.134755
762.502741	0.134610
762.698173	0.134387
762.893586	0.134488
763.088981	0.134344
763.284358	0.134097
763.479716	0.133943
763.675057	0.133852
763.870379	0.133902
764.065683	0.133902
764.260968	0.133870
764.456236	0.134016
764.651485	0.133835
764.846716	0.133849
765.041929	0.134029
765.237123	0.134154
765.432299	0.134089
765.627457	0.134198
765.822597	0.134127
766.017719	0.134241
766.212822	0.134202
766.407907	0.134123
766.602974	0.134065
766.798023	0.133979
766.993054	0.133924
767.188066	0.133806
767.383060	0.133641
767.578036	0.133369
767.772993	0.133269
767.967933	0.133055
768.162854	0.133125
768.357757	0.132898
768.552642	0.132846
768.747508	0.132660
768.942356	0.132570
769.137186	0.132387
769.331998	0.132502
769.526792	0.132406
769.721567	0.132523
769.916324	0.132668
770.111063	0.132791
770.305784	0.132746
770.500486	0.132796
770.695171	0.132877
770.889837	0.132900
771.084484	0.132859
771.279114	0.132892
771.473725	0.132767
771.668318	0.132574
771.862893	0.132626
772.057450	0.132621
772.251988	0.132481
772.446509	0.132569
772.641011	0.132768
772.835494	0.132761
773.029960	0.132886
773.224407	0.132976
773.418836	0.133046
773.613247	0.132727
773.807640	0.132675
774.002014	0.132789
774.196370	0.132666
774.390708	0.132475
774.585028	0.132447
774.779330	0.132226
774.973613	0.131931
775.167878	0.131913
775.362125	0.132087
775.556354	0.132023
775.750564	0.131846
775.944756	0.131828
776.138930	0.131837
776.333086	0.131788
776.527223	0.131628
776.721343	0.131551
776.915444	0.131488
777.109526	0.131530
777.303591	0.131804
777.497637	0.131716
777.691666	0.131626
777.885676	0.131678
778.079667	0.131759
778.273641	0.131891
778.467596	0.132143
778.661533	0.132267
778.855452	0.132284
779.049352	0.132032
779.243235	0.132232
779.437099	0.132109
779.630945	0.131881
779.824773	0.131881
780.018582	0.131927
780.212373	0.132037
780.406146	0.132017
780.599901	0.131771
780.793638	0.131821
780.987356	0.131887
781.181056	0.132028
781.374738	0.132221
781.568402	0.132218
781.762047	0.132350
781.955674	0.132175
782.149283	0.132153
782.342874	0.132265
782.536447	0.132122
782.730001	0.132154
782.923537	0.132139
783.117055	0.132135
783.310555	0.132088
783.504036	0.131922
783.697499	0.131822
783.890944	0.131687
784.084371	0.131764
784.277780	0.131802
784.471170	0.131747
784.664542	0.131761
784.857896	0.131731
785.051231	0.131597
785.244549	0.131731
785.437848	0.131783
785.631129	0.131995
785.824392	0.131816
786.017636	0.131803
786.210863	0.131402
786.404071	0.131279
786.597260	0.131262
786.790432	0.131378
786.983585	0.131144
787.176721	0.131055
787.369838	0.130778
787.562936	0.130691
787.756017	0.130560
787.949079	0.130862
788.142123	0.130689
788.335149	0.130408
788.528156	0.130227
788.721146	0.130011
788.914117	0.129978
789.107070	0.129874
789.300005	0.129996
789.492921	0.129961
789.685819	0.129793
789.878699	0.130054
790.071561	0.130351
790.264405	0.130478
790.457230	0.130757
790.650037	0.130939
790.842826	0.131237
791.035597	0.131247
791.228349	0.131505
791.421084	0.131739
791.613800	0.131823
791.806497	0.132001
791.999177	0.132079
792.191838	0.132178
792.384481	0.132423
792.577106	0.132473
792.769713	0.132792
792.962301	0.133055
793.154871	0.133049
793.347423	0.133032
793.539957	0.132964
793.732473	0.133109
793.924970	0.133319
794.117449	0.133155
794.309910	0.133416
794.502353	0.133431
794.694777	0.133320
794.887183	0.133551
795.079571	0.133753
795.271941	0.133856
795.464293	0.133767
795.656626	0.133731
795.848941	0.133762
796.041238	0.133522
796.233516	0.133386
796.425777	0.133356
796.618019	0.133460
796.810243	0.133703
797.002449	0.133724
797.194636	0.133850
797.386805	0.133758
797.578956	0.133824
797.771089	0.133846
797.963204	0.133866
798.155300	0.134015
798.347378	0.133871
798.539438	0.133774
798.731480	0.133852
798.923503	0.133952
799.115509	0.134073
799.307496	0.134099
799.499465	0.134156
799.691415	0.134286
799.883348	0.134230
800.075262	0.134373
800.267158	0.134467
800.459035	0.134553
800.650895	0.134602
800.842736	0.134842
801.034559	0.135030
801.226364	0.135127
801.418150	0.135086
801.609919	0.135169
801.801669	0.135250
801.993401	0.135135
802.185114	0.135296
802.376810	0.135149
802.568487	0.135022
802.760146	0.134864
802.951787	0.134793
803.143409	0.135102
803.335014	0.134993
803.526600	0.134819
803.718168	0.134875
803.909717	0.134610
804.101249	0.134880
804.292762	0.135012
804.484257	0.135406
804.675734	0.135752
804.867192	0.135585
805.058632	0.135759
805.250054	0.136074
805.441458	0.136109
805.632844	0.136356
805.824211	0.136273
806.015561	0.136449
806.206891	0.136339
806.398204	0.136180
806.589499	0.136237
806.780775	0.136388
806.972033	0.136167
807.163273	0.136358
807.354495	0.136513
807.545698	0.136561
807.736883	0.136199
807.928050	0.136487
808.119199	0.136778
808.310329	0.136873
808.501441	0.136899
808.692535	0.137286
808.883611	0.137389
809.074669	0.137297
809.265708	0.137525
809.456729	0.137808
809.647732	0.137896
809.838717	0.137894
810.029683	0.138012
810.220632	0.138258
810.411562	0.138572
810.602474	0.138633
810.793367	0.138709
810.984242	0.138713
811.175100	0.138702
811.365938	0.138778
811.556759	0.138932
811.747562	0.139225
811.938346	0.139259
812.129112	0.139100
812.319860	0.139244
812.510589	0.139652
812.701300	0.139962
812.891994	0.140396
813.082668	0.140170
813.273325	0.140339
813.463964	0.140511
813.654584	0.140719
813.845186	0.140710
814.035769	0.140841
814.226335	0.140942
814.416882	0.141136
814.607411	0.141207
814.797922	0.141672
814.988415	0.141760
815.178889	0.142056
815.369345	0.142278
815.559783	0.142425
815.750203	0.142555
815.940605	0.142529
816.130988	0.142542
816.321353	0.142565
816.511700	0.142561
816.702028	0.142754
816.892339	0.142476
817.082631	0.142335
817.272905	0.142516
817.463161	0.142790
817.653398	0.142959
817.843617	0.143048
818.033819	0.143279
818.224001	0.143179
818.414166	0.142982
818.604312	0.143417
818.794440	0.143614
818.984550	0.143654
819.174642	0.143718
819.364716	0.143833
819.554771	0.143855
819.744808	0.144015
819.934827	0.144406
820.124827	0.144440
820.314810	0.144472
820.504774	0.144586
820.694720	0.144991
820.884647	0.145052
821.074557	0.145176
821.264448	0.145414
821.454321	0.145367
821.644176	0.145345
821.834012	0.145603
822.023831	0.145767
822.213631	0.145849
822.403413	0.145674
822.593176	0.145721
822.782922	0.146026
822.972649	0.146116
823.162358	0.146214
823.352049	0.146488
823.541721	0.146638
823.731376	0.146523
823.921012	0.146763
824.110629	0.146925
824.300229	0.146999
824.489811	0.146815
824.679374	0.146903
824.868919	0.147077
825.058445	0.147161
825.247954	0.147160
825.437444	0.147228
825.626916	0.147069
825.816370	0.147302
826.005806	0.147495
826.195223	0.147637
826.384622	0.147853
826.574003	0.147827
826.763366	0.147782
826.952711	0.148073
827.142037	0.148402
827.331345	0.148841
827.520635	0.149179
827.709906	0.149594
827.899160	0.149849
828.088395	0.149901
828.277612	0.150347
828.466810	0.150462
828.655991	0.150686
828.845153	0.150473
829.034297	0.150610
829.223423	0.150545
829.412531	0.150387
829.601620	0.150497
829.790691	0.150569
829.979744	0.150589
830.168779	0.150734
830.357795	0.150823
830.546793	0.151257
830.735773	0.151101
830.924735	0.151196
831.113679	0.151415
831.302604	0.151641
831.491511	0.151813
831.680400	0.152019
831.869271	0.152451
832.058123	0.152714
832.246957	0.152989
832.435773	0.153595
832.624571	0.153838
832.813351	0.154168
833.002112	0.154082
833.190855	0.154463
833.379580	0.154683
833.568287	0.154753
833.756975	0.154938
833.945645	0.154881
834.134297	0.154983
834.322931	0.155001
834.511547	0.154896
834.700144	0.155304
834.888723	0.155593
835.077284	0.155704
835.265826	0.156001
835.454351	0.156157
835.642857	0.156339
835.831345	0.156504
836.019815	0.156760
836.208266	0.157103
836.396699	0.157392
836.585114	0.157271
836.773511	0.157519
836.961890	0.157409
837.150250	0.157427
837.338592	0.157773
837.526916	0.157717
837.715222	0.158021
837.903510	0.158122
838.091779	0.157950
838.280030	0.158178
838.468263	0.158257
838.656477	0.158542
838.844674	0.158693
839.032852	0.159080
839.221012	0.159277
839.409153	0.159502
839.597277	0.159825
839.785382	0.160131
839.973469	0.160441
840.161538	0.160636
840.349589	0.160702
840.537621	0.160827
840.725635	0.160652
840.913631	0.161004
841.101609	0.161073
841.289568	0.160798
841.477509	0.161018
841.665432	0.161403
841.853337	0.161608
842.041224	0.161973
842.229092	0.162125
842.416942	0.162262
842.604774	0.162487
842.792588	0.162431
842.980383	0.162877
843.168160	0.162986
843.355919	0.163167
843.543660	0.163405
843.731382	0.163830
843.919087	0.164432
844.106773	0.164895
844.294441	0.165203
844.482090	0.165869
844.669722	0.166651
844.857335	0.167281
845.044930	0.167332
845.232507	0.167553
845.420065	0.167747
845.607605	0.167935
845.795127	0.168088
845.982631	0.167898
846.170117	0.168002
846.357584	0.167576
846.545033	0.167464
846.732464	0.167681
846.919877	0.168086
847.107272	0.168153
847.294648	0.168174
847.482006	0.168419
847.669346	0.168886
847.856667	0.169134
848.043971	0.169475
848.231256	0.169706
848.418523	0.169994
848.605771	0.170340
848.793002	0.170319
848.980214	0.170474
849.167408	0.170455
849.354584	0.170656
849.541742	0.170609
849.728881	0.170860
849.916002	0.171033
850.103105	0.171182
850.290190	0.170976
850.477256	0.171262
850.664304	0.171430
850.851334	0.171784
851.038346	0.171743
851.225340	0.171943
851.412315	0.172174
851.599272	0.172272
851.786211	0.172413
851.973132	0.172683
852.160034	0.172812
852.346918	0.173117
852.533784	0.173239
852.720632	0.173459
852.907462	0.173366
853.094273	0.173309
853.281066	0.173485
853.467841	0.173213
853.654598	0.173398
853.841336	0.173617
854.028056	0.173780
854.214758	0.174096
854.401442	0.174422
854.588107	0.174927
854.774755	0.175300
854.961384	0.175614
855.147995	0.176072
855.334587	0.176076
855.521162	0.176045
855.707718	0.176334
855.894256	0.176594
856.080775	0.176937
856.267277	0.177223
856.453760	0.177138
856.640225	0.177362
856.826672	0.177524
857.013101	0.177345
857.199511	0.177897
857.385903	0.177650
857.572277	0.177577
857.758633	0.177370
857.944970	0.177419
858.131290	0.177752
858.317591	0.177921
858.503873	0.178103
858.690138	0.178868
858.876384	0.178950
859.062612	0.179276
859.248822	0.179237
859.435014	0.179693
859.621188	0.180026
859.807343	0.180453
859.993480	0.180509
860.179599	0.180729
860.365699	0.180984
860.551781	0.181276
860.737846	0.181588
860.923891	0.182170
861.109919	0.182406
861.295929	0.182309
861.481920	0.182162
861.667893	0.182374
861.853848	0.182507
862.039784	0.182462
862.225702	0.182502
862.411603	0.182607
862.597484	0.182792
862.783348	0.182629
862.969193	0.183065
863.155021	0.183293
863.340830	0.183636
863.526620	0.183988
863.712393	0.184053
863.898147	0.184215
864.083883	0.184262
864.269601	0.183961
864.455301	0.183926
864.640982	0.183783
864.826645	0.183899
865.012290	0.183784
865.197917	0.183728
865.383526	0.183858
865.569116	0.184144
865.754688	0.184314
865.940242	0.184653
866.125777	0.185037
866.311295	0.185166
866.496794	0.185414
866.682275	0.185528
866.867737	0.185723
867.053182	0.186019
867.238608	0.185574
867.424016	0.185663
867.609406	0.185755
867.794778	0.185624
867.980131	0.185913
868.165466	0.185855
868.350783	0.186084
868.536082	0.185842
868.721362	0.186080
868.906625	0.186451
869.091869	0.186802
869.277094	0.186808
869.462302	0.187182
869.647491	0.187376
869.832662	0.187586
870.017815	0.187483
870.202950	0.188007
870.388066	0.188071
870.573165	0.188345
870.758245	0.188501
870.943306	0.188671
871.128350	0.188862
871.313375	0.188786
871.498382	0.189185
871.683371	0.189476
871.868342	0.189397
872.053294	0.189192
872.238229	0.189289
872.423144	0.189191
872.608042	0.189687
872.792922	0.189763
872.977783	0.189799
873.162626	0.189573
873.347451	0.189468
873.532258	0.189462
873.717046	0.189603
873.901816	0.189795
874.086568	0.189799
874.271302	0.189643
874.456017	0.189533
874.640715	0.189564
874.825394	0.189540
875.010055	0.189802
875.194697	0.189825
875.379322	0.189846
875.563928	0.189727
875.748516	0.190309
875.933085	0.190446
876.117637	0.190899
876.302170	0.190811
876.486685	0.191022
876.671182	0.190829
876.855661	0.190822
877.040121	0.191024
877.224563	0.191204
877.408987	0.190828
877.593393	0.190924
877.777780	0.190768
877.962150	0.191297
878.146501	0.191200
878.330833	0.191543
878.515148	0.191903
878.699444	0.191749
878.883722	0.191718
879.067982	0.191703
879.252224	0.191656
879.436447	0.191781
879.620653	0.191582
879.804840	0.191830
879.989008	0.191787
880.173159	0.191884
880.357291	0.191962
880.541405	0.191978
880.725501	0.191957
880.909579	0.191944
881.093638	0.191834
881.277680	0.192123
881.461703	0.192221
881.645707	0.192240
881.829694	0.192109
882.013662	0.192255
882.197612	0.192529
882.381544	0.192699
882.565458	0.192770
882.749353	0.193049
882.933230	0.193051
883.117089	0.192998
883.300930	0.193476
883.484753	0.193722
883.668557	0.193983
883.852343	0.193583
884.036111	0.193384
884.219861	0.193599
884.403592	0.193336
884.587305	0.193003
884.771000	0.193350
884.954677	0.192843
885.138335	0.192544
885.321976	0.192498
885.505598	0.192569
885.689201	0.192939
885.872787	0.192590
886.056354	0.193058
886.239904	0.193455
886.423434	0.193006
886.606947	0.193451
886.790442	0.193708
886.973918	0.193860
887.157376	0.193789
887.340816	0.193439
887.524237	0.193759
887.707641	0.193219
887.891026	0.192938
888.074393	0.193027
888.257741	0.192656
888.441072	0.192433
888.624384	0.192191
888.807678	0.192307
888.990954	0.192722
889.174211	0.192778
889.357451	0.193064
889.540672	0.193382
889.723875	0.193308
889.907059	0.193446
890.090226	0.193395
890.273374	0.193275
890.456504	0.193334
890.639616	0.192848
890.822709	0.192536
891.005785	0.192582
891.188842	0.192253
891.371881	0.192503
891.554901	0.192892
891.737904	0.192904
891.920888	0.192847
892.103854	0.192541
892.286802	0.192766
892.469731	0.192550
892.652643	0.192322
892.835536	0.192606
893.018410	0.192475
893.201267	0.192114
893.384106	0.192402
893.566926	0.192155
893.749728	0.192543
893.932511	0.192990
894.115277	0.193366
894.298024	0.193203
894.480753	0.192735
894.663464	0.192398
894.846157	0.192183
895.028831	0.192161
895.211487	0.192164
895.394125	0.191561
895.576745	0.190754
895.759346	0.190240
895.941930	0.190253
896.124495	0.190588
896.307041	0.190659
896.489570	0.190523
896.672080	0.190313
896.854573	0.190199
897.037046	0.190547
897.219502	0.190799
897.401940	0.191247
897.584359	0.190907
897.766760	0.190716
897.949143	0.190450
898.131507	0.190632
898.313854	0.190471
898.496182	0.190490
898.678492	0.190038
898.860783	0.189964
899.043057	0.189995
899.225312	0.190217
899.407549	0.189865
899.589768	0.189848
899.771968	0.189317
899.954151	0.189131
900.136315	0.189102
900.318461	0.189284
900.500588	0.188770
900.682698	0.188286
900.864789	0.188139
901.046862	0.187580
901.228917	0.187360
901.410953	0.187281
901.592971	0.187206
901.774972	0.187025
901.956953	0.186742
902.138917	0.186928
902.320862	0.186635
902.502790	0.186460
902.684699	0.186661
902.866589	0.186018
903.048462	0.186003
903.230316	0.185839
903.412152	0.185914
903.593970	0.185576
903.775770	0.185337
903.957551	0.184931
904.139314	0.184611
904.321059	0.184407
904.502786	0.184752
904.684494	0.184396
904.866185	0.184118
905.047857	0.183878
905.229510	0.183945
905.411146	0.183578
905.592763	0.183578
905.774363	0.183514
905.955943	0.183015
906.137506	0.182613
906.319051	0.182089
906.500577	0.181991
906.682085	0.181675
906.863575	0.182093
907.045046	0.182434
907.226500	0.183034
907.407935	0.183236
907.589352	0.183704
907.770750	0.184098
907.952131	0.184459
908.133493	0.184478
908.314837	0.184499
908.496163	0.184067
908.677470	0.183337
908.858760	0.182369
909.040031	0.181785
909.221284	0.181526
909.402518	0.180615
909.583735	0.180021
909.764933	0.179404
909.946113	0.179017
910.127275	0.178350
910.308418	0.178448
910.489544	0.177930
910.670651	0.177830
910.851740	0.177720
911.032810	0.177650
911.213863	0.178127
911.394897	0.178124
911.575913	0.178257
911.756911	0.178175
911.937890	0.177683
912.118851	0.177831
912.299794	0.177367
912.480719	0.177174
912.661626	0.177439
912.842514	0.176756
913.023384	0.176697
913.204236	0.175939
913.385070	0.175684
913.565886	0.175538
913.746683	0.175112
913.927462	0.174913
914.108223	0.174329
914.288965	0.173636
914.469690	0.173516
914.650396	0.173158
914.831084	0.173046
915.011754	0.172580
915.192405	0.172444
915.373038	0.172081
915.553653	0.171775
915.734250	0.171463
915.914829	0.171143
916.095389	0.170725
916.275931	0.170135
916.456455	0.169616
916.636961	0.169314
916.817448	0.168619
916.997917	0.168653
917.178368	0.168582
917.358801	0.168702
917.539216	0.168754
917.719612	0.168283
917.899990	0.168572
918.080350	0.168619
918.260692	0.169019
918.441015	0.169230
918.621320	0.168654
918.801607	0.168245
918.981876	0.167279
919.162127	0.167055
919.342359	0.167159
919.522573	0.166412
919.702769	0.165803
919.882947	0.164994
920.063106	0.163821
920.243247	0.163715
920.423370	0.162957
920.603475	0.162613
920.783562	0.161871
920.963630	0.161401
921.143680	0.160177
921.323712	0.159941
921.503725	0.159458
921.683721	0.159444
921.863698	0.159026
922.043657	0.159135
922.223598	0.158937
922.403520	0.158475
922.583424	0.158133
922.763311	0.158721
922.943178	0.158345
923.123028	0.158439
923.302859	0.158381
923.482673	0.157904
923.662467	0.157734
923.842244	0.157106
924.022003	0.156758
924.201743	0.155902
924.381465	0.155104
924.561169	0.154941
924.740854	0.153913
924.920522	0.153200
925.100171	0.152983
925.279802	0.152066
925.459414	0.152333
925.639009	0.151828
925.818585	0.152074
925.998143	0.151879
926.177683	0.150598
926.357205	0.150427
926.536708	0.150502
926.716193	0.150418
926.895660	0.149929
927.075109	0.148787
927.254539	0.148411
927.433951	0.147525
927.613345	0.147863
927.792721	0.148374
927.972079	0.148145
928.151418	0.147288
928.330739	0.146746
928.510042	0.146276
928.689327	0.146660
928.868593	0.146111
929.047841	0.145741
929.227071	0.143946
929.406283	0.142451
929.585476	0.141576
929.764652	0.141179
929.943809	0.140638
930.122948	0.139823
930.302068	0.139183
930.481171	0.139509
930.660255	0.138102
930.839321	0.138023
931.018369	0.138123
931.197398	0.137245
931.376409	0.136629
931.555402	0.135508
931.734377	0.135354
931.913334	0.134800
932.092272	0.134085
932.271192	0.134541
932.450094	0.134217
932.628978	0.133748
932.807844	0.133015
932.986691	0.132894
933.165520	0.132039
933.344331	0.131988
933.523123	0.131211
933.701898	0.130455
933.880654	0.129933
934.059392	0.129115
934.238111	0.128705
934.416813	0.128440
934.595496	0.127340
934.774161	0.127716
934.952808	0.127233
935.131437	0.126487
935.310047	0.125530
935.488639	0.124974
935.667213	0.124285
935.845769	0.123978
936.024306	0.124309
936.202825	0.124431
936.381326	0.123701
936.559809	0.122596
936.738274	0.122922
936.916720	0.122740
937.095148	0.122087
937.273558	0.122000
937.451950	0.121165
937.630323	0.119686
937.808678	0.119026
937.987015	0.118172
938.165334	0.117447
938.343635	0.115591
938.521917	0.115184
938.700181	0.114769
938.878427	0.114528
939.056655	0.114001
939.234864	0.114001
939.413055	0.113260
939.591228	0.112518
939.769383	0.112500
939.947519	0.112948
940.125638	0.111832
940.303738	0.111291
940.481820	0.110423
940.659883	0.109758
940.837929	0.109931
941.015956	0.109266
941.193965	0.108894
941.371955	0.107839
941.549928	0.107453
941.727882	0.107877
941.905818	0.107531
942.083736	0.107466
942.261636	0.107353
942.439517	0.105827
942.617380	0.106064
942.795225	0.105748
942.973052	0.106437
943.150860	0.104887
943.328651	0.103567
943.506423	0.102521
943.684176	0.101326
943.861912	0.100073
944.039629	0.100627
944.217328	0.100230
944.395009	0.099454
944.572672	0.098306
944.750317	0.098582
944.927943	0.098145
945.105551	0.098178
945.283141	0.098025
945.460712	0.097481
945.638265	0.097225
945.815801	0.095531
945.993317	0.093850
946.170816	0.093677
946.348297	0.093125
946.525759	0.092773
946.703203	0.091374
946.880629	0.090868
947.058036	0.090724
947.235425	0.089392
947.412797	0.089543
947.590149	0.091006
947.767484	0.090862
947.944800	0.090109
948.122099	0.088594
948.299379	0.089236
948.476640	0.088195
948.653884	0.087931
948.831109	0.086699
949.008316	0.085362
949.185505	0.085233
949.362676	0.084465
949.539828	0.084342
949.716962	0.085332
949.894078	0.084302
950.071176	0.084135
950.248256	0.083285
950.425317	0.083796
950.602360	0.083186
950.779385	0.082517
950.956391	0.081387
951.133380	0.078463
951.310350	0.076843
951.487302	0.075495
951.664235	0.075333
951.841151	0.073313
952.018048	0.070960
952.194927	0.071656
952.371788	0.070677
952.548631	0.069997
952.725455	0.071537
952.902261	0.070559
953.079049	0.070669
953.255819	0.069407
953.432570	0.070517
953.609303	0.069706
953.786018	0.069127
953.962715	0.069607
954.139394	0.068814
954.316054	0.068039
954.492696	0.068236
954.669320	0.067979
954.845926	0.067071
955.022513	0.066048
955.199083	0.067599
955.375634	0.066589
955.552166	0.064953
955.728681	0.064734
955.905177	0.065174
956.081655	0.065423
956.258115	0.065431
956.434557	0.065850
956.610980	0.065532
956.787385	0.064692
956.963772	0.064481
957.140141	0.063502
957.316492	0.062473
957.492824	0.061246
957.669138	0.060435
957.845434	0.060371
958.021712	0.059307
958.197971	0.058919
958.374212	0.059072
958.550435	0.058460
958.726640	0.060224
958.902826	0.060889
959.078995	0.061065
959.255145	0.060587
959.431277	0.059930
959.607390	0.060981
959.783486	0.061835
959.959563	0.059889
960.135622	0.059597
960.311662	0.057802
960.487685	0.057830
960.663689	0.058533
960.839675	0.059770
961.015643	0.059806
961.191593	0.061016
961.367524	0.060565
961.543437	0.062714
961.719332	0.063590
961.895209	0.062299
962.071067	0.064023
962.246907	0.063441
962.422730	0.062998
962.598533	0.062744
962.774319	0.060124
962.950086	0.061119
963.125835	0.059324
963.301566	0.060555
963.477279	0.062906
963.652973	0.060112
963.828650	0.060293
964.004308	0.059557
964.179947	0.058530
964.355569	0.060117
964.531172	0.057618
964.706757	0.056990
964.882324	0.056811
965.057873	0.054728
965.233403	0.054895
965.408916	0.051988
965.584410	0.053164
965.759885	0.053827
965.935343	0.053845
966.110782	0.054421
966.286203	0.056665
966.461606	0.055974
966.636991	0.056495
966.812357	0.058411
966.987705	0.060688
967.163035	0.059719
967.338347	0.058639
967.513641	0.058171
967.688916	0.058457
967.864173	0.057070
968.039412	0.055880
968.214632	0.057031
968.389835	0.056515
968.565019	0.056866
968.740185	0.055961
968.915333	0.057495
969.090462	0.059797
969.265573	0.059396
969.440667	0.059221
969.615741	0.059678
969.790798	0.060709
969.965836	0.059602
970.140856	0.062094
970.315858	0.064240
970.490842	0.065171
970.665808	0.062287
970.840755	0.062742
971.015684	0.062872
971.190595	0.062134
971.365487	0.059561
971.540362	0.059674
971.715218	0.056375
971.890056	0.056139
972.064875	0.056142
972.239677	0.057102
972.414460	0.056411
972.589225	0.057635
972.763972	0.058239
972.938700	0.058902
973.113411	0.058338
973.288103	0.056800
973.462777	0.059823
973.637432	0.058478
973.812070	0.057956
973.986689	0.059086
974.161290	0.058957
974.335873	0.060109
974.510437	0.060882
974.684984	0.061511
974.859512	0.062538
975.034022	0.058852
975.208513	0.056996
975.382987	0.056254
975.557442	0.056914
975.731879	0.056068
975.906298	0.054479
976.080698	0.054620
976.255080	0.055003
976.429445	0.056349
976.603790	0.055591
976.778118	0.058419
976.952427	0.058417
977.126719	0.056155
977.300992	0.055770
977.475246	0.054823
977.649483	0.052492
977.823701	0.050390
977.997901	0.048376
978.172083	0.050729
978.346247	0.050178
978.520392	0.049577
978.694519	0.051993
978.868628	0.052160
979.042719	0.054284
979.216791	0.055833
979.390845	0.055364
979.564882	0.058316
979.738899	0.057474
979.912899	0.060150
980.086880	0.059219
980.260843	0.058450
980.434788	0.057569
980.608715	0.057799
980.782623	0.056623
980.956514	0.057490
981.130386	0.056251
981.304240	0.054863
981.478075	0.050940
981.651892	0.054188
981.825692	0.053931
981.999472	0.055333
982.173235	0.054050
982.346980	0.055577
982.520706	0.056030
982.694414	0.055897
982.868104	0.056863
983.041775	0.055691
983.215428	0.053959
983.389064	0.054875
983.562680	0.056231
983.736279	0.055382
983.909860	0.054567
984.083422	0.056492
984.256966	0.057737
984.430491	0.057126
984.603999	0.058814
984.777488	0.058780
984.950959	0.057068
985.124412	0.056353
985.297847	0.056738
985.471263	0.056540
985.644661	0.055083
985.818041	0.053918
985.991403	0.054809
986.164747	0.055156
986.338072	0.056528
986.511379	0.056502
986.684668	0.058039
986.857938	0.058793
987.031191	0.059419
987.204425	0.059861
987.377641	0.059652
987.550839	0.058957
987.724018	0.059173
987.897179	0.058150
988.070322	0.058374
988.243447	0.058521
988.416554	0.059295
988.589642	0.058490
988.762712	0.057576
988.935764	0.057748
989.108798	0.058429
989.281813	0.057256
989.454811	0.056402
989.627790	0.056288
989.800751	0.054847
989.973693	0.052389
990.146617	0.052344
990.319524	0.051234
990.492412	0.050900
990.665281	0.050501
990.838133	0.050144
991.010966	0.050261
991.183781	0.050016
991.356578	0.049747
991.529356	0.052559
991.702117	0.054436
991.874859	0.054379
992.047583	0.054806
992.220288	0.054101
992.392976	0.054186
992.565645	0.056995
992.738296	0.057727
992.910929	0.056721
993.083543	0.055390
993.256139	0.055003
993.428718	0.059895
993.601277	0.060852
993.773819	0.059904
993.946342	0.060923
994.118848	0.059181
994.291335	0.059445
994.463803	0.059326
994.636254	0.060129
994.808686	0.058918
994.981100	0.056764
995.153496	0.056766
995.325874	0.057441
995.498233	0.056683
995.670574	0.055574
995.842897	0.054277
996.015202	0.055036
996.187488	0.054497
996.359757	0.053611
996.532007	0.052182
996.704239	0.050531
996.876452	0.052165
997.048648	0.051697
997.220825	0.051347
997.392984	0.052907
997.565124	0.053022
997.737247	0.053815
997.909351	0.056055
998.081437	0.056783
998.253505	0.056660
998.425554	0.055103
998.597586	0.055320
998.769599	0.055568
998.941594	0.054140
999.113571	0.053903
999.285529	0.051498
999.457469	0.051194
999.629391	0.051535
999.801295	0.052629
999.973181	0.053557
1000.145048	0.052935
1000.316897	0.053587
1000.488728	0.055971
1000.660541	0.055546
1000.832335	0.057053
1001.004111	0.056662
1001.175869	0.055029
1001.347609	0.055050
1001.519331	0.054189
1001.691034	0.053642
1001.862719	0.054066
1002.034386	0.053290
1002.206035	0.053917
1002.377665	0.054605
1002.549277	0.054647
1002.720871	0.055254
1002.892447	0.055060
1003.064004	0.056280
1003.235544	0.057254
1003.407065	0.056697
1003.578568	0.057195
1003.750052	0.056317
1003.921519	0.055962
1004.092967	0.055484
1004.264397	0.057035
1004.435809	0.057032
1004.607202	0.056351
1004.778577	0.057300
1004.949934	0.056966
1005.121273	0.056487
1005.292594	0.057514
1005.463896	0.056435
1005.635180	0.057138
1005.806446	0.055558
1005.977694	0.054333
1006.148923	0.054505
1006.320135	0.055605
1006.491328	0.056651
1006.662503	0.055191
1006.833659	0.054934
1007.004798	0.055572
1007.175918	0.054473
1007.347020	0.057170
1007.518103	0.058046
1007.689169	0.057337
1007.860216	0.057042
1008.031245	0.058350
1008.202256	0.059098
1008.373248	0.059193
1008.544223	0.058583
1008.715179	0.060037
1008.886117	0.058406
1009.057036	0.059571
1009.227938	0.061347
1009.398821	0.059632
1009.569686	0.057166
1009.740533	0.057618
1009.911361	0.056962
1010.082172	0.057996
1010.252964	0.058077
1010.423738	0.056660
1010.594493	0.054072
1010.765231	0.052609
1010.935950	0.053092
1011.106651	0.053624
1011.277334	0.052755
1011.447998	0.053967
1011.618645	0.054781
1011.789273	0.051907
1011.959882	0.052845
1012.130474	0.053339
1012.301048	0.055249
1012.471603	0.055074
1012.642140	0.054322
1012.812658	0.055452
1012.983159	0.055748
1013.153641	0.055268
1013.324105	0.058426
1013.494551	0.058629
1013.664979	0.058551
1013.835388	0.058109
1014.005779	0.059879
1014.176152	0.060660
1014.346507	0.061718
1014.516843	0.061611
1014.687162	0.060757
1014.857462	0.058431
1015.027744	0.056720
1015.198007	0.058634
1015.368252	0.054722
1015.538480	0.053617
1015.708689	0.052003
1015.878879	0.051117
1016.049052	0.050194
1016.219206	0.051149
1016.389342	0.049758
1016.559460	0.051747
1016.729559	0.052013
1016.899641	0.052259
1017.069704	0.052939
1017.239749	0.055307
1017.409775	0.055319
1017.579784	0.055988
1017.749774	0.054319
1017.919746	0.057651
1018.089700	0.056248
1018.259635	0.055559
1018.429553	0.058437
1018.599452	0.057575
1018.769333	0.056495
1018.939195	0.056731
1019.109040	0.057109
1019.278866	0.057978
1019.448674	0.057371
1019.618464	0.057105
1019.788235	0.058034
1019.957989	0.057809
1020.127724	0.058148
1020.297441	0.059333
1020.467139	0.058194
1020.636820	0.056329
1020.806482	0.055693
1020.976126	0.054774
1021.145752	0.055844
1021.315359	0.052910
1021.484948	0.052108
1021.654519	0.051612
1021.824072	0.051816
1021.993607	0.053036
1022.163123	0.053162
1022.332621	0.052740
1022.502101	0.053556
1022.671563	0.054263
1022.841007	0.055378
1023.010432	0.056777
1023.179839	0.056417
1023.349228	0.054860
1023.518598	0.054500
1023.687951	0.055134
1023.857285	0.055121
1024.026601	0.054385
1024.195899	0.052443
1024.365178	0.053864
1024.534439	0.051662
1024.703682	0.052190
1024.872907	0.052622
1025.042114	0.052364
1025.211302	0.053289
1025.380472	0.052895
1025.549624	0.052423
1025.718758	0.054041
1025.887873	0.051220
1026.056970	0.053037
1026.226049	0.054290
1026.395110	0.054053
1026.564153	0.053942
1026.733177	0.052600
1026.902183	0.053455
1027.071171	0.053407
1027.240141	0.053341
1027.409092	0.056088
1027.578026	0.054846
1027.746940	0.053181
1027.915837	0.055145
1028.084716	0.054261
1028.253576	0.054716
1028.422418	0.055246
1028.591242	0.055818
1028.760048	0.057071
1028.928835	0.055089
1029.097604	0.056480
1029.266355	0.056646
1029.435088	0.054362
1029.603803	0.055242
1029.772499	0.054730
1029.941177	0.055230
1030.109837	0.055678
1030.278478	0.053907
1030.447102	0.055120
1030.615707	0.054494
1030.784294	0.054836
1030.952863	0.055687
1031.121413	0.054175
1031.289945	0.054636
1031.458460	0.053993
1031.626955	0.052784
1031.795433	0.051473
1031.963892	0.050993
1032.132334	0.049822
1032.300756	0.051105
1032.469161	0.051946
1032.637548	0.053136
1032.805916	0.053146
1032.974266	0.052642
1033.142598	0.053210
1033.310911	0.054455
1033.479207	0.054709
1033.647484	0.054719
1033.815743	0.052864
1033.983983	0.053039
1034.152206	0.053557
1034.320410	0.053945
1034.488596	0.054443
1034.656764	0.054072
1034.824914	0.054406
1034.993045	0.056480
1035.161158	0.058535
1035.329253	0.057159
1035.497330	0.056228
1035.665388	0.055056
1035.833428	0.055358
1036.001450	0.054629
1036.169454	0.055472
1036.337440	0.055570
1036.505407	0.054045
1036.673356	0.052767
1036.841287	0.054104
1037.009200	0.052375
1037.177094	0.052220
1037.344970	0.051030
1037.512828	0.052011
1037.680668	0.052575
1037.848489	0.052517
1038.016293	0.051797
1038.184078	0.050810
1038.351845	0.050300
1038.519593	0.051421
1038.687324	0.051461
1038.855036	0.052176
1039.022730	0.052452
1039.190406	0.052567
1039.358063	0.052502
1039.525702	0.052245
1039.693323	0.052707
1039.860926	0.054137
1040.028511	0.052984
1040.196077	0.053253
1040.363625	0.051965
1040.531155	0.051442
1040.698667	0.051200
1040.866161	0.049492
1041.033636	0.048832
1041.201093	0.047761
1041.368532	0.046951
1041.535952	0.049647
1041.703355	0.050936
1041.870739	0.051026
1042.038105	0.051986
1042.205452	0.051295
1042.372782	0.052126
1042.540093	0.054400
1042.707386	0.056494
1042.874661	0.056220
1043.041918	0.054206
1043.209156	0.053048
1043.376376	0.052890
1043.543578	0.049557
1043.710762	0.050186
1043.877927	0.050573
1044.045074	0.049268
1044.212203	0.049177
1044.379314	0.050691
1044.546407	0.049618
1044.713481	0.049672
1044.880537	0.051364
1045.047575	0.052942
1045.214595	0.051787
1045.381596	0.052441
1045.548579	0.052575
1045.715544	0.052643
1045.882491	0.051462
1046.049420	0.053751
1046.216330	0.052336
1046.383222	0.051929
1046.550096	0.051171
1046.716951	0.052686
1046.883789	0.051975
1047.050608	0.051832
1047.217409	0.051477
1047.384192	0.052375
1047.550956	0.052944
1047.717703	0.054163
1047.884431	0.052666
1048.051140	0.053685
1048.217832	0.053333
1048.384505	0.055155
1048.551161	0.056063
1048.717798	0.055799
1048.884416	0.055651
1049.051017	0.053683
1049.217599	0.054444
1049.384163	0.057029
1049.550709	0.057826
1049.717237	0.056660
1049.883746	0.055815
1050.050237	0.056638
1050.216710	0.059588
1050.383165	0.059393
1050.549601	0.059534
1050.716019	0.060055
1050.882420	0.058938
1051.048801	0.058760
1051.215165	0.060007
1051.381510	0.059311
1051.547837	0.055600
1051.714146	0.053776
1051.880437	0.052889
1052.046709	0.055180
1052.212964	0.055671
1052.379200	0.054516
1052.545417	0.055146
1052.711617	0.055008
1052.877798	0.055041
1053.043961	0.056459
1053.210106	0.055841
1053.376233	0.056923
1053.542341	0.055893
1053.708432	0.056976
1053.874504	0.058451
1054.040557	0.057663
1054.206593	0.058194
1054.372610	0.057794
1054.538609	0.058557
1054.704590	0.057172
1054.870553	0.056273
1055.036497	0.053568
1055.202424	0.050551
1055.368331	0.048991
1055.534221	0.048637
1055.700093	0.048755
1055.865946	0.048884
1056.031781	0.049557
1056.197598	0.050745
1056.363397	0.049670
1056.529177	0.051442
1056.694939	0.053149
1056.860683	0.055690
1057.026409	0.056062
1057.192116	0.054077
1057.357806	0.054921
1057.523477	0.054330
1057.689130	0.054316
1057.854764	0.054821
1058.020381	0.053463
1058.185979	0.052274
1058.351559	0.050659
1058.517120	0.050798
1058.682664	0.053455
1058.848189	0.052583
1059.013696	0.053656
1059.179185	0.053229
1059.344656	0.053872
1059.510108	0.056951
1059.675542	0.057536
1059.840958	0.056257
1060.006356	0.056600
1060.171735	0.055868
1060.337096	0.057333
1060.502439	0.055509
1060.667764	0.057067
1060.833071	0.056723
1060.998359	0.053636
1061.163629	0.054211
1061.328881	0.056299
1061.494115	0.055841
1061.659330	0.055676
1061.824527	0.056012
1061.989706	0.058056
1062.154867	0.055969
1062.320010	0.058308
1062.485134	0.059704
1062.650240	0.059311
1062.815328	0.057514
1062.980398	0.055928
1063.145449	0.055943
1063.310482	0.054240
1063.475497	0.052446
1063.640494	0.053743
1063.805473	0.052193
1063.970433	0.052925
1064.135375	0.050839
1064.300299	0.053651
1064.465204	0.057153
1064.630092	0.057308
1064.794961	0.056980
1064.959812	0.057428
1065.124645	0.056431
1065.289459	0.058294
1065.454256	0.056834
1065.619034	0.056998
1065.783793	0.054979
1065.948535	0.054851
1066.113258	0.055177
1066.277964	0.054520
1066.442651	0.054722
1066.607319	0.055129
1066.771970	0.052809
1066.936602	0.053496
1067.101216	0.055577
1067.265812	0.057157
1067.430389	0.055395
1067.594949	0.053011
1067.759490	0.053661
1067.924013	0.054276
1068.088518	0.054360
1068.253004	0.056410
1068.417472	0.055284
1068.581922	0.053995
1068.746354	0.052248
1068.910768	0.050960
1069.075163	0.052897
1069.239540	0.052897
1069.403899	0.053525
1069.568240	0.054146
1069.732562	0.052725
1069.896866	0.053591
1070.061152	0.053336
1070.225420	0.052904
1070.389670	0.054685
1070.553901	0.054913
1070.718114	0.055192
1070.882309	0.054266
1071.046486	0.053886
1071.210644	0.053014
1071.374784	0.055769
1071.538906	0.057696
1071.703010	0.058479
1071.867096	0.059597
1072.031163	0.058129
1072.195212	0.058326
1072.359243	0.056972
1072.523256	0.057440
1072.687250	0.058279
1072.851226	0.057385
1073.015184	0.053867
1073.179124	0.056032
1073.343045	0.054563
1073.506949	0.056063
1073.670834	0.055989
1073.834701	0.058724
1073.998549	0.059266
1074.162380	0.059865
1074.326192	0.059351
1074.489986	0.064872
1074.653761	0.063641
1074.817519	0.064356
1074.981258	0.062969
1075.144979	0.062652
1075.308682	0.061938
1075.472367	0.062138
1075.636033	0.060198
1075.799681	0.060444
1075.963311	0.055914
1076.126923	0.054885
1076.290516	0.054451
1076.454092	0.053468
1076.617649	0.055899
1076.781187	0.054826
1076.944708	0.052606
1077.108210	0.053054
1077.271695	0.052477
1077.435160	0.054618
1077.598608	0.054570
1077.762038	0.057425
1077.925449	0.060401
1078.088842	0.056591
1078.252217	0.055929
1078.415573	0.058160
1078.578912	0.059808
1078.742232	0.058586
1078.905534	0.059116
1079.068817	0.059754
1079.232083	0.057075
1079.395330	0.056553
1079.558559	0.059347
1079.721770	0.059501
1079.884962	0.060512
1080.048136	0.061801
1080.211293	0.063160
1080.374430	0.060496
1080.537550	0.061136
1080.700651	0.062501
1080.863735	0.063551
1081.026800	0.062383
1081.189846	0.061405
1081.352875	0.060883
1081.515885	0.059179
1081.678877	0.059952
1081.841851	0.062366
1082.004807	0.061102
1082.167744	0.060647
1082.330663	0.056480
1082.493564	0.058627
1082.656447	0.059217
1082.819312	0.058242
1082.982158	0.057045
1083.144986	0.055841
1083.307796	0.055351
1083.470587	0.056021
1083.633361	0.057162
1083.796116	0.060885
1083.958853	0.058954
1084.121571	0.061861
1084.284272	0.062227
1084.446954	0.063759
1084.609618	0.066740
1084.772264	0.068084
1084.934892	0.070452
1085.097501	0.069390
1085.260092	0.065657
1085.422665	0.064430
1085.585220	0.062937
1085.747756	0.065098
1085.910274	0.063139
1086.072774	0.060955
1086.235256	0.063662
1086.397720	0.058498
1086.560165	0.056860
1086.722592	0.058672
1086.885001	0.061124
1087.047392	0.060809
1087.209764	0.058176
1087.372119	0.059978
1087.534455	0.059088
1087.696772	0.051621
1087.859072	0.054684
1088.021353	0.055715
1088.183616	0.057179
1088.345861	0.057274
1088.508088	0.059515
1088.670296	0.059577
1088.832486	0.059879
1088.994658	0.061920
1089.156812	0.065804
1089.318948	0.067932
1089.481065	0.068490
1089.643164	0.068032
1089.805245	0.066431
1089.967308	0.063302
1090.129352	0.064944
1090.291378	0.062562
1090.453386	0.064135
1090.615376	0.065892
1090.777347	0.063026
1090.939301	0.061645
1091.101236	0.061310
1091.263153	0.060404
1091.425051	0.063585
1091.586932	0.061934
1091.748794	0.065058
1091.910638	0.061378
1092.072463	0.059900
1092.234271	0.062123
1092.396060	0.062897
1092.557831	0.063798
1092.719584	0.065748
1092.881319	0.065917
1093.043035	0.065914
1093.204733	0.067127
1093.366413	0.066511
1093.528075	0.066066
1093.689718	0.064537
1093.851343	0.064131
1094.012950	0.061924
1094.174539	0.059028
1094.336110	0.055776
1094.497662	0.057566
1094.659196	0.056123
1094.820712	0.058893
1094.982210	0.056787
1095.143689	0.059192
1095.305151	0.059700
1095.466594	0.063053
1095.628018	0.067360
1095.789425	0.070316
1095.950813	0.070401
1096.112183	0.072280
1096.273535	0.070103
1096.434869	0.070928
1096.596184	0.070757
1096.757482	0.068472
1096.918761	0.067724
1097.080021	0.064692
1097.241264	0.063000
1097.402488	0.057827
1097.563694	0.055757
1097.724882	0.056371
1097.886052	0.060917
1098.047203	0.059236
1098.208336	0.063901
1098.369451	0.062359
1098.530548	0.063951
1098.691627	0.062967
1098.852687	0.065450
1099.013729	0.063264
1099.174753	0.063407
1099.335758	0.059536
1099.496746	0.058994
1099.657715	0.059687
1099.818666	0.059873
1099.979599	0.060225
1100.140513	0.061564
1100.301409	0.064509
1100.462287	0.067261
1100.623147	0.070010
1100.783989	0.070763
1100.944812	0.072025
1101.105617	0.068092
1101.266404	0.072369
1101.427173	0.073648
1101.587923	0.073777
1101.748656	0.070770
1101.909370	0.069275
1102.070066	0.066930
1102.230743	0.065231
1102.391403	0.063980
1102.552044	0.066295
1102.712667	0.063082
1102.873271	0.064438
1103.033858	0.064739
1103.194426	0.067325
1103.354976	0.067175
1103.515508	0.067302
1103.676021	0.069991
1103.836517	0.071127
1103.996994	0.070113
1104.157453	0.064646
1104.317893	0.063485
1104.478316	0.064575
1104.638720	0.061212
1104.799106	0.060033
1104.959474	0.059061
1105.119823	0.057380
1105.280155	0.057469
1105.440468	0.056537
1105.600763	0.058188
1105.761039	0.055753
1105.921298	0.053395
1106.081538	0.057138
1106.241760	0.056696
1106.401964	0.057673
1106.562149	0.055015
1106.722316	0.054871
1106.882465	0.055760
1107.042596	0.057351
1107.202709	0.058629
1107.362803	0.061073
1107.522879	0.059336
1107.682937	0.063062
1107.842977	0.063674
1108.002999	0.069498
1108.163002	0.068640
1108.322987	0.069011
1108.482954	0.074429
1108.642902	0.077200
1108.802833	0.077282
1108.962745	0.078126
1109.122639	0.079231
1109.282515	0.079882
1109.442372	0.077783
1109.602211	0.079582
1109.762032	0.079656
1109.921835	0.076309
1110.081620	0.073922
1110.241386	0.076647
1110.401134	0.074754
1110.560864	0.070789
1110.720576	0.071293
1110.880269	0.072593
1111.039945	0.069088
1111.199602	0.068437
1111.359240	0.068634
1111.518861	0.069322
1111.678463	0.066533
1111.838047	0.069933
1111.997613	0.070757
1112.157161	0.071053
1112.316690	0.071191
1112.476202	0.070218
1112.635695	0.068596
1112.795169	0.071630
1112.954626	0.070634
1113.114064	0.070588
1113.273484	0.070379
1113.432886	0.072258
1113.592270	0.070495
1113.751635	0.067998
1113.910983	0.071727
1114.070312	0.074494
1114.229622	0.071646
1114.388915	0.071224
1114.548189	0.067169
1114.707445	0.063563
1114.866683	0.063512
1115.025903	0.062819
1115.185104	0.066566
1115.344287	0.063417
1115.503452	0.060756
1115.662599	0.062429
1115.821727	0.063834
1115.980838	0.066281
1116.139930	0.065715
1116.299004	0.065523
1116.458059	0.066342
1116.617097	0.062919
1116.776116	0.066366
1116.935117	0.064884
1117.094099	0.062867
1117.253064	0.064719
1117.412010	0.063700
1117.570938	0.063993
1117.729848	0.063116
1117.888740	0.061299
1118.047613	0.061558
1118.206468	0.059015
1118.365305	0.061214
1118.524124	0.061124
1118.682924	0.055240
1118.841707	0.058065
1119.000471	0.060953
1119.159216	0.059328
1119.317944	0.058222
1119.476653	0.063762
1119.635344	0.071034
1119.794017	0.070884
1119.952672	0.068433
1120.111308	0.071974
1120.269927	0.070404
1120.428527	0.071697
1120.587108	0.073441
1120.745672	0.075178
1120.904217	0.071775
1121.062744	0.068789
1121.221253	0.070898
1121.379744	0.072607
1121.538216	0.069874
1121.696671	0.069763
1121.855107	0.069072
1122.013524	0.068096
1122.171924	0.071589
1122.330305	0.070459
1122.488668	0.072525
1122.647013	0.073629
1122.805340	0.073014
1122.963648	0.073948
1123.121938	0.076581
1123.280210	0.074023
1123.438464	0.073180
1123.596700	0.069312
1123.754917	0.072724
1123.913116	0.070343
1124.071297	0.066570
1124.229459	0.065822
1124.387604	0.064129
1124.545730	0.056464
1124.703838	0.058670
1124.861928	0.062424
1125.019999	0.062718
1125.178052	0.055000
1125.336088	0.051906
1125.494104	0.050200
1125.652103	0.057401
1125.810083	0.061569
1125.968045	0.065354
1126.125989	0.064278
1126.283915	0.063564
1126.441823	0.063005
1126.599712	0.065968
1126.757583	0.069441
1126.915436	0.077008
1127.073270	0.074409
1127.231087	0.072449
1127.388885	0.072874
1127.546665	0.068536
1127.704426	0.072381
1127.862170	0.074080
1128.019895	0.076675
1128.177602	0.074483
1128.335291	0.075404
1128.492961	0.073517
1128.650614	0.072221
1128.808248	0.073519
1128.965864	0.077254
1129.123461	0.069118
1129.281041	0.069569
1129.438602	0.069535
1129.596145	0.069720
1129.753670	0.065776
1129.911176	0.066343
1130.068665	0.071333
1130.226135	0.070538
1130.383587	0.069916
1130.541020	0.071782
1130.698436	0.070291
1130.855833	0.068039
1131.013212	0.066668
1131.170573	0.064673
1131.327915	0.064695
1131.485239	0.062037
1131.642545	0.065492
1131.799833	0.065565
1131.957103	0.066626
1132.114354	0.067811
1132.271588	0.072185
1132.428803	0.075620
1132.585999	0.072964
1132.743178	0.073433
1132.900338	0.075768
1133.057480	0.072094
1133.214604	0.069499
1133.371710	0.070661
1133.528797	0.069537
1133.685866	0.071754
1133.842917	0.071167
1133.999950	0.074918
1134.156964	0.068983
1134.313960	0.064099
1134.470938	0.063563
1134.627898	0.065841
1134.784840	0.060225
1134.941763	0.062296
1135.098668	0.051847
1135.255555	0.052232
1135.412424	0.052374
1135.569274	0.056895
1135.726107	0.057678
1135.882921	0.059560
1136.039716	0.063385
1136.196494	0.067914
1136.353253	0.067355
1136.509995	0.073273
1136.666717	0.070050
1136.823422	0.067081
1136.980109	0.066134
1137.136777	0.068146
1137.293427	0.067074
1137.450059	0.064365
1137.606672	0.062865
1137.763267	0.063271
1137.919844	0.068529
1138.076403	0.069452
1138.232944	0.073759
1138.389466	0.076182
1138.545971	0.073231
1138.702457	0.072419
1138.858924	0.070971
1139.015374	0.076733
1139.171805	0.077912
1139.328218	0.070829
1139.484613	0.072305
1139.640990	0.072012
1139.797348	0.074265
1139.953688	0.080148
1140.110010	0.078531
1140.266314	0.077445
1140.422600	0.072453
1140.578867	0.067023
1140.735116	0.072089
1140.891347	0.071968
1141.047559	0.071144
1141.203754	0.068840
1141.359930	0.065708
1141.516088	0.069405
1141.672228	0.070064
1141.828349	0.073054
1141.984452	0.080184
1142.140537	0.073303
1142.296604	0.074954
1142.452653	0.072384
1142.608683	0.073406
1142.764695	0.076967
1142.920689	0.080285
1143.076665	0.085133
1143.232622	0.084940
1143.388562	0.080798
1143.544483	0.077204
1143.700385	0.072182
1143.856270	0.070235
1144.012136	0.070622
1144.167985	0.065902
1144.323814	0.064200
1144.479626	0.064529
1144.635420	0.065033
1144.791195	0.069201
1144.946952	0.071789
1145.102691	0.072475
1145.258411	0.075384
1145.414113	0.070840
1145.569798	0.076705
1145.725463	0.072172
1145.881111	0.068623
1146.036741	0.067123
1146.192352	0.065145
1146.347945	0.070857
1146.503519	0.072456
1146.659076	0.073011
1146.814614	0.074269
1146.970134	0.066870
1147.125636	0.067791
1147.281120	0.072101
1147.436585	0.076420
1147.592032	0.073884
1147.747461	0.068341
1147.902872	0.067366
1148.058265	0.070151
1148.213639	0.069890
1148.368995	0.078532
1148.524333	0.082608
1148.679653	0.078579
1148.834954	0.073965
1148.990237	0.069669
1149.145502	0.070040
1149.300749	0.068856
1149.455977	0.074728
1149.611188	0.073343
1149.766380	0.071492
1149.921553	0.070310
1150.076709	0.068448
1150.231846	0.073131
1150.386966	0.075346
1150.542066	0.081132
1150.697149	0.081702
1150.852214	0.076177
1151.007260	0.080964
1151.162288	0.076982
1151.317298	0.068834
1151.472289	0.072296
1151.627263	0.067614
1151.782218	0.068552
1151.937155	0.068069
1152.092073	0.071206
1152.246974	0.065610
1152.401856	0.063595
1152.556720	0.065031
1152.711566	0.070367
1152.866393	0.066523
1153.021203	0.064740
1153.175994	0.064666
1153.330767	0.062437
1153.485521	0.064886
1153.640258	0.068450
1153.794976	0.063768
1153.949676	0.067108
1154.104358	0.068053
1154.259021	0.066393
1154.413667	0.070364
1154.568294	0.072655
1154.722903	0.074593
1154.877493	0.073282
1155.032066	0.081289
1155.186620	0.085433
1155.341156	0.080605
1155.495674	0.084229
1155.650173	0.088753
1155.804654	0.087964
1155.959118	0.089978
1156.113562	0.088695
1156.267989	0.081893
1156.422397	0.071580
1156.576788	0.073207
1156.731160	0.069839
1156.885513	0.068598
1157.039849	0.070836
1157.194166	0.068763
1157.348465	0.067766
1157.502746	0.070658
1157.657009	0.077463
1157.811253	0.078514
1157.965479	0.072017
1158.119687	0.083418
1158.273877	0.086110
1158.428048	0.087642
1158.582201	0.097161
1158.736337	0.094398
1158.890453	0.095056
1159.044552	0.096171
1159.198632	0.097337
1159.352694	0.094329
1159.506738	0.089327
1159.660764	0.079597
1159.814771	0.077039
1159.968761	0.070269
1160.122732	0.073166
1160.276685	0.065159
1160.430619	0.061237
1160.584535	0.066005
1160.738434	0.070631
1160.892313	0.067215
1161.046175	0.069657
1161.200019	0.068230
1161.353844	0.063806
1161.507651	0.065436
1161.661440	0.073086
1161.815210	0.061424
1161.968962	0.048489
1162.122697	0.046826
1162.276412	0.046161
1162.430110	0.055703
1162.583789	0.059638
1162.737451	0.062516
1162.891094	0.058748
1163.044718	0.054703
1163.198325	0.070482
1163.351913	0.069850
1163.505483	0.071711
1163.659035	0.075601
1163.812569	0.071734
1163.966084	0.073004
1164.119581	0.064189
1164.273060	0.064405
1164.426521	0.066410
1164.579964	0.053361
1164.733388	0.059951
1164.886794	0.052059
1165.040182	0.043489
1165.193551	0.039879
1165.346903	0.038944
1165.500236	0.048767
1165.653551	0.042221
1165.806848	0.048712
1165.960126	0.061933
1166.113386	0.063540
1166.266628	0.075507
1166.419852	0.084285
1166.573058	0.089257
1166.726245	0.092220
1166.879414	0.086856
1167.032565	0.096115
1167.185698	0.085555
1167.338812	0.080012
1167.491909	0.086086
1167.644987	0.084075
1167.798046	0.076373
1167.951088	0.067490
1168.104111	0.055089
1168.257117	0.053096
1168.410103	0.046448
1168.563072	0.044070
1168.716023	0.048031
1168.868955	0.041119
1169.021869	0.036776
1169.174765	0.027905
1169.327642	0.035404
1169.480501	0.045471
1169.633343	0.049791
1169.786165	0.068179
1169.938970	0.066092
1170.091757	0.056969
1170.244525	0.056864
1170.397275	0.061163
1170.550007	0.077405
1170.702720	0.071856
1170.855415	0.061933
1171.008092	0.059027
1171.160751	0.041369
1171.313392	0.042972
1171.466014	0.036594
1171.618619	0.029983
1171.771205	0.029983
1171.923772	0.029983
