sample name	sample
index	1452
start time	 05-10-2021  01:30:28 PM
880	0.425958
Peak Time (s)	91.535
Peak Height 	0.426
calc peak height	90,93
Baseline Time (s)	9.535
Baseline Value 	-0.004505
subtract baseline	10,4
Abs	0.272489
Peak Time (s)	92.536
Peak Height 	0.2725
calc peak height	90,93
Baseline Time (s)	11.036
Baseline Value 	-1.3815E-4
subtract baseline	10,3
PK_550	0.137827
Peak Time (s)	90.535
Peak Height 	0.1378
calc peak height	90,93
Baseline Time (s)	8.537
Baseline Value 	5.4567E-4
subtract baseline	10,2
PK_880	0.242293
Peak Time (s)	91.035
Peak Height 	0.2423
calc peak height	90,93
Baseline Time (s)	8.537
Baseline Value 	0.001282
subtract baseline	10,1


Time (s)	A880-A510	A880-A775	A880-A975	A880	I510	I775	I975	I880	
0.037500	-0.005196	-0.000204	-0.002677	0.008087	6396.130938	43384.501400	3919.299452	22326.845188
0.535500	-0.004643	-0.000468	-0.001264	0.004929	6426.555230	43654.853385	3930.980166	22468.909978
1.035500	-0.001606	-0.000301	0.000632	0.004240	6457.363525	43735.110700	3937.639088	22500.024117
1.537000	-0.000199	-0.000411	0.002342	0.002304	6485.244516	43907.114182	3947.103168	22587.809646
2.039000	-0.000764	0.000029	0.001827	0.004003	6466.351021	43788.510809	3941.347554	22510.785403
2.536500	-0.001182	0.000051	0.004975	0.001772	6481.469167	44000.946576	3955.380753	22611.976871
3.042500	0.002409	0.000512	0.002162	-0.000731	6532.787750	44282.136413	3954.568194	22726.178548
3.537000	0.000109	-0.000473	-0.002591	0.001283	6496.381280	43997.624982	3936.952535	22634.219030
4.035500	-0.002062	0.000068	0.000097	0.001238	6478.577192	44053.028719	3944.033402	22636.284337
4.535000	-0.001024	-0.000203	0.001409	0.001096	6488.449149	44040.838129	3947.819863	22642.755344
5.035000	-0.000863	-0.001085	0.000084	0.000834	6491.998059	43982.279462	3945.052199	22654.709414
5.535500	-0.000769	0.000101	0.000866	0.001000	6491.392163	44078.733982	3946.655455	22647.147082
6.036000	0.000653	-0.000252	-0.000307	0.000278	6509.407670	44113.643290	3945.479324	22680.036283
6.536500	-0.001895	0.000211	0.003408	0.000824	6483.433104	44105.745858	3953.756307	22655.125100
7.036000	-0.000603	-0.000101	-0.003262	0.000332	6498.388598	44122.857718	3937.676735	22677.589552
7.536500	0.001370	-0.000691	0.004176	0.000543	6513.222547	44047.083919	3956.510596	22667.977707
8.036500	-0.002242	0.000311	0.003018	0.000618	6482.260888	44134.833780	3953.276060	22664.546860
8.537500	0.000000	0.000000	0.004863	0.000498	6502.064537	44116.748323	3958.435715	22670.023249
9.035000	0.000977	0.001027	0.001892	0.001139	6504.882845	44153.303194	3948.967350	22640.780398
9.535000	-0.002221	-0.000473	-0.001803	0.000000	6487.607377	44119.110639	3942.315192	22692.744111
10.035500	0.000042	0.000091	-0.002068	-0.000087	6507.338988	44180.844744	3941.853433	22696.712258
10.536000	-0.001125	-0.000461	-0.001815	-0.000197	6498.445319	44138.912832	3942.795594	22701.741379
11.036000	0.000799	0.000670	0.000000	0.000269	6510.711856	44201.981199	3946.301797	22680.446066
11.536500	-0.002749	-0.000563	0.001346	-0.000322	6485.882824	44141.111084	3951.359961	22707.459254
12.036500	0.000668	-0.000091	0.001482	-0.000273	6514.182652	44181.167341	3951.584824	22705.195835
12.537000	-0.000635	0.000166	0.000999	0.000260	6498.719733	44155.049868	3948.928584	22680.852334
13.037500	-0.000213	0.000725	0.000131	-0.000475	6508.459275	44277.967658	3948.583431	22714.430526
13.537500	-0.001191	0.000983	0.001912	0.001541	6483.327716	44111.034806	3947.969743	22622.494654
14.037500	-0.001430	-0.000605	0.001633	0.001295	6483.381373	43984.000519	3947.884690	22633.681402
14.538000	-0.003184	0.000221	-0.000805	0.001974	6463.093126	43997.931393	3939.783976	22602.798011
15.035000	0.000443	0.000162	0.007382	-0.000155	6511.285389	44194.028871	3966.813743	22699.809540
15.536000	-0.001388	-0.000293	0.005164	0.000749	6488.310163	44065.135813	3958.567194	22658.558742
16.036000	-0.000353	-0.000126	0.000778	-0.000797	6509.986985	44227.646013	3951.113442	22729.164083
16.536500	-0.000597	0.000424	-0.000911	0.000048	6500.827102	44199.756983	3944.509586	22690.574818
17.036500	0.002231	0.000753	0.003761	-0.002942	6550.056893	44516.198740	3964.604700	22827.542894
17.537000	-0.001749	-0.000520	0.003281	0.001555	6478.540135	43967.474381	3951.508412	22621.838986
18.037000	-0.000643	0.000447	0.001561	0.001085	6491.737182	44103.404453	3948.244578	22643.246680
18.535000	-0.001140	0.000450	0.005661	0.001502	6484.079218	44064.229965	3957.894308	22624.278767
19.037500	-0.001538	0.000070	-0.003128	0.000894	6485.837121	44085.772625	3936.569735	22651.940521
19.535500	-0.000074	0.000079	-0.003292	0.001369	6494.130923	44041.760712	3934.922670	22630.333064
20.035500	-0.001243	0.000453	0.002151	0.001222	6485.563201	44091.022937	3949.427698	22637.021071
20.536000	-0.001352	0.000005	0.002484	0.000852	6487.743991	44083.640548	3951.262582	22653.854794
21.036500	-0.001603	0.000053	0.001719	0.000631	6487.490526	44109.161111	3949.842429	22663.940798
21.536500	-0.001404	0.000103	0.003599	0.001052	6485.633509	44073.961413	3953.659307	22644.758260
22.036500	-0.001564	-0.000157	-0.002770	0.000806	6486.358282	44072.648574	3937.723918	22655.974786
22.537000	0.000031	0.000074	0.005540	0.001437	6494.432364	44034.790972	3957.746373	22627.226610
23.037500	-0.000116	-0.000397	0.002994	0.000655	6499.771343	44064.219620	3953.115800	22662.849619
23.537500	-0.000914	0.000576	0.003342	0.001433	6486.553050	44082.717561	3951.990019	22627.427097
24.035000	-0.000224	-0.000073	-0.002045	0.001094	6495.180457	44053.365507	3938.853382	22642.857826
24.538500	-0.001406	-0.000615	-0.000470	0.001030	6485.805401	44008.164774	3943.102584	22645.766473
25.082500	-0.001291	0.000984	0.002050	0.002157	6477.342079	44052.785755	3946.725325	22594.475634
25.566000	-0.003280	0.000068	0.000915	0.001171	6468.971596	44059.436980	3946.336742	22639.329309
26.036000	-0.000839	-0.000040	-0.001069	0.001131	6489.701307	44052.929201	3941.283020	22641.144285
26.536500	-0.003281	0.000359	0.006904	0.001438	6466.745597	44061.713053	3961.337785	22627.189216
27.037000	-0.000408	-0.001194	0.001686	-0.002040	6520.022483	44244.342367	3956.755823	22786.144010
27.537000	-0.002732	-0.000398	0.003930	0.003454	6454.553024	43799.965713	3948.243683	22535.629681
28.037500	-0.000879	0.000084	0.004741	-0.000292	6501.310268	44199.643291	3960.194945	22706.077262
28.535000	0.001253	0.000848	0.001242	0.000451	6513.006286	44201.629762	3949.065555	22672.135031
29.035500	0.000187	-0.000015	0.004547	-0.000010	6507.908569	44163.432241	3958.941439	22693.190417
29.535500	-0.001677	-0.000112	0.002362	0.004576	6453.993325	43721.315765	3941.247938	22484.843988
30.035500	-0.000627	-0.000911	0.006920	-0.000380	6504.176403	44113.614762	3966.189089	22710.113989
30.536500	-0.001204	-0.000423	-0.000486	0.001880	6480.384009	43945.931941	3940.854087	22607.077612
31.036500	-0.000927	-0.000046	0.001811	0.002449	6477.939625	43927.846649	3945.342888	22581.205684
31.536500	-0.002525	0.000608	0.002648	0.004070	6451.149275	43836.604886	3943.302057	22507.711761
32.036500	-0.000915	0.000212	-0.001215	-0.000064	6499.096769	44190.170518	3944.007478	22695.665184
32.537000	-0.001310	-0.000239	0.000248	-0.000312	6497.857556	44170.868958	3948.462694	22706.978145
33.035000	-0.001345	0.000054	-0.000615	0.000146	6493.722612	44155.204429	3945.021920	22686.065521
33.537500	-0.004307	-0.000619	0.003714	0.003146	6444.047749	43808.144324	3948.483953	22549.570520
34.035500	-0.003844	-0.000171	-0.001683	0.001760	6459.374449	43981.066727	3938.065853	22612.509213
34.535500	-0.000246	0.001051	-0.000853	0.002736	6481.238084	44004.365747	3937.691005	22568.197675
35.036000	-0.000349	0.001178	0.000646	0.002791	6479.911220	44011.144727	3941.426376	22565.684290
35.536500	-0.003062	-0.000445	0.000437	0.003124	6454.550257	43826.539342	3940.023730	22550.577351
36.037000	-0.001335	-0.000052	-0.000101	0.001470	6482.716533	44019.761073	3942.916108	22625.728236
36.537000	0.000579	0.000544	0.004212	0.002056	6493.837338	44020.717879	3952.637205	22599.072191
37.037500	-0.001892	-0.000633	-0.002570	0.001263	6479.790565	43984.377042	3937.059226	22635.141457
37.537500	-0.000825	-0.000257	0.003215	0.001411	6487.477877	44006.001239	3951.716079	22628.423938
38.035000	-0.000064	0.000462	0.002623	0.002371	6485.815382	43983.132685	3947.660498	22584.753059
38.535000	-0.000560	0.000024	0.002611	0.001946	6485.212203	43981.879374	3948.737150	22604.049245
39.035500	-0.001086	0.000001	0.000699	0.002212	6478.595424	43954.653189	3943.066745	22591.981497
39.536000	-0.000549	-0.000032	0.000559	0.001726	6487.148965	43997.385863	3943.965855	22614.066573
40.036000	0.000920	0.000217	0.000894	0.001740	6499.357942	44019.682721	3944.800051	22613.437858
40.536500	-0.000716	0.000098	0.002698	0.001939	6483.976251	43989.594871	3948.985235	22604.402150
41.039500	-0.002266	-0.000104	0.000296	0.001402	6475.502059	44021.224810	3944.124686	22628.803376
41.537000	-0.002109	-0.000391	-0.002851	0.001582	6475.313764	43977.095910	3935.509160	22620.625114
42.034500	-0.002492	-0.000315	0.002820	0.001402	6473.616830	44001.335349	3950.705097	22628.812037
42.537000	-0.001633	-0.000255	-0.000606	0.001539	6479.646440	43994.059820	3941.429079	22622.588536
43.035000	-0.000465	-0.000049	0.009366	0.001508	6489.680210	44016.415053	3967.665377	22623.978714
43.535500	-0.001370	0.000626	0.000730	0.001938	6478.511330	44039.639585	3943.861419	22604.451841
44.036000	0.001991	0.000728	0.006169	0.000401	6519.653798	44194.952920	3962.132458	22674.416949
44.536000	0.000540	0.000196	0.004064	0.000185	6509.237656	44165.036256	3957.156956	22684.288237
45.036500	-0.000680	-0.000331	-0.001323	-0.000642	6505.929958	44193.474223	3945.229586	22722.076124
45.539500	-0.003761	0.000224	-0.000498	0.005936	6425.529165	43625.311779	3930.358972	22423.475026
46.036500	-0.001209	0.000727	0.000500	0.000175	6494.613644	44216.325931	3947.850813	22684.737849
46.537000	-0.000938	0.000177	0.001086	-0.000223	6500.238697	44201.970396	3950.419366	22702.945055
47.035000	0.000777	0.000779	-0.002740	0.001191	6502.764457	44124.897271	3936.805116	22638.419491
47.535000	-0.002756	-0.000518	-0.004894	0.003945	6450.274647	43742.524914	3924.203810	22513.390714
48.035000	0.000064	0.000204	0.006577	0.000515	6502.456643	44134.383210	3962.910383	22669.219014
48.535500	0.000278	0.000839	0.001351	0.000576	6503.746450	44189.025002	3949.025963	22666.476866
49.035500	0.000421	0.000783	0.008399	0.000434	6506.143995	44197.194110	3967.952382	22672.952319
49.536500	-0.005171	-0.000207	-0.000354	0.004055	6429.408420	43761.369678	3935.572128	22508.422327
50.039000	0.002685	0.000633	0.002245	-0.000315	6531.589496	44254.082165	3953.693046	22707.130683
50.537000	-0.000731	-0.000477	0.004646	0.002757	6477.014501	43858.136487	3951.938326	22567.247583
51.036500	0.014918	-0.005976	0.064070	0.258933	4934.759316	25339.623903	3537.839562	13784.961144
51.537500	-0.009772	-0.025325	-0.001840	0.061906	5950.031709	36662.403921	3792.503238	20057.733397
52.034500	-0.014430	-0.063807	-0.032222	-0.228215	8831.398388	63134.560771	4592.473971	36403.814992
52.535000	-0.013248	-0.100971	-0.031492	-0.282330	9643.555698	65530.524303	4831.699098	40855.355056
53.035000	-0.006067	-0.063887	-0.019312	-0.231860	8999.085585	63630.820860	4661.530726	36686.556318
53.535500	-0.002352	-0.034917	-0.004271	-0.168111	8205.256885	58960.021150	4465.652435	32068.247476
54.036000	0.002576	-0.023069	0.004678	-0.106802	7553.305196	52929.860788	4278.202591	28222.520580
54.536000	-0.001107	-0.021914	0.003577	-0.123750	7699.174164	55057.711750	4332.569804	29231.924233
55.036500	0.003375	-0.025628	0.006604	-0.153460	8096.354036	58272.760835	4451.365230	31099.296793
55.537000	0.015870	-0.015162	0.026028	-0.117644	7822.071364	55135.371274	4390.762536	28863.706157
56.037000	0.036938	-0.001886	0.047066	-0.049128	7307.520578	48901.237517	4227.605004	25068.248230
56.535000	0.047280	0.009156	0.059993	0.019630	6746.575553	43181.624083	4057.230238	21816.189354
57.035000	0.066659	0.024602	0.080723	0.090445	6311.408289	38364.831337	3921.950734	18963.857260
57.535000	0.072852	0.028075	0.088969	0.134841	6019.963987	35179.222233	3833.562141	17398.805690
58.035500	0.086291	0.032309	0.099981	0.138850	6089.539043	35195.891817	3850.116555	17265.209712
58.535500	0.100966	0.042595	0.112096	0.135722	6225.080755	36207.735292	3887.081627	17369.346679
59.035500	0.119347	0.053948	0.133464	0.170180	6102.439194	34484.085068	3855.258772	16262.497611
59.536500	0.133924	0.066329	0.149993	0.214805	5885.046946	32226.982872	3790.107029	14953.586167
60.037000	0.153238	0.077272	0.170170	0.236993	5865.027283	31478.346611	3785.602462	14351.142815
60.537000	0.158053	0.079659	0.176616	0.262287	5726.172537	30012.093291	3744.392542	13700.903237
61.037000	0.173098	0.088802	0.188612	0.290582	5639.753251	28844.196821	3710.168452	13017.008252
61.534500	0.181529	0.094223	0.204642	0.313543	5547.979868	27818.855904	3696.000022	12493.876835
62.034500	0.191726	0.100360	0.214207	0.350009	5389.650187	26140.737068	3643.100834	11717.866003
62.535500	0.195953	0.105645	0.217420	0.345167	5443.229947	26688.065878	3658.596773	11817.183272
63.035500	0.201075	0.109858	0.224197	0.344048	5480.757890	26981.397910	3674.071229	11840.295121
63.538500	0.203148	0.112716	0.226955	0.345374	5485.283803	27066.353233	3676.907335	11812.912186
64.036000	0.205971	0.113850	0.230752	0.346347	5496.538258	27075.365291	3682.529128	11792.886789
64.536000	0.206335	0.115140	0.225278	0.348241	5487.229458	27041.794017	3667.939288	11753.994492
65.036500	0.209836	0.115122	0.230296	0.350786	5493.037027	26899.980724	3672.807497	11702.019322
65.537000	0.207165	0.116710	0.230270	0.360534	5418.539407	26453.952758	3653.723675	11505.726046
66.037500	0.211551	0.118455	0.229584	0.359031	5453.604190	26630.512724	3655.302591	11535.705875
66.535000	0.216043	0.119889	0.237023	0.362412	5460.276456	26524.585413	3663.189854	11468.431122
67.035000	0.216720	0.122592	0.238194	0.366018	5442.728155	26475.541689	3658.448235	11397.228473
67.538500	0.217240	0.125047	0.239869	0.371595	5412.714744	26306.918724	3650.906057	11288.267563
68.035500	0.222506	0.127617	0.244058	0.372972	5435.770852	26371.233243	3656.335056	11261.594890
68.536000	0.221818	0.127609	0.243741	0.376100	5413.146771	26202.668488	3649.690489	11201.280495
69.036500	0.225280	0.129649	0.246436	0.380894	5405.298683	26055.562420	3645.665703	11109.686728
69.536000	0.224645	0.130125	0.250934	0.389188	5353.311011	25643.196805	3638.439982	10953.605898
70.037000	0.229385	0.132075	0.255129	0.389952	5376.333275	25705.308695	3644.970129	10939.389072
70.537000	0.228478	0.131204	0.256060	0.392946	5353.741458	25503.594179	3641.036938	10883.861257
71.037500	0.230287	0.132875	0.257473	0.397155	5339.947754	25372.113254	3635.739038	10806.462357
71.535000	0.226597	0.131931	0.251276	0.403213	5284.689885	25013.373354	3612.910309	10696.359859
72.038000	0.230953	0.134031	0.258018	0.401108	5321.173185	25228.123078	3629.323845	10734.441092
72.535500	0.228787	0.134018	0.253140	0.402459	5301.247053	25158.238487	3617.732093	10709.983676
73.035500	0.231250	0.133949	0.255364	0.403061	5311.771745	25123.973807	3620.734914	10699.110704
73.536000	0.228165	0.135489	0.253790	0.408723	5262.692353	24914.351878	3607.425176	10597.540456
74.036500	0.233712	0.136512	0.253153	0.406930	5303.807893	25057.327038	3609.537461	10629.563901
74.536500	0.233684	0.136802	0.256204	0.408623	5294.104320	24985.940991	3612.024644	10599.320597
75.037000	0.236426	0.137066	0.259995	0.409919	5302.257159	24933.632418	3616.614420	10576.256124
75.537500	0.232872	0.136725	0.257143	0.414376	5257.442013	24691.971344	3603.240595	10497.451740
76.037500	0.238442	0.137324	0.255420	0.412912	5296.746041	24795.615497	3602.772673	10523.256404
76.535500	0.235141	0.138578	0.265470	0.413592	5274.427997	24824.494091	3619.947969	10511.269003
77.038000	0.238926	0.138221	0.265939	0.414051	5293.058195	24783.375302	3619.964805	10503.170127
77.535500	0.235334	0.137779	0.264190	0.417887	5251.637706	24569.265738	3609.682986	10435.945759
78.036000	0.238376	0.139502	0.264378	0.415557	5281.524434	24772.110811	3614.303936	10476.720289
78.536000	0.237692	0.139266	0.259976	0.414449	5283.897670	24815.962853	3608.264864	10496.169099
79.039500	0.238004	0.138839	0.261460	0.413640	5290.189490	24835.238962	3612.463268	10510.420187
79.537000	0.237628	0.140088	0.267430	0.414663	5282.341254	24846.627087	3621.596464	10492.412240
80.039500	0.240377	0.140793	0.263514	0.415586	5292.586640	24835.620447	3612.660417	10476.203023
80.537500	0.239722	0.139974	0.267498	0.415562	5289.039756	24795.574389	3620.054884	10476.625415
81.038000	0.237456	0.138862	0.266739	0.414775	5280.754650	24779.247874	3620.106956	10490.450743
81.534500	0.237168	0.139985	0.265517	0.418340	5259.284504	24656.774503	3611.283763	10428.053114
82.035500	0.241776	0.138343	0.268706	0.414585	5306.119566	24762.693355	3624.111894	10493.775404
82.535500	0.237221	0.138766	0.264301	0.415475	5275.522641	24739.244407	3614.311372	10478.151467
83.036000	0.238178	0.139307	0.266003	0.417006	5272.319096	24689.620527	3614.625506	10451.333984
83.536000	0.239741	0.139008	0.264044	0.419207	5268.763812	24564.768269	3607.005711	10412.950622
84.037000	0.239435	0.138639	0.262762	0.417506	5276.544408	24631.178097	3607.770484	10442.594509
84.536500	0.241940	0.139961	0.267414	0.418893	5282.796652	24627.939139	3613.751116	10418.411819
85.037500	0.238997	0.139356	0.267660	0.419080	5265.332345	24588.470710	3613.860131	10415.169010
85.537500	0.239208	0.138990	0.260892	0.420785	5257.038148	24485.396111	3598.430087	10385.546295
86.035000	0.239691	0.138817	0.267721	0.419174	5268.670430	24556.908228	3613.798678	10413.529554
86.535500	0.238822	0.138833	0.261446	0.419835	5260.168322	24524.830428	3601.147779	10402.046184
87.035500	0.238145	0.138336	0.268395	0.419521	5258.152260	24515.728043	3614.400420	10407.487920
87.536000	0.240308	0.138146	0.264719	0.422058	5256.077253	24380.669779	3603.047732	10363.517080
88.036000	0.240626	0.138319	0.262645	0.421114	5263.083520	24435.909873	3601.002770	10379.858473
88.536500	0.238038	0.137411	0.266890	0.420828	5250.325912	24405.119845	3609.242864	10384.810736
89.037000	0.240035	0.136793	0.268815	0.420881	5261.092656	24371.940932	3612.671761	10383.882779
89.537500	0.239196	0.137871	0.264462	0.422056	5249.939784	24367.211247	3602.587023	10363.559675
90.034500	0.242052	0.137613	0.270505	0.423050	5260.253008	24305.545496	3611.793463	10346.406798
90.535000	0.240981	0.137827	0.269354	0.424005	5249.034128	24269.073939	3607.940815	10329.952093
91.035000	0.242293	0.136320	0.263519	0.423056	5261.555958	24241.721613	3599.072470	10346.295319
91.535500	0.241963	0.136849	0.265599	0.425958	5243.679734	24125.649362	3597.591156	10296.429701
92.035500	0.239074	0.137169	0.266010	0.425062	5232.723311	24185.070571	3599.949339	10311.792721
92.536000	0.239439	0.136038	0.272489	0.424428	5238.202214	24160.710593	3612.904526	10322.670986
93.036500	0.243684	0.136867	0.274783	0.426068	5252.571575	24121.110456	3614.107252	10294.536607
93.540500	0.237060	0.135363	0.275117	0.426474	5213.999632	24028.209782	3613.976444	10287.601729
94.039500	0.239910	0.134026	0.272912	0.425268	5236.180963	24021.850539	3612.141629	10308.263028
94.537000	0.240109	0.133212	0.271526	0.425284	5237.183560	23981.564135	3609.572163	10307.977113
95.034000	0.244450	0.136128	0.269233	0.429124	5239.933189	23936.826112	3598.432255	10242.393493
95.535000	0.239128	0.133948	0.267016	0.428424	5214.645005	23865.449055	3595.703219	10254.321183
96.035500	0.243273	0.134667	0.269179	0.428495	5236.922041	23896.643493	3599.469695	10253.097413
