sample name	sample
index	817
start time	 03-31-2021  03:36:22 PM
880	0.506303
Peak Time (s)	92.535
Peak Height 	0.5063
calc peak height	90,93
Baseline Time (s)	9.537
Baseline Value 	-0.003945
subtract baseline	10,4
Abs	0.344677
Peak Time (s)	92.535
Peak Height 	0.3447
calc peak height	90,93
Baseline Time (s)	9.537
Baseline Value 	0.002745
subtract baseline	10,3
PK_550	0.140538
Peak Time (s)	91.535
Peak Height 	0.1405
calc peak height	90,93
Baseline Time (s)	10.035
Baseline Value 	4.2497E-4
subtract baseline	10,2
PK_880	0.334031
Peak Time (s)	92.035
Peak Height 	0.334
calc peak height	90,93
Baseline Time (s)	10.538
Baseline Value 	0.002089
subtract baseline	10,1


Time (s)	A880-A510	A880-A775	A880-A975	A880	I510	I775	I975	I880	
0.034500	0.002148	0.000017	-0.000728	0.003144	6642.026824	39282.945122	4044.140045	21534.614371
0.535000	0.000238	-0.000946	-0.005249	0.002949	6628.231934	39219.159380	4034.908507	21542.875715
1.035500	-0.001948	-0.000519	0.002073	0.003776	6604.132418	39185.916801	4048.806078	21507.858433
1.535500	-0.001165	-0.000547	0.003373	0.002052	6624.173969	39326.905399	4055.347879	21580.938504
2.035500	-0.000818	-0.000460	-0.002188	0.001803	6628.948406	39354.759676	4043.884369	21591.487753
2.536500	-0.001256	-0.000368	0.003863	0.001581	6627.218221	39380.970222	4057.433774	21600.932922
3.036500	-0.000220	-0.000329	-0.002085	-0.001230	6658.231956	39619.409203	4050.634576	21720.831746
3.537000	0.000592	0.000682	0.002169	0.000934	6647.299693	39522.746766	4055.159663	21628.450677
4.040000	-0.000340	-0.000255	0.000827	0.000551	6642.872746	39476.450376	4053.080515	21644.779675
4.537500	-0.000223	0.000177	-0.001495	0.000002	6648.241765	39558.523781	4049.248610	21668.193111
5.037500	0.000664	0.000579	0.003204	0.000627	6650.358719	39539.840132	4058.077207	21641.543602
5.537500	-0.001160	-0.000522	-0.003031	0.000143	6639.547952	39488.173000	4045.638486	21662.159274
6.038500	0.001274	-0.000040	0.002686	0.000564	6655.799726	39493.334231	4057.086366	21644.230644
6.569000	-0.001007	-0.000395	-0.002146	-0.000484	6645.839772	39551.261765	4048.892181	21688.918184
7.036000	0.002808	0.000280	-0.003851	0.000044	6672.459663	39563.610542	4044.091967	21666.409273
7.584000	-0.001644	-0.000705	-0.002681	-0.000409	6640.102710	39519.099645	4047.579769	21685.753821
8.515000	0.000472	0.000037	0.003937	-0.000142	6655.029448	39558.852164	4061.353522	21674.356213
8.650000	0.001327	0.000131	0.000967	0.000228	6658.951195	39535.738796	4054.085042	21658.552876
9.037500	-0.001305	-0.000056	0.002939	0.000139	6638.419315	39527.482731	4058.562120	21662.339484
9.537500	-0.000247	0.000013	0.000000	0.000000	6648.068884	39544.943703	4052.483146	21668.275505
10.035000	-0.001280	0.000000	0.000846	-0.000507	6643.826378	39586.343780	4055.416165	21689.926306
10.538000	0.000000	-0.000326	-0.000311	-0.000251	6652.088805	39537.522824	4052.353991	21678.981861
11.035000	0.001054	-0.000723	-0.000064	-0.000635	6663.726769	39536.444874	4053.719370	21695.382843
11.536000	0.000995	0.000063	-0.002414	0.000316	6655.551053	39522.696411	4046.594625	21654.812827
12.036000	0.001283	0.000255	0.000478	0.000216	6658.696889	39547.154094	4053.051820	21659.076970
12.536000	0.001229	0.000257	0.003766	0.000051	6659.584710	39561.053053	4060.557109	21666.089156
13.036500	0.000229	-0.001051	-0.000538	0.000348	6649.103399	39426.888002	4050.568458	21653.432279
13.536500	-0.000422	-0.000046	0.003644	0.001369	6635.618547	39425.495603	4057.418902	21609.931719
14.037500	-0.000830	0.000674	0.003624	0.002763	6621.156842	39369.330618	4054.347930	21550.743064
14.537500	-0.000585	-0.000783	-0.001969	0.002242	6627.294557	39291.332420	4043.413589	21572.842003
15.038000	0.001391	0.000801	-0.003695	0.002041	6644.812472	39440.120910	4040.150358	21581.372871
15.535500	-0.001678	-0.000888	-0.003218	0.000399	6633.324809	39436.194936	4044.688062	21651.245540
16.035500	0.002762	0.000358	-0.003555	0.000944	6664.775759	39494.805586	4042.795477	21628.023321
16.536000	0.000448	0.000426	-0.000935	0.001560	6641.091225	39449.036269	4047.098920	21601.847552
17.036500	0.002489	0.000876	-0.000021	-0.001837	6685.182092	39771.755366	4056.421966	21746.834340
17.537000	-0.001258	0.000626	0.006522	0.002653	6618.607316	39374.428385	4060.893105	21555.401859
18.037000	-0.000129	0.000200	0.001636	0.001990	6632.984533	39394.261669	4051.718286	21583.557478
18.537000	-0.000830	-0.000817	-0.007999	0.001355	6632.452454	39362.360732	4032.454753	21610.528193
19.037500	0.000270	0.000160	-0.001543	0.001639	6639.018936	39420.215444	4045.620911	21598.469496
19.535000	-0.000335	0.000055	-0.003719	0.001834	6632.586499	39395.139153	4040.542246	21590.181924
20.035000	-0.001104	-0.000342	0.002985	0.001277	6630.883390	39408.578532	4056.188530	21613.878900
20.535500	-0.000190	-0.000181	-0.004082	0.001367	6637.509458	39414.392465	4040.763288	21610.032764
21.036000	0.001134	0.000472	0.004719	0.002023	6642.885147	39414.160249	4058.335139	21582.139414
21.536000	-0.000206	-0.000786	-0.000257	0.001667	6634.970506	39339.040966	4048.328912	21597.293194
22.039000	-0.001749	-0.000069	-0.001744	0.002021	6619.746724	39369.300369	4044.371225	21582.253902
22.536500	-0.000369	0.000154	-0.005183	0.002005	6630.944705	39389.199261	4037.054668	21582.937875
23.036500	-0.000125	-0.000048	0.002922	0.001797	6634.567926	39389.694894	4054.921270	21591.756132
23.537000	0.002489	-0.000160	0.001525	0.001796	6655.662222	39380.394150	4051.896879	21591.797795
24.034000	0.000008	0.000036	-0.002317	0.001844	6635.266018	39392.726062	4043.520280	21589.763230
24.537500	-0.000703	0.000508	-0.002749	0.002119	6627.342681	39409.236325	4042.007259	21578.094173
25.035500	-0.001198	-0.001007	0.001387	0.000945	6632.797275	39380.743664	4053.441385	21628.009665
25.535500	-0.001897	-0.000342	0.001395	0.001352	6623.913240	39402.274751	4052.576530	21610.681207
26.036000	-0.000468	-0.000672	0.001615	0.001348	6635.428473	39375.135799	4053.061958	21610.864762
26.536500	-0.001197	0.000315	-0.002205	0.001700	6626.741380	39428.055308	4044.069348	21595.880278
27.036500	0.002469	0.000340	0.005148	-0.001378	6681.276700	39688.068736	4066.713855	21727.187753
27.537000	-0.000390	-0.000836	-0.003577	0.004345	6612.019341	39112.552083	4035.492432	21483.788367
28.037000	-0.002306	-0.000868	-0.005831	0.000725	6625.667438	39410.748366	4038.401266	21637.384293
28.537000	-0.000025	-0.000488	-0.000749	0.000732	6643.950443	39441.817650	4049.283554	21637.071394
29.040500	0.000708	0.000472	-0.001324	0.001804	6641.216179	39432.459923	4045.736759	21591.443928
29.535000	-0.001329	-0.000287	-0.002063	0.000809	6632.836950	39452.171423	4046.287858	21633.798325
30.035500	0.000087	0.000419	0.001747	0.001455	6639.028768	39457.183184	4053.114788	21606.289286
30.538500	-0.000372	-0.000872	0.002215	0.002485	6627.061003	39263.841738	4051.899065	21562.547842
31.036000	-0.000121	-0.000138	-0.001564	0.001613	6636.085803	39397.478617	4045.632702	21599.582902
31.538500	-0.002531	-0.000624	-0.005128	0.005691	6584.273086	39018.843176	4029.357789	21427.023484
32.039500	0.000221	-0.000289	0.001893	0.001243	6641.819308	39415.800191	4053.890681	21615.321656
32.537000	-0.002438	-0.000621	-0.001963	0.000432	6626.949785	39455.767036	4047.314247	21649.838758
33.037000	0.001518	-0.000087	0.003034	-0.000466	6666.118582	39575.538374	4060.087690	21688.158079
33.540500	-0.001152	-0.000730	0.001297	0.001735	6626.821323	39338.019688	4051.535269	21594.384066
34.034500	0.001011	-0.000098	-0.000121	0.001722	6644.324613	39391.748290	4048.503821	21594.942483
34.535000	-0.002271	0.000139	-0.000116	0.002458	6612.069590	39350.086040	4046.927539	21563.670994
35.035500	0.000044	-0.000426	0.000706	0.002324	6631.695615	39314.258213	4048.989026	21569.386432
35.535500	-0.000949	0.000554	-0.003062	0.004138	6609.209927	39244.941785	4037.029122	21492.535571
36.036000	-0.001427	-0.000388	0.003108	0.001425	6627.096775	39392.317313	4056.131880	21607.550991
36.536500	-0.001398	-0.000284	0.004818	0.002009	6622.649174	39352.385001	4058.583757	21582.763920
37.036500	-0.002556	-0.000287	0.001803	0.002282	6611.203361	39329.368771	4051.448271	21571.171507
37.536500	-0.002191	0.000171	-0.002515	0.005008	6592.396527	39141.014989	4036.341587	21455.824391
38.037500	-0.000852	-0.000710	0.004459	0.001539	6630.799840	39355.911089	4058.823132	21602.701630
38.537500	-0.000781	-0.000172	-0.004471	0.001785	6629.397529	39380.270242	4039.040500	21592.255893
39.035000	-0.000673	0.000647	0.001043	0.002604	6623.690161	39380.337753	4049.111347	21557.488613
39.535500	-0.002042	0.000102	-0.004350	0.004608	6596.756132	39168.421772	4033.296093	21472.700106
40.035500	-0.000528	0.000178	-0.006405	0.002614	6624.778679	39340.456711	4033.165354	21557.076479
40.536000	-0.000172	0.000338	0.001698	0.002457	6628.890500	39366.758518	4050.840298	21563.712535
41.036000	0.000835	0.001045	0.000980	0.002744	6634.674154	39401.823338	4048.673773	21551.550935
41.536500	0.000789	0.000316	0.002976	0.002287	6637.980123	39379.159955	4053.975287	21570.940247
42.037000	-0.000173	0.000601	0.002139	0.002305	6630.098685	39401.415065	4052.122879	21570.167113
42.537500	-0.000913	-0.000504	0.003577	0.001418	6631.287205	39383.209399	4057.167201	21607.867045
43.037500	-0.002625	0.000407	-0.002446	0.001890	6613.778826	39419.893543	4043.145967	21587.808652
43.535000	0.000189	0.000227	-0.000928	-0.002680	6673.315862	39788.152304	4056.283051	21782.999680
44.035000	0.000127	0.000048	0.002138	0.001245	6641.045819	39443.774128	4054.419075	21615.246365
44.534500	0.000257	-0.000531	-0.005085	0.000948	6644.482127	39420.188107	4039.515789	21627.867536
45.036000	0.001691	0.000030	0.001093	0.001399	6652.423103	39429.408797	4051.821380	21608.676787
45.536000	0.000759	-0.000330	0.003202	0.000995	6648.152483	39433.069065	4057.271190	21625.857578
46.036000	-0.002119	-0.000303	0.001848	0.001143	6623.810668	39422.957432	4054.010885	21619.568561
46.537000	0.001850	0.001120	0.002142	0.002168	6647.491744	39456.127189	4052.427166	21575.986003
47.036500	-0.000401	0.000917	0.007582	0.003205	6621.056888	39352.706427	4062.002963	21532.013926
47.540000	-0.003363	-0.000635	0.002767	0.007039	6567.040456	38906.828755	4043.284589	21370.356334
48.034500	0.000917	-0.000072	-0.000033	0.001411	6646.069374	39419.821435	4049.361308	21608.149110
48.535000	0.003387	0.000242	0.000230	0.001724	6663.525281	39419.939045	4049.256648	21594.871041
49.035500	0.002669	0.000565	0.004203	-0.000815	6678.320296	39659.597023	4063.407348	21703.096027
49.535500	-0.001909	0.000571	-0.003201	0.005542	6590.390100	39129.888157	4033.750863	21433.290032
50.035500	0.001506	0.000650	0.007013	0.009630	6585.048503	38799.568389	4046.837752	21261.897323
50.536000	-0.020990	0.005745	-0.004651	0.103565	5775.373424	32208.739321	3845.179594	17736.532659
51.036000	-0.034958	-0.000768	-0.009833	-0.043156	6716.911360	43272.728314	4127.438474	23604.335009
51.536500	-0.016778	-0.035769	0.004192	-0.248888	9128.558013	62584.798600	4795.892719	36006.685280
52.039500	-0.005247	-0.052732	0.023903	-0.278452	9722.694896	64333.907112	4998.138349	38322.165279
52.537000	0.011250	-0.014505	0.038742	-0.209627	8975.694241	60173.097021	4777.727768	33165.502418
53.037500	0.039704	0.005286	0.068037	-0.162391	8728.792745	56682.534079	4710.342935	30070.832606
53.535000	0.073929	0.027550	0.105566	-0.085297	8203.660942	50335.850643	4571.216635	25689.929526
54.035500	0.105106	0.047888	0.126656	-0.034819	7983.630036	47173.813498	4475.776472	23215.190983
54.536000	0.143542	0.066935	0.162108	0.009683	7916.471597	44668.882112	4447.663064	21259.652646
55.036000	0.170043	0.084501	0.183210	0.075249	7505.761320	40327.009349	4317.741639	18720.162931
55.536000	0.195786	0.101272	0.205512	0.155153	6994.125089	35300.166791	4168.043055	16101.345852
56.036500	0.220539	0.114267	0.237482	0.221273	6644.136021	31601.094715	4088.225060	14270.442083
56.539500	0.232298	0.124563	0.252946	0.266587	6383.741670	29398.859461	4023.421035	13167.317178
57.037000	0.249592	0.133954	0.263588	0.315449	6156.468423	27120.400899	3946.688436	12099.971616
57.537500	0.257641	0.140622	0.272318	0.357920	5926.768431	25225.365270	3884.337184	11264.922560
58.035000	0.269769	0.145076	0.289978	0.386466	5823.456840	24035.341297	3865.232327	10747.839843
58.535500	0.279036	0.150052	0.297299	0.402007	5784.998092	23533.981683	3851.121219	10480.310832
59.035500	0.282509	0.152122	0.306029	0.422577	5682.971763	22684.832065	3831.257751	10140.594811
59.535500	0.282009	0.153490	0.300995	0.441232	5573.335248	21923.434286	3793.106254	9846.119210
60.036000	0.291848	0.155114	0.305243	0.442502	5621.781668	21938.707552	3797.788812	9826.522314
60.536500	0.294151	0.156928	0.303685	0.448811	5599.015636	21745.443560	3785.488334	9730.042853
61.036500	0.297813	0.161011	0.313426	0.448970	5618.912865	21914.028822	3800.499671	9727.628491
61.537000	0.309251	0.162345	0.308654	0.446633	5698.739482	22073.152646	3796.654390	9763.199013
62.037500	0.310548	0.164378	0.310593	0.445672	5712.062669	22203.914328	3801.237557	9777.881428
62.534500	0.310892	0.164086	0.308496	0.445610	5714.469305	22193.805387	3798.017893	9778.823462
63.041000	0.311152	0.163218	0.308164	0.444656	5721.664510	22197.551971	3799.000403	9793.422314
63.535000	0.313593	0.164336	0.309451	0.446715	5723.936854	22156.350949	3797.780928	9761.937673
64.035500	0.314594	0.165676	0.304324	0.448975	5716.466444	22116.205519	3786.225841	9727.560898
64.536000	0.314539	0.164059	0.311110	0.448706	5717.727792	22057.471235	3797.256803	9731.634749
65.036500	0.316340	0.166457	0.315739	0.450964	5715.023322	22063.619448	3801.006221	9697.446792
65.537000	0.316906	0.164309	0.311105	0.449771	5725.462735	22022.116922	3795.571886	9715.485603
66.036500	0.319225	0.163957	0.315155	0.450930	5732.373742	21956.627829	3800.134601	9697.951005
66.537000	0.317960	0.163390	0.313062	0.451389	5722.112842	21912.302089	3796.106975	9691.027194
67.036500	0.320272	0.164692	0.312870	0.453850	5721.233273	21862.384726	3791.944100	9653.995867
67.537500	0.322810	0.163860	0.313783	0.455196	5728.321261	21768.876138	3791.266257	9633.826989
68.035500	0.323947	0.164822	0.314352	0.457533	5721.180257	21710.100453	3788.508817	9598.959358
68.535000	0.323777	0.164500	0.323261	0.457923	5717.855810	21679.736642	3801.899770	9593.157585
69.036000	0.321596	0.162940	0.314600	0.457631	5706.674628	21625.741034	3788.742030	9597.490429
69.536000	0.327158	0.163007	0.315144	0.458771	5732.925981	21580.235903	3787.815567	9580.564122
70.036500	0.323901	0.161632	0.318202	0.460055	5705.976585	21467.897602	3790.580443	9561.544952
70.539500	0.324022	0.161444	0.323367	0.462043	5694.973619	21376.459751	3795.556479	9532.193960
71.034000	0.321079	0.159498	0.316766	0.462417	5675.552145	21279.496725	3784.675620	9526.696094
71.537500	0.327637	0.160424	0.321603	0.465478	5696.035604	21190.660619	3787.429152	9481.808097
72.035000	0.325183	0.160374	0.325878	0.466643	5674.834882	21140.331284	3792.278444	9464.806766
72.535000	0.323903	0.158291	0.318024	0.466366	5668.997965	21065.776977	3780.523952	9468.845271
73.035000	0.325394	0.157674	0.315894	0.467613	5670.415395	20989.131864	3775.350698	9450.694110
73.535500	0.322687	0.158636	0.325339	0.474798	5613.478874	20735.683346	3778.807997	9347.096033
74.036000	0.327424	0.158497	0.323231	0.472249	5655.287960	20833.376491	3779.484257	9383.650526
74.536500	0.326557	0.158156	0.320812	0.473787	5641.410954	20757.157303	3773.435873	9361.566320
75.039000	0.325112	0.156328	0.332332	0.474406	5629.558410	20658.372017	3790.234085	9352.704238
75.536500	0.327723	0.156445	0.324428	0.476691	5631.430545	20571.325707	3774.521459	9320.093016
76.036500	0.326106	0.155523	0.332082	0.477459	5617.793022	20503.709169	3785.100198	9309.158921
76.537000	0.326507	0.155905	0.327004	0.479262	5609.814545	20447.079807	3774.527622	9283.584310
77.034500	0.327144	0.154945	0.319486	0.479878	5609.937128	20384.567884	3762.246303	9274.882313
77.535000	0.325353	0.154109	0.327541	0.480831	5594.393575	20313.789329	3772.957055	9261.428303
78.035500	0.327148	0.152574	0.322118	0.481320	5601.776136	20234.073608	3764.028823	9254.533851
78.538000	0.326090	0.151696	0.322900	0.481962	5592.172072	20174.476067	3764.239192	9245.498716
79.036000	0.326808	0.153356	0.332372	0.484159	5583.837805	20153.476923	3775.247088	9214.674012
79.536500	0.324832	0.149320	0.317288	0.486929	5557.297561	19889.428682	3748.556914	9176.028618
80.036500	0.325875	0.150888	0.332500	0.485518	5570.986123	20004.520048	3773.372233	9195.687180
80.537000	0.327080	0.150744	0.332200	0.486728	5570.958800	19952.122541	3771.078206	9178.827832
81.037000	0.324819	0.149008	0.322829	0.487116	5556.189922	19870.249968	3756.444711	9173.430433
81.534500	0.323520	0.148857	0.325758	0.492484	5519.414173	19659.392270	3752.839924	9099.279910
82.035000	0.327626	0.147424	0.326796	0.490023	5555.633336	19698.464584	3758.018136	9133.156565
82.535000	0.325884	0.146361	0.329237	0.491073	5540.161029	19618.254676	3760.088643	9118.671391
83.036000	0.324750	0.148162	0.325569	0.493259	5521.900308	19603.674762	3751.419237	9088.641566
83.536000	0.325483	0.145954	0.328542	0.492790	5528.497670	19538.039952	3756.503238	9095.075301
84.036000	0.326971	0.147096	0.332297	0.494594	5526.757356	19513.084328	3759.402313	9070.369479
84.536000	0.326350	0.146683	0.327629	0.495434	5518.750618	19466.020043	3751.250714	9058.906173
85.036500	0.332435	0.146643	0.327650	0.497269	5542.126102	19395.833656	3748.587572	9033.936034
85.537000	0.327975	0.145399	0.329331	0.496348	5522.648401	19383.775635	3752.410165	9046.461819
86.036500	0.328391	0.145859	0.336402	0.497986	5515.959979	19339.853610	3760.464970	9024.214306
86.534500	0.327905	0.143753	0.335133	0.497715	5514.777437	19271.655708	3758.977803	9027.880683
87.035000	0.329471	0.143619	0.335317	0.498327	5520.000553	19244.057450	3758.339999	9019.587032
87.535000	0.327162	0.142667	0.330195	0.498621	5505.792807	19198.027920	3750.338540	9015.615066
88.035500	0.328069	0.143826	0.328736	0.500824	5498.743999	19159.523603	3744.983164	8985.861868
88.536000	0.328512	0.143555	0.335257	0.500687	5501.895023	19154.591824	3754.752270	8987.707464
89.038500	0.327377	0.141772	0.322751	0.501507	5491.294835	19059.095703	3735.346810	8976.667091
89.536000	0.328021	0.141463	0.329299	0.501162	5496.655158	19060.442380	3745.311344	8981.314667
90.036500	0.328207	0.139560	0.333960	0.501356	5496.609109	18983.882009	3751.852009	8978.699549
90.537000	0.330472	0.139860	0.337238	0.502564	5502.348000	18950.862619	3754.907350	8962.479503
91.034500	0.330607	0.139297	0.340638	0.503568	5497.628505	18894.027281	3758.459618	8949.019475
91.535000	0.332313	0.140538	0.339946	0.505119	5498.470326	18882.842148	3755.133573	8928.311700
92.035000	0.334031	0.139162	0.331539	0.505497	5505.752489	18819.509027	3742.265161	8923.267029
92.535000	0.332832	0.139054	0.344677	0.506303	5494.864991	18786.634163	3760.402622	8912.541540
93.035500	0.331731	0.138533	0.334752	0.507596	5481.931291	18721.540049	3743.883824	8895.371907
93.538000	0.332575	0.137824	0.342463	0.507930	5484.682947	18684.237865	3754.698478	8890.942325
94.036500	0.334143	0.136897	0.337122	0.508511	5490.010611	18630.465976	3746.001582	8883.250618
94.536500	0.330259	0.135385	0.346502	0.508801	5467.550072	18566.451313	3759.398474	8879.409562
95.037000	0.331839	0.135391	0.331427	0.510125	5468.921255	18519.809748	3735.430210	8861.930673
95.537000	0.332672	0.134812	0.336482	0.510139	5473.311048	18498.881247	3742.701083	8861.741496
