sample name	sample
index	804
start time	 03-31-2021  02:55:21 PM
880	0.436650
Peak Time (s)	91.036
Peak Height 	0.4366
calc peak height	90,93
Baseline Time (s)	9.039
Baseline Value 	-0.001851
subtract baseline	10,4
Abs	0.297133
Peak Time (s)	91.036
Peak Height 	0.2971
calc peak height	90,93
Baseline Time (s)	11.037
Baseline Value 	0.005944
subtract baseline	10,3
PK_550	0.164924
Peak Time (s)	91.036
Peak Height 	0.1649
calc peak height	90,93
Baseline Time (s)	11.537
Baseline Value 	1.5353E-4
subtract baseline	10,2
PK_880	0.285996
Peak Time (s)	91.036
Peak Height 	0.286
calc peak height	90,93
Baseline Time (s)	10.537
Baseline Value 	2.7249E-4
subtract baseline	10,1


Time (s)	A880-A510	A880-A775	A880-A975	A880	I510	I775	I975	I880	
0.036000	-0.001488	-0.000659	-0.006642	0.001396	6748.752785	40510.274905	4076.467195	22208.974308
0.536500	-0.001147	-0.000066	-0.006253	0.002913	6739.004943	40430.967585	4073.979254	22142.473408
1.036500	0.000846	-0.000341	-0.007436	0.003149	6753.572926	40387.102615	4070.857416	22132.137225
1.536500	-0.001613	-0.000463	-0.000218	0.000985	6751.124144	40562.505621	4091.685819	22227.017840
2.037500	-0.000088	0.000212	-0.001109	0.001505	6759.477680	40575.812027	4088.524614	22204.177050
2.537500	-0.001351	-0.000563	-0.008236	0.000736	6755.369170	40575.286602	4074.406671	22237.968753
3.035000	0.000801	-0.000836	-0.001254	-0.002322	6798.953255	40815.927021	4096.795658	22372.945797
3.535000	0.000629	0.000313	-0.001957	0.000077	6777.387899	40707.716259	4089.822979	22266.985010
4.038000	-0.000254	0.000146	-0.003899	-0.000147	6771.873520	40712.639615	4085.982278	22276.841046
4.536000	0.000344	0.000727	-0.008580	0.000248	6773.569169	40728.781760	4074.724266	22259.446531
5.036500	0.001885	0.000132	-0.003694	0.000152	6787.272801	40685.587529	4085.772958	22263.673165
5.536500	-0.000612	-0.000875	-0.006484	-0.000477	6771.641646	40653.057785	4080.966357	22291.415954
6.037000	-0.001531	0.000397	-0.003896	-0.000004	6760.034563	40722.031364	4085.671156	22270.553747
6.537000	-0.000540	-0.000344	-0.004533	-0.000443	6771.961665	40695.964502	4085.231035	22289.920193
7.034500	0.001529	0.000443	-0.002515	0.000253	6783.446116	40703.765858	4088.180355	22259.216294
7.534500	-0.001572	0.000239	-0.004997	-0.000608	6764.719423	40760.590723	4084.561522	22297.177326
8.037000	0.001514	0.000202	-0.003353	-0.000388	6788.693540	40738.372125	4087.740613	22287.471843
8.538000	0.001611	-0.000591	-0.003468	-0.000519	6790.615381	40681.148966	4087.777347	22293.278185
9.038500	0.000644	0.000359	0.000468	0.000000	6778.153927	40718.400008	4095.443344	22270.377264
9.536000	-0.000048	0.000522	0.000351	0.000725	6766.319368	40669.820534	4093.549709	22238.464152
10.036500	-0.001556	-0.000886	-0.001759	-0.000010	6759.876604	40611.821844	4090.461524	22270.818514
10.537000	0.000000	-0.000142	0.000022	0.000418	6769.277056	40638.980096	4093.500340	22251.966203
11.037000	0.000133	0.000364	0.000000	0.000439	6770.213001	40680.938613	4093.404253	22251.067093
11.537000	-0.001217	0.000000	-0.006068	-0.000429	6766.189176	40724.412173	4081.781619	22289.272828
12.035000	0.000472	-0.000237	-0.003402	-0.000119	6777.708115	40677.159545	4087.029925	22275.620614
12.535000	0.002579	0.000697	0.000027	0.000060	6793.877772	40742.398039	4094.316135	22267.725326
13.035500	-0.000745	-0.000640	-0.003274	0.000516	6762.245592	40587.653543	4085.899255	22247.662298
13.535500	-0.004001	-0.000221	-0.015250	0.006499	6686.095506	40111.454285	4046.651654	21986.195703
14.036000	-0.000868	-0.000334	-0.008136	0.001742	6751.024685	40508.477547	4072.410477	22193.791261
14.536000	0.000479	-0.000580	-0.009847	0.002474	6756.133025	40424.510196	4067.051951	22161.680884
15.036500	-0.000315	0.000293	-0.006336	0.001281	6759.459844	40602.187589	4077.398614	22214.034530
15.537000	-0.002539	0.000379	-0.010977	0.006845	6695.200298	40133.032925	4055.094526	21971.162911
16.034000	0.001646	0.000203	-0.004064	0.001348	6775.258839	40588.577042	4082.285758	22211.075498
16.534500	-0.001330	-0.000653	-0.002051	0.000623	6756.487530	40577.347872	4088.391775	22242.965086
17.034500	0.002502	-0.000808	-0.007832	-0.003691	6824.886072	40937.225799	4085.115771	22433.691879
17.537500	-0.001887	-0.000863	-0.007403	0.002790	6733.895812	40373.147095	4071.718208	22147.832245
18.035500	-0.002838	0.000045	-0.000537	0.001709	6734.975090	40543.960309	4089.350479	22195.243763
18.535500	-0.000426	-0.000099	-0.005131	0.001790	6754.305604	40524.558406	4078.940176	22191.692776
19.038500	-0.000904	-0.000399	-0.004644	0.001044	6756.531702	40562.897744	4081.673051	22224.432593
19.536000	-0.000799	-0.000154	-0.004962	0.001456	6753.974814	40548.492935	4080.051686	22206.318398
20.036500	0.000776	-0.000390	-0.006297	0.001045	6770.519086	40563.601881	4078.005451	22224.370567
20.537000	-0.000063	-0.001006	-0.005690	0.001155	6762.601777	40501.117094	4079.106823	22219.540369
21.037000	-0.000475	0.000242	-0.006697	0.001787	6753.913004	40554.085913	4075.482876	22191.791859
21.534500	0.001967	0.001039	-0.002275	0.002949	6764.574755	40522.763337	4082.704242	22140.893846
22.035000	-0.002109	-0.000385	-0.001238	0.001287	6744.500496	40543.175953	4088.722968	22213.739320
22.538000	0.000310	-0.000113	-0.002143	0.001876	6759.709406	40515.963886	4085.387835	22187.895758
23.035500	0.001634	-0.000808	-0.000856	0.001164	6776.691585	40517.375072	4089.854016	22219.150918
23.536000	0.000338	0.000049	-0.002502	0.001112	6766.312055	40595.730896	4086.292504	22221.466403
24.036000	0.001505	0.000954	-0.006013	0.002589	6763.720186	40546.393945	4075.222845	22156.651282
24.536500	0.001040	0.000754	-0.004804	0.002317	6762.119106	40552.660701	4078.494942	22168.574794
25.037000	0.001460	0.000382	-0.007842	0.001912	6768.989203	40555.406589	4072.682988	22186.315928
25.537000	0.000030	-0.000074	-0.001170	0.001648	6759.275106	40538.978596	4088.068862	22197.914956
26.034500	0.000097	-0.000350	-0.006406	0.001977	6757.092389	40486.898358	4075.705347	22183.469696
26.534500	-0.001277	-0.000946	-0.009791	0.001075	6753.171482	40513.233838	4070.240354	22223.090004
27.039000	0.001095	-0.000454	-0.001080	-0.001447	6794.067154	40773.197808	4095.217878	22334.235009
27.534500	-0.000057	-0.000392	-0.000370	-0.000011	6772.379166	40654.425977	4093.582914	22270.850912
28.036000	-0.000226	0.000271	-0.000986	0.001504	6758.344646	40580.999186	4088.802083	22204.230353
28.536000	0.002259	0.000551	0.000297	0.001497	6779.137353	40605.766173	4091.692653	22204.533744
29.036500	-0.000769	0.000629	-0.005830	0.001879	6750.710941	40579.628430	4077.195147	22187.791832
29.536500	-0.004562	-0.001202	-0.004577	0.006405	6682.286510	40036.059755	4069.985504	21990.274458
30.037000	0.000694	0.000654	-0.003957	0.001487	6766.151527	40615.501595	4082.215733	22204.992475
30.539500	0.000715	0.000465	-0.003892	0.003071	6753.136501	40462.909684	4078.844829	22135.536155
31.034500	-0.000015	-0.000426	-0.000883	0.002507	6751.762897	40434.889878	4086.791686	22160.263996
31.535000	-0.000730	0.000443	-0.004940	0.001502	6754.166074	40596.003945	4079.998943	22204.313825
32.035000	-0.000829	0.000107	-0.003851	0.001048	6757.121342	40606.212569	4083.427393	22224.265374
32.535500	0.000968	0.000291	-0.004987	0.001174	6771.050721	40611.150757	4080.624647	22218.731559
33.035500	0.000291	0.000572	-0.002199	0.001765	6760.475781	40584.424400	4085.510672	22192.765061
33.536500	-0.002050	-0.000441	-0.005830	0.004858	6715.504949	40232.447091	4070.630211	22057.529025
34.036500	0.001902	-0.000214	-0.003488	0.002093	6771.171821	40488.622693	4081.909569	22178.377106
34.536500	-0.001030	0.000216	-0.005497	0.002514	6743.280256	40489.396703	4076.527150	22159.948600
35.037000	0.000767	0.000025	-0.002243	0.002151	6761.227036	40504.213686	4084.552433	22175.846332
35.537500	-0.000424	-0.000314	-0.006523	0.002567	6747.859431	40439.316118	4074.145745	22157.613081
36.037500	-0.000283	-0.000517	-0.006523	0.001857	6754.931757	40482.892109	4075.712784	22188.741175
36.538000	-0.000649	0.000111	-0.003630	0.002326	6747.992488	40496.525252	4081.077025	22168.154716
37.035000	-0.001662	-0.000184	0.000306	0.002074	6741.681201	40492.775133	4090.419006	22179.204476
37.535500	-0.001318	-0.000287	-0.008442	0.001833	6746.534494	40504.719445	4071.537068	22189.786239
38.035500	-0.000346	-0.000447	-0.003246	0.001740	6755.382659	40498.932831	4083.235064	22193.875458
38.536500	-0.002035	-0.000329	-0.003333	0.001885	6740.162089	40496.593093	4082.717841	22187.489038
39.036000	-0.001997	-0.000085	-0.003963	0.001816	6741.044573	40523.553186	4081.470411	22190.532237
39.536000	-0.002394	-0.000610	-0.002103	0.001712	6738.622472	40487.345761	4085.842002	22195.087253
40.036500	-0.001128	0.000241	-0.005998	0.001936	6747.258032	40541.191790	4076.696052	22185.253389
40.534000	-0.000965	-0.000124	-0.005797	0.001795	6749.784286	40521.987788	4077.454352	22191.457185
41.035000	0.000079	-0.000178	-0.005083	0.001727	6759.030089	40523.195945	4079.185869	22194.455322
41.535000	-0.000565	0.000267	-0.009325	0.002020	6751.233782	40536.244043	4069.189471	22181.571309
42.035500	0.001064	0.001128	-0.004365	0.002665	6759.421503	40554.894439	4078.697806	22153.344486
42.536000	-0.001364	-0.000220	-0.007866	0.001455	6749.289411	40542.950347	4073.637319	22206.385960
43.036000	0.001380	0.000212	-0.001858	0.002063	6767.070030	40527.903840	4085.607895	22179.720658
43.536500	0.000708	-0.000314	-0.005598	0.001703	6764.469466	40513.573116	4078.098612	22195.507903
44.036500	0.003076	0.000391	-0.001380	-0.002452	6819.250395	40933.723571	4096.804902	22378.694024
44.536000	-0.000538	0.000274	-0.003776	0.001327	6757.225396	40596.576794	4082.974051	22212.022410
45.034000	0.000272	-0.000404	-0.005542	0.000583	6770.171448	40602.249113	4080.703314	22244.710215
45.546000	0.000815	0.000561	-0.006521	0.001472	6767.284414	40608.830117	4076.568842	22205.655872
46.034500	0.000453	0.000114	-0.006357	0.001210	6766.453215	40592.888420	4077.510039	22217.155128
46.535500	-0.001176	0.000159	-0.006636	0.000829	6756.059950	40629.582232	4077.734971	22233.898154
47.036000	-0.000888	0.000750	-0.004322	0.001928	6749.314411	40585.708564	4080.426155	22185.615168
47.535000	0.000514	0.000679	-0.000778	0.002927	6752.665144	40493.723645	4086.087006	22141.856127
48.036000	0.000061	-0.000124	-0.004839	0.001332	6762.158880	40561.819227	4080.600978	22211.764106
48.540500	0.002266	0.000475	-0.002851	0.001166	6781.977153	40627.792967	4085.392947	22219.093162
49.036500	0.000909	0.000115	-0.004404	0.001616	6766.862218	40557.928555	4080.936078	22199.299567
49.537000	0.001144	0.000199	-0.005024	0.001345	6771.085159	40588.468936	4080.161080	22211.201900
50.040000	0.001462	0.000788	0.000945	0.001024	6776.430462	40667.045660	4094.212301	22225.326287
50.535000	0.002014	0.000566	-0.002906	0.008272	6720.854995	40027.655355	4069.556640	21909.388040
51.035500	-0.026968	0.002079	-0.002575	0.227519	5163.660324	25497.271923	3692.410039	14467.860733
51.535500	-0.045572	-0.004915	-0.013088	-0.008706	6477.452853	41016.250055	4084.577978	22657.821284
52.035500	-0.042256	-0.047407	-0.017262	-0.250704	9008.136621	63080.921890	4790.046492	37217.202362
52.536000	-0.032252	-0.129472	0.000407	-0.350206	10689.878437	65535.000000	5308.184196	45992.431997
53.036000	-0.032035	-0.105651	-0.000518	-0.326385	10290.685369	65535.000000	5186.820285	43705.027902
53.536500	-0.024202	-0.070060	0.002643	-0.286486	9782.029061	64919.423483	5018.930758	40144.036763
54.037000	-0.002815	-0.034778	0.020004	-0.235528	9345.105031	62730.563758	4877.348604	36046.843728
54.536500	0.024147	-0.006655	0.024225	-0.185026	9017.935997	59739.385147	4699.403481	32433.944231
55.037500	0.031227	-0.006219	0.035593	-0.192103	9212.574220	60726.489742	4768.061358	32915.324304
55.534500	0.045865	0.000632	0.051098	-0.181680	9271.757492	60255.114597	4787.492296	32209.118641
56.035000	0.060317	0.016589	0.064134	-0.127001	8729.660407	55386.037027	4634.754225	28769.794047
56.535500	0.081268	0.032386	0.086676	-0.053680	8095.132164	48909.031402	4467.276124	24787.749772
57.035500	0.098157	0.045935	0.108859	0.004063	7650.625864	44484.168895	4361.122886	22092.209013
57.536000	0.117652	0.058803	0.121172	0.068370	7208.814448	39870.131701	4220.749087	19483.302083
58.036500	0.132691	0.069484	0.140773	0.122025	6862.996935	36412.945702	4137.508271	17583.489406
58.536500	0.148546	0.079577	0.156387	0.165011	6637.768260	33988.513881	4075.174010	16222.003459
59.037000	0.163756	0.089170	0.174682	0.203709	6453.841147	31991.204488	4031.199507	15106.435974
59.537500	0.178596	0.097506	0.187531	0.230451	6364.371877	30795.503985	4002.418928	14391.620691
60.035000	0.192772	0.105435	0.204005	0.256035	6280.876682	29695.230059	3984.040750	13747.733600
60.534500	0.207119	0.116191	0.214483	0.278257	6224.511965	29004.200638	3960.908181	13218.420856
61.035000	0.214302	0.119193	0.226803	0.302805	6103.769665	27754.067286	3937.477623	12664.352088
61.535500	0.225718	0.126758	0.226557	0.324710	6033.142012	26955.781912	3896.679216	12195.690131
62.036000	0.238960	0.130555	0.221631	0.306001	6253.710137	28220.584901	3921.821803	12594.493738
62.539000	0.241500	0.133531	0.231365	0.312425	6226.021195	28022.564802	3927.977499	12455.615269
63.036000	0.245113	0.136497	0.237536	0.321264	6189.154980	27688.823775	3923.011154	12267.862279
63.536500	0.245861	0.138191	0.241939	0.329757	6135.330302	27307.989295	3915.454774	12091.014506
64.042500	0.250252	0.138733	0.244083	0.337829	6110.085448	26893.232159	3904.632753	11926.125951
64.537500	0.253463	0.141023	0.244654	0.346403	6073.689404	26552.486858	3890.250269	11754.295690
65.035000	0.253477	0.141850	0.248269	0.351770	6037.792681	26309.392826	3887.136333	11648.443434
65.535000	0.252793	0.144347	0.249442	0.358295	5990.159327	26095.835659	3877.705838	11521.519699
66.035500	0.257852	0.147129	0.252961	0.364345	5983.669675	25923.980585	3873.285256	11405.513365
66.535500	0.260880	0.148029	0.270677	0.369313	5971.016516	25711.944083	3895.814517	11311.467069
67.035500	0.265727	0.150525	0.257706	0.376541	5955.561305	25467.736743	3860.421733	11176.537852
67.536500	0.268610	0.151758	0.261558	0.380513	5948.517290	25327.524115	3860.214221	11103.326329
68.036500	0.267890	0.153274	0.267262	0.384974	5915.257349	25177.826885	3862.344304	11021.905559
68.539000	0.269737	0.154241	0.271427	0.387974	5907.913573	25075.083379	3864.347488	10967.624855
69.037000	0.272041	0.154891	0.270790	0.391029	5903.146003	24954.166562	3858.021548	10912.744193
69.537500	0.274243	0.156517	0.265968	0.394691	5893.882907	24852.271684	3843.686110	10847.443813
70.035000	0.275748	0.157575	0.272573	0.398946	5876.527941	24693.317856	3847.628391	10772.265616
70.535500	0.276895	0.156872	0.273034	0.400082	5876.591974	24602.398947	3846.495311	10752.317649
71.036000	0.275311	0.158393	0.272148	0.403205	5847.136434	24523.475327	3839.790634	10697.735144
71.536000	0.277010	0.157876	0.279246	0.405942	5840.686358	24364.149738	3847.086604	10650.243279
72.036000	0.276834	0.158707	0.276471	0.406780	5834.397897	24363.799546	3841.036704	10635.760450
72.536000	0.279223	0.159829	0.273321	0.409104	5834.795536	24305.202318	3831.967526	10595.726412
73.037000	0.278851	0.159514	0.277124	0.410560	5823.496565	24219.212204	3835.841812	10570.765087
73.537000	0.280282	0.160676	0.277202	0.413688	5813.046726	24124.203880	3830.812138	10517.410354
74.034500	0.281771	0.161011	0.283971	0.414888	5814.821478	24082.512168	3840.023467	10497.045709
74.534500	0.283582	0.160941	0.274980	0.415866	5819.949927	24032.119625	3823.616249	10480.482113
75.035000	0.282481	0.161461	0.285590	0.416805	5807.414360	24012.006498	3839.529019	10464.630887
75.535500	0.283063	0.162048	0.286690	0.418834	5798.553103	23942.923201	3837.984066	10430.474091
76.035500	0.284084	0.162678	0.287462	0.420384	5795.319616	23898.991215	3836.693894	10404.481931
76.535500	0.281298	0.162335	0.280448	0.419549	5783.436686	23922.495900	3826.527855	10418.478419
77.036000	0.283461	0.162364	0.276347	0.422329	5779.689845	23791.462159	3815.372850	10372.001863
77.536500	0.285437	0.163877	0.289838	0.424900	5776.079224	23741.317853	3833.155294	10329.292515
78.036500	0.285119	0.163971	0.284062	0.425847	5768.425657	23700.960404	3822.155213	10313.626342
78.537000	0.281914	0.162436	0.281799	0.425443	5751.553856	23647.569084	3819.144042	10320.309567
79.037000	0.284257	0.163160	0.279918	0.426998	5756.291682	23608.463407	3813.610607	10294.634758
79.535000	0.284125	0.163561	0.282537	0.428930	5743.903204	23536.536023	3814.713408	10262.863989
80.035500	0.287449	0.165078	0.287294	0.431138	5750.594245	23504.197314	3818.821577	10226.723890
80.535500	0.283583	0.164389	0.284922	0.431440	5725.695498	23457.801552	3814.511525	10221.786818
81.035500	0.281248	0.162724	0.291324	0.429641	5722.514533	23464.073070	3827.808335	10251.203447
81.535500	0.285832	0.164142	0.294989	0.431671	5737.722355	23435.542799	3830.490344	10218.029958
82.036500	0.285224	0.164749	0.288984	0.432343	5730.088552	23432.457266	3819.604838	10207.071163
82.539500	0.283347	0.164700	0.293426	0.431409	5724.481928	23473.812739	3828.355682	10222.299181
83.037000	0.281879	0.163738	0.281369	0.431425	5715.677984	23428.136386	3808.852085	10222.029358
83.537500	0.286158	0.164086	0.285079	0.431815	5738.810231	23426.206898	3814.163514	10215.678316
84.037000	0.286896	0.164220	0.290609	0.432263	5740.541009	23411.529626	3822.368061	10208.372784
84.535500	0.285046	0.164155	0.289401	0.432444	5728.424327	23400.065475	3820.114917	10205.423978
85.035500	0.286015	0.164827	0.292479	0.432883	5731.584146	23410.977064	3824.402126	10198.293095
85.535500	0.286092	0.165363	0.289710	0.433509	5728.316370	23406.724830	3818.892876	10188.111735
86.036000	0.287762	0.165584	0.291675	0.434568	5731.949818	23367.742897	3820.357286	10170.933410
86.536500	0.284795	0.164836	0.287485	0.433358	5721.504426	23389.256187	3815.549257	10190.573023
87.039000	0.285764	0.164230	0.285792	0.433483	5726.520422	23355.235001	3812.631334	10188.538610
87.536500	0.284674	0.163990	0.289588	0.433580	5719.473739	23339.620735	3818.582357	10186.968671
88.037000	0.285785	0.164720	0.290346	0.434725	5719.266125	23320.334903	3817.956052	10168.394485
88.535000	0.283763	0.164917	0.289760	0.434746	5707.181459	23328.478632	3816.977604	10168.053732
89.035000	0.285783	0.163925	0.289275	0.434464	5720.805494	23295.604153	3816.651076	10172.632485
89.535000	0.285039	0.164532	0.296896	0.436301	5705.538431	23238.677646	3826.030704	10142.927565
90.035500	0.284248	0.163517	0.292322	0.434937	5708.915746	23254.795748	3820.808683	10164.963790
90.536000	0.284150	0.163968	0.296734	0.435646	5704.155686	23242.907357	3826.835895	10153.504425
91.036000	0.285996	0.164924	0.297133	0.436650	5709.125435	23240.690794	3825.848359	10137.299539
91.539000	0.284777	0.163748	0.295553	0.436358	5703.657006	23199.873180	3823.748915	10142.007276
92.036500	0.283682	0.163232	0.286223	0.436641	5695.547646	23163.047952	3808.276490	10137.445609
92.537000	0.283814	0.163078	0.287865	0.436435	5697.531495	23165.480324	3811.225003	10140.767505
93.037000	0.283973	0.164491	0.291135	0.436487	5698.161897	23228.214667	3816.387585	10139.925548
93.537000	0.285507	0.164241	0.291435	0.437432	5701.626418	23173.094270	3815.349474	10124.703938
94.035000	0.283685	0.164801	0.286390	0.438200	5686.423733	23163.518243	3806.065192	10112.355147
94.535500	0.283780	0.163402	0.288024	0.437284	5692.345485	23141.282964	3810.122271	10127.081059
95.035500	0.285484	0.162908	0.296027	0.437272	5702.438050	23119.156193	3823.033735	10127.285397
95.536000	0.282740	0.163146	0.293607	0.437512	5684.917369	23119.040891	3818.721875	10123.409176
96.036500	0.284994	0.162646	0.295154	0.436982	5701.259708	23120.453761	3822.086169	10131.956198
