sample name	sample
index	1012
start time	 04-19-2021  11:36:44 AM


Wavelength (nm)	Absorbance
494.344910	-0.124472
494.563924	-0.124472
494.782919	-0.124472
495.001897	-0.042495
495.220856	-0.055691
495.439797	-0.046353
495.658719	-0.053523
495.877624	-0.046313
496.096510	-0.048402
496.315378	-0.061637
496.534227	-0.078506
496.753059	-0.068498
496.971872	-0.071404
497.190667	0.008964
497.409444	0.039491
497.628203	0.050443
497.846943	0.056243
498.065665	0.058689
498.284369	0.059443
498.503055	0.061246
498.721723	0.061585
498.940372	0.062097
499.159003	0.062736
499.377616	0.062309
499.596210	0.062000
499.814787	0.061165
500.033345	0.061013
500.251885	0.061878
500.470406	0.061531
500.688910	0.061343
500.907395	0.061330
501.125862	0.060762
501.344311	0.060602
501.562742	0.062177
501.781154	0.061374
501.999548	0.061680
502.217924	0.061211
502.436282	0.061399
502.654621	0.060770
502.872942	0.061608
503.091245	0.061280
503.309530	0.061280
503.527797	0.060598
503.746045	0.061367
503.964275	0.061193
504.182487	0.061797
504.400681	0.061594
504.618856	0.062489
504.837013	0.061428
505.055152	0.061811
505.273273	0.061766
505.491376	0.061946
505.709460	0.062184
505.927526	0.062249
506.145574	0.061936
506.363604	0.062191
506.581615	0.061195
506.799608	0.061478
507.017583	0.061730
507.235540	0.061430
507.453478	0.061140
507.671399	0.061341
507.889301	0.060774
508.107185	0.060792
508.325050	0.061045
508.542898	0.061608
508.760727	0.062397
508.978538	0.062237
509.196330	0.063006
509.414105	0.062364
509.631861	0.062130
509.849599	0.062137
510.067319	0.061260
510.285021	0.061654
510.502704	0.061921
510.720369	0.061256
510.938016	0.061456
511.155645	0.061140
511.373255	0.061668
511.590848	0.061218
511.808422	0.061035
512.025977	0.061590
512.243515	0.060309
512.461034	0.059963
512.678536	0.059510
512.896018	0.059122
513.113483	0.059632
513.330930	0.059817
513.548358	0.060270
513.765768	0.060797
513.983160	0.060250
514.200533	0.060594
514.417889	0.060698
514.635226	0.060722
514.852545	0.061286
515.069845	0.060448
515.287128	0.059874
515.504392	0.060414
515.721638	0.060576
515.938866	0.061235
516.156075	0.061409
516.373267	0.061673
516.590440	0.061977
516.807594	0.061405
517.024731	0.062200
517.241850	0.062868
517.458950	0.061443
517.676032	0.061683
517.893095	0.061549
518.110141	0.062086
518.327168	0.062191
518.544177	0.062177
518.761168	0.062601
518.978141	0.061999
519.195095	0.061501
519.412031	0.062616
519.628949	0.062947
519.845849	0.062740
520.062731	0.062124
520.279594	0.062027
520.496439	0.062182
520.713266	0.061035
520.930074	0.061097
521.146865	0.061218
521.363637	0.061564
521.580391	0.060557
521.797127	0.060932
522.013844	0.060879
522.230543	0.060714
522.447224	0.060614
522.663887	0.061856
522.880532	0.061871
523.097158	0.061273
523.313766	0.060159
523.530356	0.060425
523.746928	0.060424
523.963481	0.060633
524.180017	0.060584
524.396534	0.060996
524.613032	0.061085
524.829513	0.061848
525.045975	0.062418
525.262420	0.062879
525.478845	0.062962
525.695253	0.063331
525.911643	0.063649
526.128014	0.063569
526.344367	0.063681
526.560702	0.063147
526.777018	0.062692
526.993316	0.062841
527.209597	0.062550
527.425858	0.062568
527.642102	0.062205
527.858328	0.061636
528.074535	0.061530
528.290724	0.061246
528.506894	0.061728
528.723047	0.061227
528.939181	0.061255
529.155297	0.061962
529.371395	0.062294
529.587475	0.061999
529.803536	0.062368
530.019579	0.062346
530.235604	0.062117
530.451611	0.061956
530.667600	0.062990
530.883570	0.062886
531.099522	0.062527
531.315456	0.062164
531.531372	0.061904
531.747269	0.061815
531.963148	0.062022
532.179009	0.062230
532.394852	0.061994
532.610676	0.061466
532.826482	0.061516
533.042271	0.061761
533.258040	0.061761
533.473792	0.062401
533.689525	0.062344
533.905240	0.063058
534.120937	0.063160
534.336616	0.062940
534.552277	0.062707
534.767919	0.063367
534.983543	0.063195
535.199149	0.063400
535.414736	0.063165
535.630306	0.063474
535.845857	0.062536
536.061390	0.062501
536.276904	0.062735
536.492401	0.063329
536.707879	0.062846
536.923339	0.062688
537.138781	0.061833
537.354204	0.062269
537.569610	0.062185
537.784997	0.062984
538.000366	0.063100
538.215716	0.063222
538.431049	0.063261
538.646363	0.062873
538.861659	0.062811
539.076937	0.063769
539.292196	0.063233
539.507438	0.063210
539.722661	0.062422
539.937866	0.062618
540.153052	0.062374
540.368221	0.061771
540.583371	0.061618
540.798503	0.061819
541.013617	0.061705
541.228712	0.062670
541.443789	0.062856
541.658848	0.063366
541.873889	0.062962
542.088912	0.063376
542.303916	0.063456
542.518902	0.063578
542.733870	0.064063
542.948820	0.064080
543.163752	0.063615
543.378665	0.063451
543.593560	0.063253
543.808437	0.063227
544.023295	0.063620
544.238136	0.063687
544.452958	0.064055
544.667762	0.063796
544.882548	0.064061
545.097315	0.064211
545.312064	0.064181
545.526795	0.064465
545.741508	0.064662
545.956203	0.064231
546.170879	0.064281
546.385537	0.063985
546.600177	0.064036
546.814799	0.063811
547.029402	0.063744
547.243988	0.063966
547.458555	0.064222
547.673103	0.064331
547.887634	0.064355
548.102146	0.064483
548.316640	0.064713
548.531116	0.064419
548.745574	0.064433
548.960013	0.064273
549.174435	0.064184
549.388838	0.063812
549.603222	0.064094
549.817589	0.064209
550.031937	0.064548
550.246267	0.064792
550.460579	0.064965
550.674873	0.065057
550.889148	0.065334
551.103405	0.065254
551.317644	0.065399
551.531865	0.065298
551.746068	0.065357
551.960252	0.065161
552.174418	0.065181
552.388566	0.065458
552.602696	0.065220
552.816807	0.065175
553.030900	0.065417
553.244975	0.065306
553.459032	0.065348
553.673070	0.065334
553.887091	0.064966
554.101093	0.064734
554.315077	0.064873
554.529042	0.065312
554.742990	0.064853
554.956919	0.064953
555.170830	0.065055
555.384722	0.064862
555.598597	0.064839
555.812453	0.065378
556.026291	0.065455
556.240111	0.065315
556.453913	0.064909
556.667696	0.065229
556.881461	0.065019
557.095208	0.064968
557.308937	0.065211
557.522647	0.065019
557.736339	0.064757
557.950013	0.064603
558.163669	0.064657
558.377307	0.065102
558.590926	0.065066
558.804527	0.065096
559.018110	0.065182
559.231675	0.065203
559.445221	0.065455
559.658749	0.065608
559.872259	0.065654
560.085751	0.065628
560.299225	0.065543
560.512680	0.065906
560.726117	0.065859
560.939536	0.065657
561.152937	0.065642
561.366319	0.065545
561.579683	0.065830
561.793029	0.065992
562.006357	0.066027
562.219667	0.066258
562.432958	0.066072
562.646231	0.066394
562.859486	0.066610
563.072723	0.066490
563.285941	0.066871
563.499141	0.066684
563.712323	0.066707
563.925487	0.066577
564.138632	0.066325
564.351760	0.066648
564.564869	0.066450
564.777960	0.066677
564.991032	0.066572
565.204087	0.066315
565.417123	0.066192
565.630141	0.066251
565.843140	0.066268
566.056122	0.066381
566.269085	0.066255
566.482030	0.066637
566.694957	0.066750
566.907866	0.066733
567.120756	0.066718
567.333628	0.067092
567.546482	0.067299
567.759318	0.067185
567.972135	0.067214
568.184935	0.066990
568.397716	0.066913
568.610478	0.066618
568.823223	0.066948
569.035949	0.067496
569.248657	0.067378
569.461347	0.067537
569.674019	0.067929
569.886672	0.068170
570.099308	0.068103
570.311925	0.067959
570.524523	0.068077
570.737104	0.068141
570.949666	0.067744
571.162210	0.067714
571.374736	0.067686
571.587244	0.067373
571.799733	0.066953
572.012205	0.066809
572.224658	0.066722
572.437092	0.066576
572.649509	0.066416
572.861907	0.066582
573.074287	0.066768
573.286649	0.066603
573.498993	0.066522
573.711318	0.066471
573.923625	0.067036
574.135914	0.067072
574.348185	0.067252
574.560438	0.067456
574.772672	0.067240
574.984888	0.067018
575.197086	0.067008
575.409266	0.066941
575.621427	0.067411
575.833570	0.067298
576.045695	0.067446
576.257802	0.067335
576.469890	0.066929
576.681961	0.067319
576.894013	0.067373
577.106046	0.067541
577.318062	0.067615
577.530059	0.067341
577.742039	0.067256
577.954000	0.067182
578.165942	0.067503
578.377867	0.067809
578.589773	0.067203
578.801661	0.067299
579.013531	0.067194
579.225382	0.067868
579.437216	0.067761
579.649031	0.067845
579.860828	0.068103
580.072606	0.068096
580.284367	0.068143
580.496109	0.068531
580.707833	0.068359
580.919539	0.068333
581.131227	0.067983
581.342896	0.068119
581.554547	0.068087
581.766180	0.067602
581.977795	0.067404
582.189391	0.067391
582.400969	0.067433
582.612529	0.067369
582.824071	0.067332
583.035595	0.067470
583.247100	0.067802
583.458587	0.067970
583.670056	0.068393
583.881506	0.068441
584.092939	0.068148
584.304353	0.068029
584.515749	0.068085
584.727127	0.068438
584.938486	0.068282
585.149828	0.068146
585.361151	0.068138
585.572456	0.067941
585.783742	0.068134
585.995011	0.068529
586.206261	0.068928
586.417493	0.068868
586.628706	0.068740
586.839902	0.068915
587.051079	0.068722
587.262238	0.068737
587.473379	0.068620
587.684502	0.068516
587.895606	0.068699
588.106692	0.068504
588.317760	0.068734
588.528810	0.069051
588.739841	0.068952
588.950855	0.069045
589.161850	0.069113
589.372827	0.069507
589.583785	0.069500
589.794726	0.069411
590.005648	0.069398
590.216552	0.069554
590.427437	0.068911
590.638305	0.069026
590.849154	0.069110
591.059985	0.068960
591.270798	0.068935
591.481592	0.069387
591.692369	0.069632
591.903127	0.069713
592.113867	0.069576
592.324588	0.069973
592.535292	0.069963
592.745977	0.069965
592.956644	0.070035
593.167293	0.069922
593.377923	0.069496
593.588536	0.069237
593.799130	0.069143
594.009706	0.069330
594.220263	0.069336
594.430803	0.069629
594.641324	0.069824
594.851827	0.069632
595.062312	0.069793
595.272778	0.069936
595.483227	0.069547
595.693657	0.069245
595.904069	0.069289
596.114462	0.069017
596.324838	0.068720
596.535195	0.068670
596.745534	0.068871
596.955855	0.068808
597.166157	0.068962
597.376441	0.069433
597.586707	0.069646
597.796955	0.069416
598.007185	0.069474
598.217396	0.069450
598.427589	0.069329
598.637764	0.069490
598.847921	0.069509
599.058060	0.068957
599.268180	0.068745
599.478282	0.069083
599.688366	0.069336
599.898431	0.069325
600.108479	0.069604
600.318508	0.069388
600.528519	0.069657
600.738511	0.069642
600.948486	0.069854
601.158442	0.069858
601.368380	0.069574
601.578300	0.069586
601.788202	0.069687
601.998085	0.069535
602.207950	0.069794
602.417797	0.069409
602.627626	0.069487
602.837436	0.069629
603.047228	0.069687
603.257002	0.069949
603.466758	0.069697
603.676496	0.069888
603.886215	0.069706
604.095916	0.070009
604.305599	0.069898
604.515264	0.069717
604.724910	0.069965
604.934538	0.069917
605.144148	0.069697
605.353740	0.069962
605.563314	0.069851
605.772869	0.070177
605.982406	0.069898
606.191925	0.070024
606.401425	0.070034
606.610908	0.069816
606.820372	0.069680
607.029818	0.069750
607.239246	0.069782
607.448655	0.069843
607.658047	0.069748
607.867420	0.069853
608.076775	0.070006
608.286111	0.070132
608.495430	0.070312
608.704730	0.070620
608.914012	0.070707
609.123275	0.070562
609.332521	0.070564
609.541748	0.070567
609.750957	0.070722
609.960148	0.070804
610.169321	0.070738
610.378475	0.070493
610.587611	0.070579
610.796729	0.070717
611.005829	0.070865
611.214910	0.070720
611.423974	0.070599
611.633019	0.070689
611.842045	0.070531
612.051054	0.070651
612.260044	0.070826
612.469017	0.070622
612.677970	0.070516
612.886906	0.070334
613.095824	0.070442
613.304723	0.070503
613.513604	0.070513
613.722467	0.070625
613.931311	0.070541
614.140138	0.070430
614.348946	0.070698
614.557736	0.070471
614.766507	0.070594
614.975261	0.070726
615.183996	0.070911
615.392713	0.070684
615.601412	0.070888
615.810092	0.070909
616.018754	0.070958
616.227399	0.070934
616.436024	0.070968
616.644632	0.070831
616.853222	0.071037
617.061793	0.071124
617.270346	0.071266
617.478880	0.070937
617.687397	0.070905
617.895895	0.070994
618.104375	0.070782
618.312837	0.071027
618.521281	0.071258
618.729706	0.071077
618.938113	0.070823
619.146502	0.070888
619.354873	0.071123
619.563226	0.071303
619.771560	0.071091
619.979876	0.071260
620.188174	0.071249
620.396453	0.071177
620.604715	0.071127
620.812958	0.071189
621.021183	0.071008
621.229390	0.071060
621.437578	0.071050
621.645748	0.071217
621.853900	0.071274
622.062034	0.071405
622.270150	0.071409
622.478247	0.071460
622.686326	0.071610
622.894387	0.071754
623.102430	0.071850
623.310454	0.071896
623.518461	0.072089
623.726449	0.072277
623.934418	0.072047
624.142370	0.072218
624.350303	0.072275
624.558218	0.072399
624.766115	0.072496
624.973994	0.072193
625.181855	0.072191
625.389697	0.072083
625.597521	0.072111
625.805327	0.072231
626.013114	0.072257
626.220883	0.072166
626.428634	0.071974
626.636367	0.071830
626.844082	0.071896
627.051778	0.072082
627.259457	0.072278
627.467117	0.071812
627.674758	0.071890
627.882382	0.071736
628.089987	0.071879
628.297574	0.071960
628.505143	0.071826
628.712694	0.072021
628.920226	0.071892
629.127740	0.071949
629.335236	0.072254
629.542714	0.072283
629.750174	0.072387
629.957615	0.072488
630.165038	0.072730
630.372443	0.072942
630.579829	0.072891
630.787198	0.072896
630.994548	0.072746
631.201880	0.072908
631.409194	0.072702
631.616489	0.072579
631.823766	0.072532
632.031025	0.072453
632.238266	0.072524
632.445489	0.072411
632.652693	0.072460
632.859879	0.072384
633.067047	0.072236
633.274197	0.072407
633.481329	0.072810
633.688442	0.072887
633.895537	0.072889
634.102614	0.073000
634.309672	0.073013
634.516713	0.073044
634.723735	0.073000
634.930739	0.073074
635.137724	0.073065
635.344692	0.072709
635.551641	0.072707
635.758572	0.072520
635.965485	0.072545
636.172379	0.072758
636.379256	0.072846
636.586114	0.072784
636.792954	0.072731
636.999775	0.072886
637.206579	0.072988
637.413364	0.072763
637.620131	0.072744
637.826880	0.072534
638.033610	0.072468
638.240323	0.072531
638.447017	0.072818
638.653692	0.073033
638.860350	0.073180
639.066990	0.073093
639.273611	0.073196
639.480214	0.073406
639.686798	0.073454
639.893365	0.073331
640.099913	0.073251
640.306443	0.073086
640.512955	0.072979
640.719449	0.072739
640.925924	0.072927
641.132381	0.072940
641.338820	0.072952
641.545241	0.072916
641.751644	0.072991
641.958028	0.073043
642.164394	0.073262
642.370742	0.073350
642.577071	0.073344
642.783383	0.073332
642.989676	0.073449
643.195951	0.073252
643.402207	0.073323
643.608446	0.073513
643.814666	0.073401
644.020868	0.073164
644.227052	0.073190
644.433218	0.073216
644.639365	0.073071
644.845494	0.073216
645.051605	0.073365
645.257698	0.073278
645.463772	0.073152
645.669828	0.073286
645.875866	0.073317
646.081886	0.073332
646.287888	0.073386
646.493871	0.073613
646.699836	0.073426
646.905783	0.073663
647.111712	0.073813
647.317622	0.073716
647.523514	0.073818
647.729388	0.074126
647.935244	0.074092
648.141082	0.074187
648.346901	0.074137
648.552702	0.074153
648.758485	0.073901
648.964250	0.074014
649.169996	0.074239
649.375724	0.074019
649.581434	0.074094
649.787126	0.074070
649.992800	0.074183
650.198455	0.074262
650.404092	0.074477
650.609711	0.074654
650.815311	0.074550
651.020894	0.074513
651.226458	0.074633
651.432004	0.074340
651.637532	0.074281
651.843041	0.074041
652.048532	0.073930
652.254006	0.073735
652.459460	0.073749
652.664897	0.073744
652.870315	0.073822
653.075716	0.073741
653.281097	0.073869
653.486461	0.073926
653.691807	0.073989
653.897134	0.074209
654.102443	0.074384
654.307734	0.074512
654.513006	0.074466
654.718261	0.074403
654.923497	0.074568
655.128715	0.074717
655.333915	0.074660
655.539096	0.074628
655.744259	0.074520
655.949404	0.074664
656.154531	0.074517
656.359640	0.074606
656.564730	0.074649
656.769802	0.074613
656.974856	0.074506
657.179892	0.074662
657.384909	0.074801
657.589908	0.074895
657.794889	0.074916
657.999852	0.075117
658.204797	0.075142
658.409723	0.075197
658.614631	0.075183
658.819521	0.075432
659.024393	0.075279
659.229246	0.075388
659.434081	0.075346
659.638898	0.075021
659.843697	0.074816
660.048478	0.074915
660.253240	0.074907
660.457984	0.074811
660.662710	0.074655
660.867417	0.074726
661.072107	0.074610
661.276778	0.074704
661.481431	0.074942
661.686066	0.074852
661.890682	0.074762
662.095281	0.074841
662.299861	0.075113
662.504422	0.075047
662.708966	0.075198
662.913491	0.075463
663.117999	0.075393
663.322488	0.075254
663.526958	0.075351
663.731411	0.075381
663.935845	0.075260
664.140261	0.075253
664.344659	0.075423
664.549038	0.075486
664.753400	0.075289
664.957743	0.075395
665.162068	0.075707
665.366375	0.075955
665.570663	0.076050
665.774933	0.076028
665.979185	0.076101
666.183419	0.076111
666.387635	0.076195
666.591832	0.076376
666.796011	0.076363
667.000172	0.076205
667.204315	0.076181
667.408439	0.076521
667.612545	0.076798
667.816634	0.076749
668.020703	0.076743
668.224755	0.076879
668.428788	0.076865
668.632803	0.076982
668.836800	0.076902
669.040779	0.076937
669.244739	0.076673
669.448681	0.076753
669.652605	0.076716
669.856511	0.076879
670.060399	0.076826
670.264268	0.076688
670.468119	0.076556
670.671952	0.076749
670.875767	0.076823
671.079563	0.076848
671.283341	0.076794
671.487101	0.076933
671.690843	0.076658
671.894567	0.076586
672.098272	0.076653
672.301959	0.076733
672.505628	0.076662
672.709278	0.076591
672.912911	0.076665
673.116525	0.076663
673.320121	0.076557
673.523699	0.076907
673.727258	0.077047
673.930799	0.077123
674.134322	0.077314
674.337827	0.077435
674.541314	0.077428
674.744782	0.077424
674.948232	0.077466
675.151664	0.077733
675.355078	0.077413
675.558474	0.077456
675.761851	0.077571
675.965210	0.077460
676.168551	0.077542
676.371873	0.077495
676.575178	0.077645
676.778464	0.077596
676.981732	0.077350
677.184981	0.077336
677.388213	0.077096
677.591426	0.077188
677.794621	0.077313
677.997798	0.077353
678.200956	0.077513
678.404097	0.077413
678.607219	0.077604
678.810323	0.077740
679.013408	0.078000
679.216476	0.078097
679.419525	0.078232
679.622556	0.078035
679.825569	0.077990
680.028563	0.077993
680.231540	0.078030
680.434498	0.077962
680.637438	0.078179
680.840359	0.078196
681.043263	0.078329
681.246148	0.077991
681.449015	0.078062
681.651864	0.078006
681.854694	0.077950
682.057506	0.077932
682.260301	0.077962
682.463076	0.077541
682.665834	0.077535
682.868573	0.077509
683.071295	0.077741
683.273998	0.077901
683.476682	0.078103
683.679349	0.078266
683.881997	0.078408
684.084627	0.078420
684.287239	0.078774
684.489833	0.079011
684.692408	0.079215
684.894965	0.079329
685.097504	0.079203
685.300025	0.078991
685.502527	0.078815
685.705012	0.078589
685.907478	0.078558
686.109925	0.078496
686.312355	0.078358
686.514766	0.078148
686.717159	0.078050
686.919534	0.078009
687.121891	0.077993
687.324230	0.078131
687.526550	0.078204
687.728852	0.078233
687.931136	0.078278
688.133401	0.078258
688.335649	0.078182
688.537878	0.078040
688.740089	0.078117
688.942281	0.078210
689.144456	0.078203
689.346612	0.078247
689.548750	0.078275
689.750870	0.078290
689.952971	0.078266
690.155055	0.078374
690.357120	0.078457
690.559167	0.078459
690.761195	0.078531
690.963206	0.078507
691.165198	0.078510
691.367172	0.078594
691.569128	0.078471
691.771065	0.078693
691.972984	0.078732
692.174885	0.078970
692.376768	0.079007
692.578633	0.078939
692.780479	0.078904
692.982308	0.078988
693.184118	0.078883
693.385909	0.079028
693.587683	0.078839
693.789438	0.078778
693.991175	0.078563
694.192894	0.078453
694.394595	0.078588
694.596277	0.078567
694.797941	0.078611
694.999587	0.078642
695.201215	0.078630
695.402824	0.078712
695.604416	0.078886
695.805989	0.079028
696.007543	0.079321
696.209080	0.079346
696.410598	0.079542
696.612099	0.079717
696.813580	0.079796
697.015044	0.079969
697.216490	0.079965
697.417917	0.079936
697.619326	0.079850
697.820717	0.079744
698.022089	0.079733
698.223444	0.079649
698.424780	0.079585
698.626098	0.079479
698.827397	0.079219
699.028679	0.079192
699.229942	0.079061
699.431187	0.078919
699.632414	0.079028
699.833622	0.079139
700.034813	0.079327
700.235985	0.079262
700.437139	0.079561
700.638274	0.079824
700.839392	0.080046
701.040491	0.080244
701.241572	0.080604
701.442635	0.080623
701.643679	0.080680
701.844706	0.080752
702.045714	0.080780
702.246704	0.080617
702.447675	0.080541
702.648629	0.080318
702.849564	0.080238
703.050481	0.080118
703.251380	0.080090
703.452260	0.079986
703.653122	0.079766
703.853966	0.079747
704.054792	0.079626
704.255600	0.079622
704.456389	0.079549
704.657160	0.079543
704.857913	0.079490
705.058648	0.079562
705.259365	0.079495
705.460063	0.079489
705.660743	0.079369
705.861405	0.079557
706.062048	0.079518
706.262674	0.079645
706.463281	0.079774
706.663870	0.079713
706.864441	0.079726
707.064993	0.079656
707.265527	0.079636
707.466043	0.079614
707.666541	0.079640
707.867021	0.079702
708.067482	0.079710
708.267925	0.079444
708.468350	0.079534
708.668757	0.079332
708.869145	0.079373
709.069516	0.079369
709.269868	0.079422
709.470201	0.079357
709.670517	0.079336
709.870814	0.079500
710.071093	0.079686
710.271354	0.079746
710.471597	0.079931
710.671821	0.079939
710.872028	0.079948
711.072216	0.080093
711.272385	0.080079
711.472537	0.080075
711.672670	0.079876
711.872785	0.080048
712.072882	0.080075
712.272961	0.079980
712.473021	0.079966
712.673063	0.079938
712.873087	0.079718
713.073093	0.079674
713.273081	0.079584
713.473050	0.079523
713.673001	0.079132
713.872934	0.079154
714.072849	0.079054
714.272745	0.079186
714.472623	0.079130
714.672483	0.079007
714.872325	0.078972
715.072148	0.079107
715.271954	0.079221
715.471741	0.079554
715.671509	0.079266
715.871260	0.079449
716.070992	0.079568
716.270707	0.079689
716.470403	0.080030
716.670080	0.079994
716.869740	0.079793
717.069381	0.079822
717.269004	0.079548
717.468609	0.079677
717.668195	0.079432
717.867764	0.079162
718.067314	0.079143
718.266846	0.079047
718.466360	0.079064
718.665855	0.079204
718.865332	0.079095
719.064791	0.079253
719.264232	0.079129
719.463655	0.079244
719.663059	0.079133
719.862445	0.078962
720.061813	0.078966
720.261163	0.078784
720.460494	0.078734
720.659807	0.078738
720.859102	0.078682
721.058379	0.078685
721.257638	0.078724
721.456878	0.078752
721.656100	0.078873
721.855304	0.078924
722.054490	0.079223
722.253657	0.079333
722.452806	0.079194
722.651937	0.079214
722.851050	0.079349
723.050145	0.079373
723.249221	0.079562
723.448279	0.079475
723.647319	0.079349
723.846340	0.079035
724.045344	0.078979
724.244329	0.078911
724.443296	0.078808
724.642245	0.078842
724.841175	0.078715
725.040088	0.078602
725.238982	0.078600
725.437857	0.078729
725.636715	0.078828
725.835554	0.078651
726.034376	0.078909
726.233179	0.078959
726.431963	0.078859
726.630730	0.078793
726.829478	0.078576
727.028208	0.078551
727.226920	0.078432
727.425614	0.078507
727.624289	0.078729
727.822946	0.078579
728.021585	0.078560
728.220206	0.078525
728.418808	0.078691
728.617392	0.078809
728.815958	0.078823
729.014506	0.078829
729.213036	0.078773
729.411547	0.078404
729.610040	0.078510
729.808515	0.078629
730.006972	0.078577
730.205410	0.078445
730.403831	0.078481
730.602233	0.078645
730.800616	0.078545
730.998982	0.078523
731.197329	0.078633
731.395658	0.078548
731.593969	0.078481
731.792262	0.078597
731.990536	0.078599
732.188793	0.078636
732.387031	0.078448
732.585250	0.078449
732.783452	0.078293
732.981635	0.078290
733.179800	0.078382
733.377947	0.078321
733.576076	0.078183
733.774186	0.078331
733.972278	0.078244
734.170352	0.078301
734.368408	0.078267
734.566446	0.078274
734.764465	0.078210
734.962466	0.078103
735.160449	0.077840
735.358413	0.077797
735.556360	0.077557
735.754288	0.077601
735.952198	0.077399
736.150090	0.077194
736.347963	0.077330
736.545818	0.077388
736.743655	0.077258
736.941474	0.077297
737.139275	0.077197
737.337057	0.077074
737.534821	0.076767
737.732567	0.076838
737.930295	0.076873
738.128005	0.076739
738.325696	0.076699
738.523369	0.076614
738.721024	0.076681
738.918660	0.076886
739.116279	0.076919
739.313879	0.076993
739.511461	0.077223
739.709024	0.077380
739.906570	0.077289
740.104097	0.077256
740.301606	0.077322
740.499097	0.077182
740.696569	0.077120
740.894024	0.077206
741.091460	0.077275
741.288878	0.077009
741.486277	0.076709
741.683659	0.076966
741.881022	0.076877
742.078367	0.076828
742.275694	0.076731
742.473002	0.076661
742.670293	0.076537
742.867565	0.076442
743.064819	0.076535
743.262054	0.076717
743.459272	0.076490
743.656471	0.076376
743.853652	0.076250
744.050815	0.076379
744.247959	0.076313
744.445085	0.076182
744.642194	0.076284
744.839283	0.076151
745.036355	0.076132
745.233408	0.076089
745.430444	0.076089
745.627461	0.076229
745.824459	0.076131
746.021440	0.076056
746.218402	0.076204
746.415346	0.076042
746.612272	0.075928
746.809180	0.075845
747.006069	0.075792
747.202940	0.075803
747.399793	0.075772
747.596628	0.075788
747.793444	0.075776
747.990243	0.075629
748.187023	0.075412
748.383784	0.075456
748.580528	0.075622
748.777253	0.075635
748.973960	0.075721
749.170649	0.075754
749.367320	0.075737
749.563973	0.075734
749.760607	0.075666
749.957223	0.075969
750.153821	0.076078
750.350400	0.076009
750.546962	0.076239
750.743505	0.076383
750.940030	0.076253
751.136536	0.076313
751.333025	0.076404
751.529495	0.076453
751.725947	0.076612
751.922381	0.076617
752.118796	0.076630
752.315194	0.076292
752.511573	0.076064
752.707934	0.075953
752.904276	0.076074
753.100601	0.076010
753.296907	0.076074
753.493195	0.075808
753.689465	0.075703
753.885716	0.075621
754.081949	0.075641
754.278164	0.075632
754.474361	0.075735
754.670540	0.075613
754.866700	0.075593
755.062843	0.075584
755.258967	0.075779
755.455072	0.075946
755.651160	0.076097
755.847229	0.076306
756.043280	0.076460
756.239313	0.076611
756.435328	0.076731
756.631324	0.076687
756.827302	0.076668
757.023262	0.076671
757.219204	0.076474
757.415127	0.076454
757.611033	0.076576
757.806920	0.076387
758.002788	0.076362
758.198639	0.076314
758.394471	0.076430
758.590286	0.076497
758.786081	0.076358
758.981859	0.076411
759.177619	0.076206
759.373360	0.075971
759.569083	0.075962
759.764788	0.075675
759.960474	0.075484
760.156143	0.075258
760.351793	0.075071
760.547425	0.075103
760.743038	0.074936
760.938634	0.074985
761.134211	0.074808
761.329770	0.074991
761.525311	0.075018
761.720833	0.074946
761.916338	0.074939
762.111824	0.075094
762.307292	0.075065
762.502741	0.075199
762.698173	0.074986
762.893586	0.075141
763.088981	0.074964
763.284358	0.075079
763.479716	0.075149
763.675057	0.075243
763.870379	0.075139
764.065683	0.075034
764.260968	0.074807
764.456236	0.074905
764.651485	0.074820
764.846716	0.074738
765.041929	0.074674
765.237123	0.074650
765.432299	0.074562
765.627457	0.074662
765.822597	0.074779
766.017719	0.074928
766.212822	0.075190
766.407907	0.075143
766.602974	0.075453
766.798023	0.075387
766.993054	0.075537
767.188066	0.075544
767.383060	0.075555
767.578036	0.075427
767.772993	0.075335
767.967933	0.075085
768.162854	0.074917
768.357757	0.074632
768.552642	0.074646
768.747508	0.074525
768.942356	0.074582
769.137186	0.074561
769.331998	0.074628
769.526792	0.074670
769.721567	0.074640
769.916324	0.074894
770.111063	0.074878
770.305784	0.074909
770.500486	0.074969
770.695171	0.075036
770.889837	0.074906
771.084484	0.074823
771.279114	0.074915
771.473725	0.075056
771.668318	0.075051
771.862893	0.075245
772.057450	0.075411
772.251988	0.075587
772.446509	0.075577
772.641011	0.075477
772.835494	0.075623
773.029960	0.075692
773.224407	0.075706
773.418836	0.075746
773.613247	0.075714
773.807640	0.075596
774.002014	0.075253
774.196370	0.075293
774.390708	0.075689
774.585028	0.075563
774.779330	0.075487
774.973613	0.075370
775.167878	0.075168
775.362125	0.075039
775.556354	0.074913
775.750564	0.075043
775.944756	0.075033
776.138930	0.074898
776.333086	0.074924
776.527223	0.074975
776.721343	0.075098
776.915444	0.075260
777.109526	0.075325
777.303591	0.075462
777.497637	0.075459
777.691666	0.075387
777.885676	0.075294
778.079667	0.075360
778.273641	0.075426
778.467596	0.075449
778.661533	0.075473
778.855452	0.075489
779.049352	0.075603
779.243235	0.075490
779.437099	0.075534
779.630945	0.075557
779.824773	0.075472
780.018582	0.075290
780.212373	0.075206
780.406146	0.075028
780.599901	0.075102
780.793638	0.075271
780.987356	0.075576
781.181056	0.075798
781.374738	0.075982
781.568402	0.076113
781.762047	0.076158
781.955674	0.076280
782.149283	0.076710
782.342874	0.076625
782.536447	0.076405
782.730001	0.076423
782.923537	0.076077
783.117055	0.075983
783.310555	0.075850
783.504036	0.075776
783.697499	0.075707
783.890944	0.075753
784.084371	0.075958
784.277780	0.076092
784.471170	0.076011
784.664542	0.076210
784.857896	0.076302
785.051231	0.076376
785.244549	0.076555
785.437848	0.076608
785.631129	0.076317
785.824392	0.076106
786.017636	0.076118
786.210863	0.076064
786.404071	0.076080
786.597260	0.076089
786.790432	0.076252
786.983585	0.076271
787.176721	0.076302
787.369838	0.076433
787.562936	0.076546
787.756017	0.076450
787.949079	0.076531
788.142123	0.076562
788.335149	0.076326
788.528156	0.076233
788.721146	0.076277
788.914117	0.076262
789.107070	0.076343
789.300005	0.076310
789.492921	0.076359
789.685819	0.076378
789.878699	0.076206
790.071561	0.076290
790.264405	0.076562
790.457230	0.076636
790.650037	0.076721
790.842826	0.076642
791.035597	0.076890
791.228349	0.077008
791.421084	0.077005
791.613800	0.077024
791.806497	0.076983
791.999177	0.076768
792.191838	0.076753
792.384481	0.076803
792.577106	0.076780
792.769713	0.076584
792.962301	0.076552
793.154871	0.076569
793.347423	0.076718
793.539957	0.076916
793.732473	0.077237
793.924970	0.077330
794.117449	0.077288
794.309910	0.077235
794.502353	0.077319
794.694777	0.077396
794.887183	0.077326
795.079571	0.077434
795.271941	0.077558
795.464293	0.077464
795.656626	0.077389
795.848941	0.077307
796.041238	0.077761
796.233516	0.077902
796.425777	0.077889
796.618019	0.078102
796.810243	0.077991
797.002449	0.078034
797.194636	0.078145
797.386805	0.078269
797.578956	0.078433
797.771089	0.078262
797.963204	0.078295
798.155300	0.078409
798.347378	0.078454
798.539438	0.078684
798.731480	0.078752
798.923503	0.078637
799.115509	0.078540
799.307496	0.078601
799.499465	0.078736
799.691415	0.078789
799.883348	0.078800
800.075262	0.079016
800.267158	0.078995
800.459035	0.079061
800.650895	0.079058
800.842736	0.079199
801.034559	0.079192
801.226364	0.079183
801.418150	0.079130
801.609919	0.078962
801.801669	0.078815
801.993401	0.078958
802.185114	0.079103
802.376810	0.079053
802.568487	0.079069
802.760146	0.079072
802.951787	0.079000
803.143409	0.078977
803.335014	0.079021
803.526600	0.079031
803.718168	0.079065
803.909717	0.078955
804.101249	0.079141
804.292762	0.079064
804.484257	0.079417
804.675734	0.079710
804.867192	0.079850
805.058632	0.080007
805.250054	0.080234
805.441458	0.080061
805.632844	0.080093
805.824211	0.079941
806.015561	0.080267
806.206891	0.080085
806.398204	0.080123
806.589499	0.080073
806.780775	0.080212
806.972033	0.080042
807.163273	0.080308
807.354495	0.080238
807.545698	0.080320
807.736883	0.080293
807.928050	0.080228
808.119199	0.080135
808.310329	0.080316
808.501441	0.080254
808.692535	0.080176
808.883611	0.080255
809.074669	0.080449
809.265708	0.080725
809.456729	0.080684
809.647732	0.080922
809.838717	0.080977
810.029683	0.081202
810.220632	0.081281
810.411562	0.081646
810.602474	0.081542
810.793367	0.081679
810.984242	0.081742
811.175100	0.081774
811.365938	0.081777
811.556759	0.081916
811.747562	0.081716
811.938346	0.081784
812.129112	0.081854
812.319860	0.081937
812.510589	0.082018
812.701300	0.081948
812.891994	0.082124
813.082668	0.082179
813.273325	0.082119
813.463964	0.082257
813.654584	0.082172
813.845186	0.082126
814.035769	0.082282
814.226335	0.082337
814.416882	0.082719
814.607411	0.082570
814.797922	0.082681
814.988415	0.082900
815.178889	0.082896
815.369345	0.083281
815.559783	0.083354
815.750203	0.083389
815.940605	0.083230
816.130988	0.083282
816.321353	0.083513
816.511700	0.083666
816.702028	0.083705
816.892339	0.083840
817.082631	0.083763
817.272905	0.083858
817.463161	0.084012
817.653398	0.084290
817.843617	0.084075
818.033819	0.084310
818.224001	0.084305
818.414166	0.084238
818.604312	0.084192
818.794440	0.084398
818.984550	0.084494
819.174642	0.084547
819.364716	0.084440
819.554771	0.084630
819.744808	0.084641
819.934827	0.084543
820.124827	0.084704
820.314810	0.084997
820.504774	0.085005
820.694720	0.084931
820.884647	0.084783
821.074557	0.084835
821.264448	0.084802
821.454321	0.084567
821.644176	0.084669
821.834012	0.084628
822.023831	0.084447
822.213631	0.084402
822.403413	0.084555
822.593176	0.084835
822.782922	0.084598
822.972649	0.084720
823.162358	0.084874
823.352049	0.084749
823.541721	0.084776
823.731376	0.084763
823.921012	0.084669
824.110629	0.084542
824.300229	0.084366
824.489811	0.084616
824.679374	0.084380
824.868919	0.084497
825.058445	0.084463
825.247954	0.084451
825.437444	0.084679
825.626916	0.084910
825.816370	0.084994
826.005806	0.084991
826.195223	0.085261
826.384622	0.085463
826.574003	0.085542
826.763366	0.085938
826.952711	0.085975
827.142037	0.085838
827.331345	0.085790
827.520635	0.085863
827.709906	0.086115
827.899160	0.085997
828.088395	0.086149
828.277612	0.086224
828.466810	0.086168
828.655991	0.086364
828.845153	0.086741
829.034297	0.086955
829.223423	0.086982
829.412531	0.087115
829.601620	0.087364
829.790691	0.087330
829.979744	0.087340
830.168779	0.087474
830.357795	0.087356
830.546793	0.087482
830.735773	0.087663
830.924735	0.088080
831.113679	0.088236
831.302604	0.088211
831.491511	0.088409
831.680400	0.088426
831.869271	0.088572
832.058123	0.088605
832.246957	0.088323
832.435773	0.088189
832.624571	0.087924
832.813351	0.087791
833.002112	0.087845
833.190855	0.087959
833.379580	0.087887
833.568287	0.087987
833.756975	0.088227
833.945645	0.088439
834.134297	0.088524
834.322931	0.088640
834.511547	0.088750
834.700144	0.088969
834.888723	0.088748
835.077284	0.088965
835.265826	0.089001
835.454351	0.089086
835.642857	0.089104
835.831345	0.089092
836.019815	0.089107
836.208266	0.089170
836.396699	0.089201
836.585114	0.089497
836.773511	0.089575
836.961890	0.089515
837.150250	0.089675
837.338592	0.089778
837.526916	0.089991
837.715222	0.090202
837.903510	0.090093
838.091779	0.090214
838.280030	0.090368
838.468263	0.090442
838.656477	0.090709
838.844674	0.090654
839.032852	0.090808
839.221012	0.090855
839.409153	0.090946
839.597277	0.091185
839.785382	0.091169
839.973469	0.091211
840.161538	0.091590
840.349589	0.091568
840.537621	0.091823
840.725635	0.092003
840.913631	0.092116
841.101609	0.092425
841.289568	0.092199
841.477509	0.092344
841.665432	0.092461
841.853337	0.092563
842.041224	0.092619
842.229092	0.092529
842.416942	0.092580
842.604774	0.092794
842.792588	0.092700
842.980383	0.093277
843.168160	0.093215
843.355919	0.093122
843.543660	0.092837
843.731382	0.093000
843.919087	0.093127
844.106773	0.093092
844.294441	0.092926
844.482090	0.093018
844.669722	0.093072
844.857335	0.093361
845.044930	0.093747
845.232507	0.094092
845.420065	0.094175
845.607605	0.094186
845.795127	0.094608
845.982631	0.094764
846.170117	0.094583
846.357584	0.094506
846.545033	0.094484
846.732464	0.094379
846.919877	0.094222
847.107272	0.094195
847.294648	0.094279
847.482006	0.094271
847.669346	0.094421
847.856667	0.094914
848.043971	0.095185
848.231256	0.095055
848.418523	0.095000
848.605771	0.095233
848.793002	0.095484
848.980214	0.095814
849.167408	0.095802
849.354584	0.095845
849.541742	0.095802
849.728881	0.095670
849.916002	0.096095
850.103105	0.096608
850.290190	0.096851
850.477256	0.097019
850.664304	0.097313
850.851334	0.097437
851.038346	0.097614
851.225340	0.097830
851.412315	0.097999
851.599272	0.098132
851.786211	0.097944
851.973132	0.098081
852.160034	0.098403
852.346918	0.098220
852.533784	0.098263
852.720632	0.098388
852.907462	0.098435
853.094273	0.098397
853.281066	0.098333
853.467841	0.098690
853.654598	0.098489
853.841336	0.098375
854.028056	0.098263
854.214758	0.098511
854.401442	0.098670
854.588107	0.098589
854.774755	0.098877
854.961384	0.098849
855.147995	0.098735
855.334587	0.099019
855.521162	0.098966
855.707718	0.099326
855.894256	0.099372
856.080775	0.099475
856.267277	0.099740
856.453760	0.099871
856.640225	0.100033
856.826672	0.100237
857.013101	0.100192
857.199511	0.100436
857.385903	0.100417
857.572277	0.100408
857.758633	0.100795
857.944970	0.100821
858.131290	0.100810
858.317591	0.100930
858.503873	0.100840
858.690138	0.101140
858.876384	0.101205
859.062612	0.101287
859.248822	0.101483
859.435014	0.101270
859.621188	0.101278
859.807343	0.101310
859.993480	0.101322
860.179599	0.101483
860.365699	0.101423
860.551781	0.101431
860.737846	0.101633
860.923891	0.101629
861.109919	0.101584
861.295929	0.101830
861.481920	0.102089
861.667893	0.102405
861.853848	0.102563
862.039784	0.102772
862.225702	0.102764
862.411603	0.102702
862.597484	0.102784
862.783348	0.103125
862.969193	0.103091
863.155021	0.102904
863.340830	0.102971
863.526620	0.102881
863.712393	0.102759
863.898147	0.102672
864.083883	0.102983
864.269601	0.103095
864.455301	0.103066
864.640982	0.103245
864.826645	0.103657
865.012290	0.103571
865.197917	0.103783
865.383526	0.104125
865.569116	0.104523
865.754688	0.104439
865.940242	0.104295
866.125777	0.104377
866.311295	0.104449
866.496794	0.104533
866.682275	0.104790
866.867737	0.104744
867.053182	0.104682
867.238608	0.104533
867.424016	0.104630
867.609406	0.104896
867.794778	0.105194
867.980131	0.105207
868.165466	0.104926
868.350783	0.105029
868.536082	0.105157
868.721362	0.105351
868.906625	0.105827
869.091869	0.106093
869.277094	0.106143
869.462302	0.106063
869.647491	0.106178
869.832662	0.106740
870.017815	0.106667
870.202950	0.106640
870.388066	0.106709
870.573165	0.106592
870.758245	0.106564
870.943306	0.106682
871.128350	0.106807
871.313375	0.106705
871.498382	0.106543
871.683371	0.106569
871.868342	0.106741
872.053294	0.106887
872.238229	0.107199
872.423144	0.107267
872.608042	0.107287
872.792922	0.107246
872.977783	0.107752
873.162626	0.107906
873.347451	0.108032
873.532258	0.108078
873.717046	0.107990
873.901816	0.107730
874.086568	0.107836
874.271302	0.108139
874.456017	0.108154
874.640715	0.107947
874.825394	0.108037
875.010055	0.108036
875.194697	0.107967
875.379322	0.108355
875.563928	0.108387
875.748516	0.108325
875.933085	0.108292
876.117637	0.108223
876.302170	0.108346
876.486685	0.108242
876.671182	0.108337
876.855661	0.108578
877.040121	0.108423
877.224563	0.108395
877.408987	0.108575
877.593393	0.108664
877.777780	0.108816
877.962150	0.108958
878.146501	0.109186
878.330833	0.109087
878.515148	0.109241
878.699444	0.109602
878.883722	0.109813
879.067982	0.109756
879.252224	0.109720
879.436447	0.109893
879.620653	0.109970
879.804840	0.110144
879.989008	0.110336
880.173159	0.110327
880.357291	0.110057
880.541405	0.110485
880.725501	0.110600
880.909579	0.110741
881.093638	0.110521
881.277680	0.110432
881.461703	0.110247
881.645707	0.110640
881.829694	0.110785
882.013662	0.110842
882.197612	0.110648
882.381544	0.111023
882.565458	0.110987
882.749353	0.111446
882.933230	0.111524
883.117089	0.111732
883.300930	0.111345
883.484753	0.111115
883.668557	0.110926
883.852343	0.110888
884.036111	0.110815
884.219861	0.110645
884.403592	0.110461
884.587305	0.110503
884.771000	0.110487
884.954677	0.110428
885.138335	0.110641
885.321976	0.110961
885.505598	0.111006
885.689201	0.110270
885.872787	0.110491
886.056354	0.110396
886.239904	0.110245
886.423434	0.110265
886.606947	0.110366
886.790442	0.110405
886.973918	0.110215
887.157376	0.110150
887.340816	0.110863
887.524237	0.110571
887.707641	0.110718
887.891026	0.110621
888.074393	0.110369
888.257741	0.110778
888.441072	0.110324
888.624384	0.110434
888.807678	0.110251
888.990954	0.110003
889.174211	0.110091
889.357451	0.109836
889.540672	0.109773
889.723875	0.109994
889.907059	0.109532
890.090226	0.109660
890.273374	0.109559
890.456504	0.109558
890.639616	0.109390
890.822709	0.109736
891.005785	0.109563
891.188842	0.109467
891.371881	0.109359
891.554901	0.109438
891.737904	0.109561
891.920888	0.109667
892.103854	0.109475
892.286802	0.109689
892.469731	0.109415
892.652643	0.109946
892.835536	0.110530
893.018410	0.110707
893.201267	0.110560
893.384106	0.110463
893.566926	0.110437
893.749728	0.111084
893.932511	0.111071
894.115277	0.111130
894.298024	0.110785
894.480753	0.110490
894.663464	0.110515
894.846157	0.110846
895.028831	0.111243
895.211487	0.110936
895.394125	0.110538
895.576745	0.110436
895.759346	0.110559
895.941930	0.110744
896.124495	0.110585
896.307041	0.110362
896.489570	0.110066
896.672080	0.109776
896.854573	0.109803
897.037046	0.110055
897.219502	0.110210
897.401940	0.109906
897.584359	0.109885
897.766760	0.110087
897.949143	0.110053
898.131507	0.110155
898.313854	0.110488
898.496182	0.110641
898.678492	0.110532
898.860783	0.110534
899.043057	0.110485
899.225312	0.110401
899.407549	0.110259
899.589768	0.110389
899.771968	0.110572
899.954151	0.110238
900.136315	0.110304
900.318461	0.110154
900.500588	0.109886
900.682698	0.110029
900.864789	0.109725
901.046862	0.109733
901.228917	0.109471
901.410953	0.109494
901.592971	0.109437
901.774972	0.109313
901.956953	0.109468
902.138917	0.109371
902.320862	0.109152
902.502790	0.109482
902.684699	0.109226
902.866589	0.109277
903.048462	0.108700
903.230316	0.108597
903.412152	0.108304
903.593970	0.108231
903.775770	0.108283
903.957551	0.108344
904.139314	0.108028
904.321059	0.108196
904.502786	0.108370
904.684494	0.108843
904.866185	0.108773
905.047857	0.109039
905.229510	0.108874
905.411146	0.108691
905.592763	0.108655
905.774363	0.108116
905.955943	0.108076
906.137506	0.107466
906.319051	0.107519
906.500577	0.107253
906.682085	0.106871
906.863575	0.106723
907.045046	0.107188
907.226500	0.107118
907.407935	0.107707
907.589352	0.107531
907.770750	0.107632
907.952131	0.107475
908.133493	0.107600
908.314837	0.107709
908.496163	0.107611
908.677470	0.107241
908.858760	0.106932
909.040031	0.106647
909.221284	0.106529
909.402518	0.106432
909.583735	0.105973
909.764933	0.106145
909.946113	0.106150
910.127275	0.106135
910.308418	0.105852
910.489544	0.106280
910.670651	0.106088
910.851740	0.106136
911.032810	0.106174
911.213863	0.106243
911.394897	0.105862
911.575913	0.105531
911.756911	0.105154
911.937890	0.105314
912.118851	0.104806
912.299794	0.104747
912.480719	0.104592
912.661626	0.104132
912.842514	0.103934
913.023384	0.104001
913.204236	0.103775
913.385070	0.103782
913.565886	0.103485
913.746683	0.103606
913.927462	0.103509
914.108223	0.103422
914.288965	0.103596
914.469690	0.103419
914.650396	0.103124
914.831084	0.103167
915.011754	0.102950
915.192405	0.102944
915.373038	0.102744
915.553653	0.102834
915.734250	0.102740
915.914829	0.102680
916.095389	0.102772
916.275931	0.102852
916.456455	0.102720
916.636961	0.102274
916.817448	0.101976
916.997917	0.101734
917.178368	0.101743
917.358801	0.101946
917.539216	0.101897
917.719612	0.101370
917.899990	0.100926
918.080350	0.100839
918.260692	0.101302
918.441015	0.101064
918.621320	0.100748
918.801607	0.100206
918.981876	0.099445
919.162127	0.098669
919.342359	0.098396
919.522573	0.098242
919.702769	0.097826
919.882947	0.097594
920.063106	0.097680
920.243247	0.097398
920.423370	0.097410
920.603475	0.097192
920.783562	0.097011
920.963630	0.097124
921.143680	0.096963
921.323712	0.096625
921.503725	0.096112
921.683721	0.095419
921.863698	0.095754
922.043657	0.095635
922.223598	0.095913
922.403520	0.096080
922.583424	0.095873
922.763311	0.095772
922.943178	0.096008
923.123028	0.096234
923.302859	0.096368
923.482673	0.095807
923.662467	0.095810
923.842244	0.095161
924.022003	0.094850
924.201743	0.094362
924.381465	0.093906
924.561169	0.093690
924.740854	0.093422
924.920522	0.093395
925.100171	0.092749
925.279802	0.092560
925.459414	0.092403
925.639009	0.092292
925.818585	0.091914
925.998143	0.091228
926.177683	0.090770
926.357205	0.090413
926.536708	0.090046
926.716193	0.090240
926.895660	0.089235
927.075109	0.089516
927.254539	0.089324
927.433951	0.089687
927.613345	0.090053
927.792721	0.089712
927.972079	0.089403
928.151418	0.088577
928.330739	0.088308
928.510042	0.088629
928.689327	0.088494
928.868593	0.087860
929.047841	0.087039
929.227071	0.086897
929.406283	0.086617
929.585476	0.086584
929.764652	0.086414
929.943809	0.086095
930.122948	0.085542
930.302068	0.084425
930.481171	0.085182
930.660255	0.085132
930.839321	0.085198
931.018369	0.085227
931.197398	0.084598
931.376409	0.084142
931.555402	0.084251
931.734377	0.083777
931.913334	0.083637
932.092272	0.083654
932.271192	0.083240
932.450094	0.082645
932.628978	0.082285
932.807844	0.082267
932.986691	0.082417
933.165520	0.081639
933.344331	0.081589
933.523123	0.081539
933.701898	0.080377
933.880654	0.080071
934.059392	0.079892
934.238111	0.079794
934.416813	0.079440
934.595496	0.079542
934.774161	0.079416
934.952808	0.079056
935.131437	0.078188
935.310047	0.077683
935.488639	0.077744
935.667213	0.077347
935.845769	0.076946
936.024306	0.077280
936.202825	0.076706
936.381326	0.076614
936.559809	0.076075
936.738274	0.075959
936.916720	0.075889
937.095148	0.075673
937.273558	0.075938
937.451950	0.076196
937.630323	0.075074
937.808678	0.075441
937.987015	0.075002
938.165334	0.074809
938.343635	0.075031
938.521917	0.074516
938.700181	0.075034
938.878427	0.074200
939.056655	0.072817
939.234864	0.072545
939.413055	0.071641
939.591228	0.071252
939.769383	0.071185
939.947519	0.070439
940.125638	0.069693
940.303738	0.068550
940.481820	0.067717
940.659883	0.068433
940.837929	0.068757
941.015956	0.068993
941.193965	0.069497
941.371955	0.069765
941.549928	0.069701
941.727882	0.070456
941.905818	0.070566
942.083736	0.070918
942.261636	0.069839
942.439517	0.069564
942.617380	0.068910
942.795225	0.067666
942.973052	0.067015
943.150860	0.066483
943.328651	0.065503
943.506423	0.065759
943.684176	0.065793
943.861912	0.065706
944.039629	0.063671
944.217328	0.064174
944.395009	0.064166
944.572672	0.064651
944.750317	0.064080
944.927943	0.064254
945.105551	0.062570
945.283141	0.061737
945.460712	0.061393
945.638265	0.061620
945.815801	0.060215
945.993317	0.060471
946.170816	0.059537
946.348297	0.060494
946.525759	0.060323
946.703203	0.060478
946.880629	0.059391
947.058036	0.059902
947.235425	0.061910
947.412797	0.062975
947.590149	0.062012
947.767484	0.061533
947.944800	0.060909
948.122099	0.059124
948.299379	0.058178
948.476640	0.059583
948.653884	0.059175
948.831109	0.057773
949.008316	0.056997
949.185505	0.057230
949.362676	0.058002
949.539828	0.057989
949.716962	0.060526
949.894078	0.061330
950.071176	0.060272
950.248256	0.059450
950.425317	0.058745
950.602360	0.058512
950.779385	0.058528
950.956391	0.058795
951.133380	0.058771
951.310350	0.057971
951.487302	0.058811
951.664235	0.058897
951.841151	0.059113
952.018048	0.059106
952.194927	0.059580
952.371788	0.059552
952.548631	0.058351
952.725455	0.058891
952.902261	0.057909
953.079049	0.057042
953.255819	0.057643
953.432570	0.058082
953.609303	0.059576
953.786018	0.057877
953.962715	0.057641
954.139394	0.057478
954.316054	0.056256
954.492696	0.056782
954.669320	0.056350
954.845926	0.057357
955.022513	0.057805
955.199083	0.056869
955.375634	0.057536
955.552166	0.057946
955.728681	0.057545
955.905177	0.057239
956.081655	0.058332
956.258115	0.058582
956.434557	0.057191
956.610980	0.056105
956.787385	0.055922
956.963772	0.056188
957.140141	0.055608
957.316492	0.055409
957.492824	0.054301
957.669138	0.052143
957.845434	0.052173
958.021712	0.050952
958.197971	0.051495
958.374212	0.051933
958.550435	0.051525
958.726640	0.052212
958.902826	0.053168
959.078995	0.053402
959.255145	0.055718
959.431277	0.056269
959.607390	0.057736
959.783486	0.056932
959.959563	0.056921
960.135622	0.057456
960.311662	0.056405
960.487685	0.056632
960.663689	0.058759
960.839675	0.059683
961.015643	0.060953
961.191593	0.060600
961.367524	0.059621
961.543437	0.059405
961.719332	0.060104
961.895209	0.062273
962.071067	0.062633
962.246907	0.060718
962.422730	0.058501
962.598533	0.055640
962.774319	0.055679
962.950086	0.057042
963.125835	0.056640
963.301566	0.055064
963.477279	0.053811
963.652973	0.054920
963.828650	0.056146
964.004308	0.054153
964.179947	0.056093
964.355569	0.056352
964.531172	0.058434
964.706757	0.058854
964.882324	0.059775
965.057873	0.060069
965.233403	0.058117
965.408916	0.060206
965.584410	0.062395
965.759885	0.062868
965.935343	0.061539
966.110782	0.058793
966.286203	0.059263
966.461606	0.059225
966.636991	0.058615
966.812357	0.059242
966.987705	0.057692
967.163035	0.058659
967.338347	0.058199
967.513641	0.059575
967.688916	0.060536
967.864173	0.058775
968.039412	0.057647
968.214632	0.058218
968.389835	0.057406
968.565019	0.057584
968.740185	0.057512
968.915333	0.058916
969.090462	0.058278
969.265573	0.058969
969.440667	0.059660
969.615741	0.058526
969.790798	0.057503
969.965836	0.056764
970.140856	0.055230
970.315858	0.053793
970.490842	0.053297
970.665808	0.053943
970.840755	0.055071
971.015684	0.054984
971.190595	0.056520
971.365487	0.057144
971.540362	0.059259
971.715218	0.061018
971.890056	0.059996
972.064875	0.058866
972.239677	0.061114
972.414460	0.061190
972.589225	0.060980
972.763972	0.061817
972.938700	0.061657
973.113411	0.060793
973.288103	0.062164
973.462777	0.063910
973.637432	0.064100
973.812070	0.061828
973.986689	0.060801
974.161290	0.059559
974.335873	0.059447
974.510437	0.059725
974.684984	0.060381
974.859512	0.058325
975.034022	0.058286
975.208513	0.058601
975.382987	0.059216
975.557442	0.058054
975.731879	0.058814
975.906298	0.059450
976.080698	0.059890
976.255080	0.059499
976.429445	0.058678
976.603790	0.058842
976.778118	0.057013
976.952427	0.056638
977.126719	0.057421
977.300992	0.057581
977.475246	0.056736
977.649483	0.056512
977.823701	0.057348
977.997901	0.058312
978.172083	0.057697
978.346247	0.058095
978.520392	0.058967
978.694519	0.058875
978.868628	0.060431
979.042719	0.060988
979.216791	0.061450
979.390845	0.059867
979.564882	0.060106
979.738899	0.059689
979.912899	0.060884
980.086880	0.059557
980.260843	0.058704
980.434788	0.058463
980.608715	0.058075
980.782623	0.057243
980.956514	0.059362
981.130386	0.059251
981.304240	0.059899
981.478075	0.058549
981.651892	0.059152
981.825692	0.058693
981.999472	0.058173
982.173235	0.059901
982.346980	0.059909
982.520706	0.057643
982.694414	0.059078
982.868104	0.058987
983.041775	0.061203
983.215428	0.060159
983.389064	0.062672
983.562680	0.063377
983.736279	0.061010
983.909860	0.060723
984.083422	0.061841
984.256966	0.061169
984.430491	0.062928
984.603999	0.062088
984.777488	0.062939
984.950959	0.061822
985.124412	0.061592
985.297847	0.060890
985.471263	0.060795
985.644661	0.060820
985.818041	0.060147
985.991403	0.057623
986.164747	0.058013
986.338072	0.058781
986.511379	0.059333
986.684668	0.058279
986.857938	0.058956
987.031191	0.060306
987.204425	0.059338
987.377641	0.058748
987.550839	0.060209
987.724018	0.060236
987.897179	0.059457
988.070322	0.059066
988.243447	0.059881
988.416554	0.061452
988.589642	0.061421
988.762712	0.062697
988.935764	0.063940
989.108798	0.063716
989.281813	0.063826
989.454811	0.062622
989.627790	0.061829
989.800751	0.062002
989.973693	0.061706
990.146617	0.061991
990.319524	0.062428
990.492412	0.061453
990.665281	0.060812
990.838133	0.061567
991.010966	0.063518
991.183781	0.065079
991.356578	0.064775
991.529356	0.064727
991.702117	0.064009
991.874859	0.063350
992.047583	0.064961
992.220288	0.064505
992.392976	0.063604
992.565645	0.061600
992.738296	0.060272
992.910929	0.059724
993.083543	0.057707
993.256139	0.057455
993.428718	0.058480
993.601277	0.057003
993.773819	0.058342
993.946342	0.056748
994.118848	0.058119
994.291335	0.057673
994.463803	0.058149
994.636254	0.059319
994.808686	0.058863
994.981100	0.056147
995.153496	0.057453
995.325874	0.057192
995.498233	0.058318
995.670574	0.059989
995.842897	0.061194
996.015202	0.060984
996.187488	0.061114
996.359757	0.061750
996.532007	0.063611
996.704239	0.063652
996.876452	0.062789
997.048648	0.064406
997.220825	0.063478
997.392984	0.062793
997.565124	0.063978
997.737247	0.063105
997.909351	0.061686
998.081437	0.061129
998.253505	0.060958
998.425554	0.060805
998.597586	0.059430
998.769599	0.058343
998.941594	0.058102
999.113571	0.058122
999.285529	0.059168
999.457469	0.059992
999.629391	0.057788
999.801295	0.056172
999.973181	0.059025
1000.145048	0.059595
1000.316897	0.060390
1000.488728	0.061616
1000.660541	0.061598
1000.832335	0.060937
1001.004111	0.060683
1001.175869	0.062537
1001.347609	0.062773
1001.519331	0.062354
1001.691034	0.062211
1001.862719	0.061419
1002.034386	0.059837
1002.206035	0.058166
1002.377665	0.058716
1002.549277	0.060240
1002.720871	0.059447
1002.892447	0.058586
1003.064004	0.056376
1003.235544	0.054578
1003.407065	0.053658
1003.578568	0.056105
1003.750052	0.056924
1003.921519	0.057643
1004.092967	0.054875
1004.264397	0.055240
1004.435809	0.057075
1004.607202	0.057857
1004.778577	0.058044
1004.949934	0.058281
1005.121273	0.056442
1005.292594	0.056896
1005.463896	0.055835
1005.635180	0.057099
1005.806446	0.057301
1005.977694	0.056044
1006.148923	0.055816
1006.320135	0.056630
1006.491328	0.057081
1006.662503	0.057147
1006.833659	0.059113
1007.004798	0.059767
1007.175918	0.059962
1007.347020	0.059595
1007.518103	0.060537
1007.689169	0.061401
1007.860216	0.061062
1008.031245	0.061320
1008.202256	0.061584
1008.373248	0.059942
1008.544223	0.059584
1008.715179	0.060441
1008.886117	0.059612
1009.057036	0.060323
1009.227938	0.058611
1009.398821	0.059836
1009.569686	0.059370
1009.740533	0.059888
1009.911361	0.058147
1010.082172	0.059869
1010.252964	0.060563
1010.423738	0.062303
1010.594493	0.060157
1010.765231	0.060560
1010.935950	0.059740
1011.106651	0.060943
1011.277334	0.059345
1011.447998	0.060535
1011.618645	0.058173
1011.789273	0.056646
1011.959882	0.055615
1012.130474	0.055812
1012.301048	0.055795
1012.471603	0.055876
1012.642140	0.054367
1012.812658	0.056925
1012.983159	0.057261
1013.153641	0.055349
1013.324105	0.056331
1013.494551	0.057248
1013.664979	0.057526
1013.835388	0.059048
1014.005779	0.061291
1014.176152	0.062815
1014.346507	0.060856
1014.516843	0.060126
1014.687162	0.064476
1014.857462	0.064433
1015.027744	0.063469
1015.198007	0.064862
1015.368252	0.064700
1015.538480	0.062855
1015.708689	0.060851
1015.878879	0.060087
1016.049052	0.061286
1016.219206	0.059448
1016.389342	0.058314
1016.559460	0.059224
1016.729559	0.059140
1016.899641	0.058108
1017.069704	0.056942
1017.239749	0.057445
1017.409775	0.058940
1017.579784	0.056458
1017.749774	0.056226
1017.919746	0.057072
1018.089700	0.055925
1018.259635	0.055204
1018.429553	0.055919
1018.599452	0.057486
1018.769333	0.058366
1018.939195	0.058105
1019.109040	0.058988
1019.278866	0.059183
1019.448674	0.057979
1019.618464	0.059077
1019.788235	0.059880
1019.957989	0.059739
1020.127724	0.057880
1020.297441	0.058557
1020.467139	0.058004
1020.636820	0.058603
1020.806482	0.056616
1020.976126	0.058304
1021.145752	0.057862
1021.315359	0.056242
1021.484948	0.054896
1021.654519	0.055477
1021.824072	0.054401
1021.993607	0.053901
1022.163123	0.052651
1022.332621	0.055046
1022.502101	0.054574
1022.671563	0.054908
1022.841007	0.055120
1023.010432	0.056174
1023.179839	0.056011
1023.349228	0.056522
1023.518598	0.056949
1023.687951	0.057595
1023.857285	0.057445
1024.026601	0.056504
1024.195899	0.057962
1024.365178	0.058115
1024.534439	0.058330
1024.703682	0.058939
1024.872907	0.058423
1025.042114	0.057641
1025.211302	0.059602
1025.380472	0.059340
1025.549624	0.060478
1025.718758	0.058516
1025.887873	0.060087
1026.056970	0.059203
1026.226049	0.059984
1026.395110	0.059053
1026.564153	0.059578
1026.733177	0.057957
1026.902183	0.058574
1027.071171	0.057996
1027.240141	0.057027
1027.409092	0.056041
1027.578026	0.056061
1027.746940	0.055763
1027.915837	0.056540
1028.084716	0.057073
1028.253576	0.057629
1028.422418	0.057276
1028.591242	0.055320
1028.760048	0.056951
1028.928835	0.057000
1029.097604	0.057410
1029.266355	0.057027
1029.435088	0.057541
1029.603803	0.057553
1029.772499	0.057534
1029.941177	0.056960
1030.109837	0.058263
1030.278478	0.059547
1030.447102	0.059269
1030.615707	0.059744
1030.784294	0.058445
1030.952863	0.058847
1031.121413	0.058533
1031.289945	0.058922
1031.458460	0.059066
1031.626955	0.059691
1031.795433	0.057638
1031.963892	0.057729
1032.132334	0.057443
1032.300756	0.057120
1032.469161	0.056353
1032.637548	0.056830
1032.805916	0.055900
1032.974266	0.056330
1033.142598	0.056454
1033.310911	0.057429
1033.479207	0.057173
1033.647484	0.058593
1033.815743	0.059750
1033.983983	0.058727
1034.152206	0.058684
1034.320410	0.059799
1034.488596	0.058655
1034.656764	0.059478
1034.824914	0.059191
1034.993045	0.059929
1035.161158	0.058005
1035.329253	0.058495
1035.497330	0.061191
1035.665388	0.060249
1035.833428	0.059479
1036.001450	0.061023
1036.169454	0.059183
1036.337440	0.058214
1036.505407	0.058725
1036.673356	0.059397
1036.841287	0.058313
1037.009200	0.055618
1037.177094	0.054726
1037.344970	0.053854
1037.512828	0.053960
1037.680668	0.055168
1037.848489	0.056691
1038.016293	0.055990
1038.184078	0.055316
1038.351845	0.056122
1038.519593	0.056682
1038.687324	0.057969
1038.855036	0.058437
1039.022730	0.056784
1039.190406	0.056602
1039.358063	0.056546
1039.525702	0.054824
1039.693323	0.054697
1039.860926	0.053327
1040.028511	0.054346
1040.196077	0.056809
1040.363625	0.056893
1040.531155	0.058390
1040.698667	0.058296
1040.866161	0.056640
1041.033636	0.056311
1041.201093	0.055929
1041.368532	0.056919
1041.535952	0.056329
1041.703355	0.054842
1041.870739	0.054089
1042.038105	0.053406
1042.205452	0.053759
1042.372782	0.053176
1042.540093	0.054310
1042.707386	0.054822
1042.874661	0.054372
1043.041918	0.054962
1043.209156	0.054774
1043.376376	0.054444
1043.543578	0.055728
1043.710762	0.055772
1043.877927	0.058406
1044.045074	0.058502
1044.212203	0.059080
1044.379314	0.060507
1044.546407	0.059181
1044.713481	0.058687
1044.880537	0.060046
1045.047575	0.058021
1045.214595	0.057610
1045.381596	0.056844
1045.548579	0.057203
1045.715544	0.055789
1045.882491	0.054344
1046.049420	0.055102
1046.216330	0.054973
1046.383222	0.055784
1046.550096	0.056208
1046.716951	0.055247
1046.883789	0.054435
1047.050608	0.054395
1047.217409	0.056080
1047.384192	0.057483
1047.550956	0.056141
1047.717703	0.055172
1047.884431	0.054335
1048.051140	0.052880
1048.217832	0.054555
1048.384505	0.055523
1048.551161	0.056610
1048.717798	0.055957
1048.884416	0.053383
1049.051017	0.054321
1049.217599	0.055202
1049.384163	0.054973
1049.550709	0.055563
1049.717237	0.053921
1049.883746	0.053969
1050.050237	0.051599
1050.216710	0.051304
1050.383165	0.052112
1050.549601	0.051717
1050.716019	0.052032
1050.882420	0.053098
1051.048801	0.053467
1051.215165	0.054466
1051.381510	0.054869
1051.547837	0.055235
1051.714146	0.054177
1051.880437	0.054529
1052.046709	0.054232
1052.212964	0.053836
1052.379200	0.052904
1052.545417	0.053626
1052.711617	0.052927
1052.877798	0.052679
1053.043961	0.053824
1053.210106	0.055421
1053.376233	0.055599
1053.542341	0.056569
1053.708432	0.056745
1053.874504	0.057214
1054.040557	0.056964
1054.206593	0.056795
1054.372610	0.055923
1054.538609	0.056041
1054.704590	0.055520
1054.870553	0.055193
1055.036497	0.056070
1055.202424	0.056960
1055.368331	0.055866
1055.534221	0.055533
1055.700093	0.057920
1055.865946	0.057316
1056.031781	0.056515
1056.197598	0.055964
1056.363397	0.057766
1056.529177	0.057272
1056.694939	0.056328
1056.860683	0.055787
1057.026409	0.055731
1057.192116	0.054471
1057.357806	0.053442
1057.523477	0.054093
1057.689130	0.054184
1057.854764	0.051804
1058.020381	0.050429
1058.185979	0.050496
1058.351559	0.049854
1058.517120	0.050584
1058.682664	0.049789
1058.848189	0.050115
1059.013696	0.048521
1059.179185	0.049707
1059.344656	0.051574
1059.510108	0.052086
1059.675542	0.051034
1059.840958	0.053722
1060.006356	0.054121
1060.171735	0.055192
1060.337096	0.055899
1060.502439	0.057113
1060.667764	0.057749
1060.833071	0.057350
1060.998359	0.056118
1061.163629	0.057890
1061.328881	0.058553
1061.494115	0.059158
1061.659330	0.057836
1061.824527	0.056264
1061.989706	0.055755
1062.154867	0.054845
1062.320010	0.053913
1062.485134	0.056979
1062.650240	0.055125
1062.815328	0.053988
1062.980398	0.052509
1063.145449	0.053398
1063.310482	0.055473
1063.475497	0.055418
1063.640494	0.055963
1063.805473	0.055937
1063.970433	0.053292
1064.135375	0.055815
1064.300299	0.055262
1064.465204	0.055482
1064.630092	0.054835
1064.794961	0.055529
1064.959812	0.056313
1065.124645	0.053575
1065.289459	0.055691
1065.454256	0.057165
1065.619034	0.055837
1065.783793	0.056707
1065.948535	0.055519
1066.113258	0.057050
1066.277964	0.055649
1066.442651	0.055951
1066.607319	0.055980
1066.771970	0.055944
1066.936602	0.055321
1067.101216	0.054952
1067.265812	0.053049
1067.430389	0.053980
1067.594949	0.053537
1067.759490	0.055487
1067.924013	0.055128
1068.088518	0.056417
1068.253004	0.055955
1068.417472	0.055195
1068.581922	0.055997
1068.746354	0.056864
1068.910768	0.060199
1069.075163	0.059613
1069.239540	0.056974
1069.403899	0.056956
1069.568240	0.057351
1069.732562	0.055457
1069.896866	0.056315
1070.061152	0.055785
1070.225420	0.054194
1070.389670	0.050140
1070.553901	0.050291
1070.718114	0.052457
1070.882309	0.053101
1071.046486	0.052336
1071.210644	0.053054
1071.374784	0.054272
1071.538906	0.053799
1071.703010	0.055090
1071.867096	0.057609
1072.031163	0.057132
1072.195212	0.056700
1072.359243	0.055520
1072.523256	0.056499
1072.687250	0.057076
1072.851226	0.055373
1073.015184	0.055226
1073.179124	0.054760
1073.343045	0.052913
1073.506949	0.052595
1073.670834	0.053035
1073.834701	0.053640
1073.998549	0.053186
1074.162380	0.053647
1074.326192	0.055126
1074.489986	0.056511
1074.653761	0.055328
1074.817519	0.054178
1074.981258	0.054712
1075.144979	0.053816
1075.308682	0.051180
1075.472367	0.052716
1075.636033	0.051477
1075.799681	0.050017
1075.963311	0.048990
1076.126923	0.051647
1076.290516	0.054178
1076.454092	0.054792
1076.617649	0.054555
1076.781187	0.057698
1076.944708	0.055483
1077.108210	0.055045
1077.271695	0.055898
1077.435160	0.055084
1077.598608	0.053239
1077.762038	0.051083
1077.925449	0.049971
1078.088842	0.050439
1078.252217	0.048488
1078.415573	0.048250
1078.578912	0.051422
1078.742232	0.052913
1078.905534	0.055163
1079.068817	0.055171
1079.232083	0.056294
1079.395330	0.058830
1079.558559	0.058872
1079.721770	0.059967
1079.884962	0.061185
1080.048136	0.058703
1080.211293	0.057002
1080.374430	0.054937
1080.537550	0.056310
1080.700651	0.055561
1080.863735	0.052958
1081.026800	0.050627
1081.189846	0.050494
1081.352875	0.048453
1081.515885	0.049104
1081.678877	0.049942
1081.841851	0.052431
1082.004807	0.052458
1082.167744	0.054118
1082.330663	0.054196
1082.493564	0.056452
1082.656447	0.056064
1082.819312	0.057584
1082.982158	0.056339
1083.144986	0.055218
1083.307796	0.054054
1083.470587	0.052444
1083.633361	0.053769
1083.796116	0.054605
1083.958853	0.053675
1084.121571	0.054457
1084.284272	0.055196
1084.446954	0.056302
1084.609618	0.057153
1084.772264	0.058558
1084.934892	0.062779
1085.097501	0.062617
1085.260092	0.061062
1085.422665	0.060375
1085.585220	0.061128
1085.747756	0.061554
1085.910274	0.061692
1086.072774	0.059678
1086.235256	0.057688
1086.397720	0.055571
1086.560165	0.052311
1086.722592	0.054332
1086.885001	0.056658
1087.047392	0.055122
1087.209764	0.054929
1087.372119	0.052077
1087.534455	0.055428
1087.696772	0.055388
1087.859072	0.054092
1088.021353	0.055787
1088.183616	0.052674
1088.345861	0.051627
1088.508088	0.052370
1088.670296	0.051602
1088.832486	0.051340
1088.994658	0.050592
1089.156812	0.049979
1089.318948	0.052038
1089.481065	0.050352
1089.643164	0.052153
1089.805245	0.052923
1089.967308	0.052070
1090.129352	0.053137
1090.291378	0.056175
1090.453386	0.054320
1090.615376	0.053018
1090.777347	0.050914
1090.939301	0.050704
1091.101236	0.048226
1091.263153	0.046539
1091.425051	0.047902
1091.586932	0.048024
1091.748794	0.048273
1091.910638	0.049512
1092.072463	0.049224
1092.234271	0.048171
1092.396060	0.047862
1092.557831	0.050498
1092.719584	0.050482
1092.881319	0.051897
1093.043035	0.050871
1093.204733	0.049236
1093.366413	0.048982
1093.528075	0.052237
1093.689718	0.052227
1093.851343	0.053193
1094.012950	0.054465
1094.174539	0.056707
1094.336110	0.056265
1094.497662	0.055459
1094.659196	0.057836
1094.820712	0.058678
1094.982210	0.057394
1095.143689	0.059416
1095.305151	0.061891
1095.466594	0.059918
1095.628018	0.059982
1095.789425	0.058967
1095.950813	0.060560
1096.112183	0.059331
1096.273535	0.059926
1096.434869	0.060553
1096.596184	0.062833
1096.757482	0.059416
1096.918761	0.061300
1097.080021	0.059418
1097.241264	0.057610
1097.402488	0.057628
1097.563694	0.057443
1097.724882	0.054186
1097.886052	0.053957
1098.047203	0.049865
1098.208336	0.051633
1098.369451	0.049321
1098.530548	0.049201
1098.691627	0.050590
1098.852687	0.051008
1099.013729	0.049847
1099.174753	0.051726
1099.335758	0.053824
1099.496746	0.053564
1099.657715	0.054270
1099.818666	0.053553
1099.979599	0.051941
1100.140513	0.052985
1100.301409	0.051889
1100.462287	0.052701
1100.623147	0.051099
1100.783989	0.047299
1100.944812	0.048429
1101.105617	0.047265
1101.266404	0.044342
1101.427173	0.045116
1101.587923	0.045768
1101.748656	0.045360
1101.909370	0.046014
1102.070066	0.046785
1102.230743	0.048476
1102.391403	0.051401
1102.552044	0.051541
1102.712667	0.059102
1102.873271	0.062871
1103.033858	0.061695
1103.194426	0.062282
1103.354976	0.061019
1103.515508	0.061333
1103.676021	0.059767
1103.836517	0.058765
1103.996994	0.057225
1104.157453	0.055007
1104.317893	0.053631
1104.478316	0.051808
1104.638720	0.055823
1104.799106	0.058129
1104.959474	0.058610
1105.119823	0.060374
1105.280155	0.059568
1105.440468	0.060852
1105.600763	0.057236
1105.761039	0.055905
1105.921298	0.056048
1106.081538	0.050347
1106.241760	0.046876
1106.401964	0.048424
1106.562149	0.047053
1106.722316	0.049074
1106.882465	0.048928
1107.042596	0.049706
1107.202709	0.047812
1107.362803	0.048597
1107.522879	0.047551
1107.682937	0.050858
1107.842977	0.050452
1108.002999	0.049193
1108.163002	0.045394
1108.322987	0.046484
1108.482954	0.048182
1108.642902	0.048470
1108.802833	0.055168
1108.962745	0.056806
1109.122639	0.051695
1109.282515	0.052474
1109.442372	0.049872
1109.602211	0.051936
1109.762032	0.049352
1109.921835	0.048812
1110.081620	0.050305
1110.241386	0.042030
1110.401134	0.041683
1110.560864	0.045212
1110.720576	0.042645
1110.880269	0.048254
1111.039945	0.046344
1111.199602	0.050878
1111.359240	0.051980
1111.518861	0.051425
1111.678463	0.052931
1111.838047	0.050911
1111.997613	0.051594
1112.157161	0.054023
1112.316690	0.053648
1112.476202	0.056486
1112.635695	0.052628
1112.795169	0.052983
1112.954626	0.054257
1113.114064	0.052400
1113.273484	0.056503
1113.432886	0.055496
1113.592270	0.054402
1113.751635	0.053644
1113.910983	0.053532
1114.070312	0.055790
1114.229622	0.055338
1114.388915	0.051840
1114.548189	0.056369
1114.707445	0.056495
1114.866683	0.054364
1115.025903	0.051793
1115.185104	0.050907
1115.344287	0.050178
1115.503452	0.046430
1115.662599	0.045182
1115.821727	0.051823
1115.980838	0.048604
1116.139930	0.048421
1116.299004	0.051115
1116.458059	0.055194
1116.617097	0.057925
1116.776116	0.054858
1116.935117	0.059634
1117.094099	0.061234
1117.253064	0.061438
1117.412010	0.060298
1117.570938	0.062412
1117.729848	0.063650
1117.888740	0.060445
1118.047613	0.063084
1118.206468	0.066684
1118.365305	0.066982
1118.524124	0.065253
1118.682924	0.058241
1118.841707	0.058740
1119.000471	0.054482
1119.159216	0.049939
1119.317944	0.054071
1119.476653	0.045557
1119.635344	0.047286
1119.794017	0.045669
1119.952672	0.050325
1120.111308	0.054158
1120.269927	0.058813
1120.428527	0.060712
1120.587108	0.065558
1120.745672	0.061520
1120.904217	0.064893
1121.062744	0.061616
1121.221253	0.060572
1121.379744	0.058567
1121.538216	0.057888
1121.696671	0.052703
1121.855107	0.051390
1122.013524	0.049562
1122.171924	0.051117
1122.330305	0.055245
1122.488668	0.052008
1122.647013	0.051336
1122.805340	0.047367
1122.963648	0.045460
1123.121938	0.049371
1123.280210	0.047685
1123.438464	0.045958
1123.596700	0.044430
1123.754917	0.044491
1123.913116	0.047349
1124.071297	0.047052
1124.229459	0.050400
1124.387604	0.054065
1124.545730	0.046640
1124.703838	0.049152
1124.861928	0.052909
1125.019999	0.052440
1125.178052	0.049370
1125.336088	0.047612
1125.494104	0.051620
1125.652103	0.050351
1125.810083	0.047140
1125.968045	0.053119
1126.125989	0.054552
1126.283915	0.050783
1126.441823	0.050922
1126.599712	0.050240
1126.757583	0.055239
1126.915436	0.049122
1127.073270	0.047035
1127.231087	0.046993
1127.388885	0.044815
1127.546665	0.039231
1127.704426	0.037310
1127.862170	0.039390
1128.019895	0.040926
1128.177602	0.039826
1128.335291	0.044922
1128.492961	0.044516
1128.650614	0.043991
1128.808248	0.048444
1128.965864	0.048021
1129.123461	0.051316
1129.281041	0.049139
1129.438602	0.046137
1129.596145	0.045775
1129.753670	0.046316
1129.911176	0.048743
1130.068665	0.052793
1130.226135	0.048580
1130.383587	0.055127
1130.541020	0.056062
1130.698436	0.055625
1130.855833	0.056715
1131.013212	0.055263
1131.170573	0.052140
1131.327915	0.050225
1131.485239	0.050430
1131.642545	0.048561
1131.799833	0.050896
1131.957103	0.048216
1132.114354	0.044773
1132.271588	0.041783
1132.428803	0.041999
1132.585999	0.039603
1132.743178	0.042897
1132.900338	0.041729
1133.057480	0.046002
1133.214604	0.043009
1133.371710	0.045585
1133.528797	0.046401
1133.685866	0.048330
1133.842917	0.045302
1133.999950	0.044922
1134.156964	0.046460
1134.313960	0.044443
1134.470938	0.043950
1134.627898	0.044886
1134.784840	0.048211
1134.941763	0.051570
1135.098668	0.052401
1135.255555	0.058802
1135.412424	0.061181
1135.569274	0.057607
1135.726107	0.059702
1135.882921	0.057332
1136.039716	0.052644
1136.196494	0.044155
1136.353253	0.041837
1136.509995	0.033864
1136.666717	0.035620
1136.823422	0.039920
1136.980109	0.037219
1137.136777	0.035691
1137.293427	0.041299
1137.450059	0.041989
1137.606672	0.044934
1137.763267	0.047077
1137.919844	0.055322
1138.076403	0.051215
1138.232944	0.050752
1138.389466	0.057613
1138.545971	0.055865
1138.702457	0.053117
1138.858924	0.054308
1139.015374	0.051454
1139.171805	0.047811
1139.328218	0.049640
1139.484613	0.050084
1139.640990	0.044296
1139.797348	0.042387
1139.953688	0.044278
1140.110010	0.044932
1140.266314	0.047324
1140.422600	0.051772
1140.578867	0.056237
1140.735116	0.056233
1140.891347	0.051455
1141.047559	0.053901
1141.203754	0.053916
1141.359930	0.054451
1141.516088	0.053752
1141.672228	0.050223
1141.828349	0.047341
1141.984452	0.048957
1142.140537	0.048613
1142.296604	0.052929
1142.452653	0.053163
1142.608683	0.046350
1142.764695	0.045216
1142.920689	0.047506
1143.076665	0.049829
1143.232622	0.049617
1143.388562	0.048742
1143.544483	0.048428
1143.700385	0.049067
1143.856270	0.045877
1144.012136	0.050564
1144.167985	0.051242
1144.323814	0.049840
1144.479626	0.048331
1144.635420	0.056331
1144.791195	0.057632
1144.946952	0.055787
1145.102691	0.050341
1145.258411	0.051180
1145.414113	0.050490
1145.569798	0.054778
1145.725463	0.052373
1145.881111	0.052296
1146.036741	0.043520
1146.192352	0.042384
1146.347945	0.048188
1146.503519	0.046338
1146.659076	0.048917
1146.814614	0.047304
1146.970134	0.039843
1147.125636	0.040787
1147.281120	0.042561
1147.436585	0.051290
1147.592032	0.050923
1147.747461	0.041045
1147.902872	0.048013
1148.058265	0.046349
1148.213639	0.044108
1148.368995	0.043670
1148.524333	0.043415
1148.679653	0.038714
1148.834954	0.034037
1148.990237	0.032337
1149.145502	0.042122
1149.300749	0.036964
1149.455977	0.042104
1149.611188	0.046235
1149.766380	0.051300
1149.921553	0.046504
1150.076709	0.051384
1150.231846	0.051671
1150.386966	0.049374
1150.542066	0.040385
1150.697149	0.039660
1150.852214	0.036182
1151.007260	0.036611
1151.162288	0.034389
1151.317298	0.040899
1151.472289	0.035189
1151.627263	0.036462
1151.782218	0.035014
1151.937155	0.045521
1152.092073	0.049116
1152.246974	0.045918
1152.401856	0.051730
1152.556720	0.048095
1152.711566	0.040134
1152.866393	0.050665
1153.021203	0.054936
1153.175994	0.058397
1153.330767	0.054269
1153.485521	0.052127
1153.640258	0.051925
1153.794976	0.042024
1153.949676	0.041141
1154.104358	0.045609
1154.259021	0.040413
1154.413667	0.038219
1154.568294	0.033336
1154.722903	0.028699
1154.877493	0.026373
1155.032066	0.027065
1155.186620	0.033198
1155.341156	0.031352
1155.495674	0.031382
1155.650173	0.031844
1155.804654	0.024968
1155.959118	0.024279
1156.113562	0.029400
1156.267989	0.037405
1156.422397	0.044452
1156.576788	0.047152
1156.731160	0.056156
1156.885513	0.059053
1157.039849	0.056483
1157.194166	0.058635
1157.348465	0.066174
1157.502746	0.061241
1157.657009	0.057044
1157.811253	0.048830
1157.965479	0.045253
1158.119687	0.047207
1158.273877	0.044184
1158.428048	0.040090
1158.582201	0.043755
1158.736337	0.037425
1158.890453	0.035322
1159.044552	0.035442
1159.198632	0.036455
1159.352694	0.029170
1159.506738	0.022784
1159.660764	0.029433
1159.814771	0.030008
1159.968761	0.024149
1160.122732	0.028368
1160.276685	0.031672
1160.430619	0.028106
1160.584535	0.026913
1160.738434	0.035715
1160.892313	0.038536
1161.046175	0.031534
1161.200019	0.033441
1161.353844	0.044847
1161.507651	0.036864
1161.661440	0.040185
1161.815210	0.036668
1161.968962	0.034623
1162.122697	0.028796
1162.276412	0.024375
1162.430110	0.025020
1162.583789	0.027650
1162.737451	0.016386
1162.891094	0.024957
1163.044718	0.026898
1163.198325	0.030418
1163.351913	0.035128
1163.505483	0.032524
1163.659035	0.035142
1163.812569	0.029882
1163.966084	0.026885
1164.119581	0.030320
1164.273060	0.028461
1164.426521	0.026884
1164.579964	0.025270
1164.733388	0.024001
1164.886794	0.024475
1165.040182	0.026563
1165.193551	0.029325
1165.346903	0.026479
1165.500236	0.025380
1165.653551	0.027929
1165.806848	0.026791
1165.960126	0.024778
1166.113386	0.019462
1166.266628	0.027396
1166.419852	0.019005
1166.573058	0.019569
1166.726245	0.025122
1166.879414	0.014116
1167.032565	0.017100
1167.185698	0.009475
1167.338812	0.015140
1167.491909	0.033445
1167.644987	0.030407
1167.798046	0.034203
1167.951088	0.036475
1168.104111	0.025519
1168.257117	0.029886
1168.410103	0.030544
1168.563072	0.043535
1168.716023	0.052761
1168.868955	0.041031
1169.021869	0.036039
1169.174765	0.037201
1169.327642	0.037116
1169.480501	0.050945
1169.633343	0.055694
1169.786165	0.046730
1169.938970	0.036913
1170.091757	0.019420
1170.244525	0.018989
1170.397275	0.015792
1170.550007	0.013667
1170.702720	0.003178
1170.855415	0.000797
1171.008092	-0.008249
1171.160751	-0.016919
1171.313392	-0.027323
1171.466014	0.048561
1171.618619	-0.065794
1171.771205	-0.065794
1171.923772	-0.065794
