sample name	sample
index	894
start time	 04-08-2021  03:11:02 PM


Wavelength (nm)	Absorbance
494.344910	-0.102907
494.563924	-0.102907
494.782919	-0.102907
495.001897	NaN
495.220856	NaN
495.439797	NaN
495.658719	2.262451
495.877624	0.297095
496.096510	-0.223455
496.315378	-0.319944
496.534227	-0.264913
496.753059	-0.298212
496.971872	-0.208523
497.190667	0.151118
497.409444	0.160645
497.628203	0.164221
497.846943	0.163844
498.065665	0.164177
498.284369	0.162437
498.503055	0.162105
498.721723	0.161736
498.940372	0.161509
499.159003	0.161073
499.377616	0.159914
499.596210	0.160041
499.814787	0.160214
500.033345	0.159720
500.251885	0.160483
500.470406	0.160796
500.688910	0.160883
500.907395	0.160388
501.125862	0.160282
501.344311	0.161710
501.562742	0.162521
501.781154	0.162221
501.999548	0.162683
502.217924	0.162683
502.436282	0.162491
502.654621	0.163124
502.872942	0.163000
503.091245	0.163813
503.309530	0.163618
503.527797	0.161976
503.746045	0.162674
503.964275	0.162056
504.182487	0.162225
504.400681	0.163367
504.618856	0.162326
504.837013	0.163469
505.055152	0.163158
505.273273	0.162728
505.491376	0.164316
505.709460	0.163497
505.927526	0.164323
506.145574	0.164396
506.363604	0.164802
506.581615	0.164780
506.799608	0.163919
507.017583	0.165158
507.235540	0.165017
507.453478	0.164757
507.671399	0.165691
507.889301	0.164679
508.107185	0.164479
508.325050	0.163267
508.542898	0.163268
508.760727	0.164233
508.978538	0.162448
509.196330	0.162899
509.414105	0.162498
509.631861	0.162603
509.849599	0.163654
510.067319	0.164217
510.285021	0.164732
510.502704	0.164597
510.720369	0.165665
510.938016	0.167036
511.155645	0.167745
511.373255	0.167818
511.590848	0.167682
511.808422	0.167692
512.025977	0.167716
512.243515	0.167787
512.461034	0.168177
512.678536	0.166503
512.896018	0.167228
513.113483	0.166661
513.330930	0.165720
513.548358	0.166073
513.765768	0.166714
513.983160	0.167424
514.200533	0.167235
514.417889	0.168276
514.635226	0.169043
514.852545	0.169611
515.069845	0.169814
515.287128	0.171509
515.504392	0.171359
515.721638	0.171396
515.938866	0.171872
516.156075	0.173017
516.373267	0.171952
516.590440	0.172399
516.807594	0.172207
517.024731	0.172363
517.241850	0.172562
517.458950	0.173488
517.676032	0.173661
517.893095	0.172969
518.110141	0.173069
518.327168	0.173818
518.544177	0.173813
518.761168	0.173411
518.978141	0.173599
519.195095	0.174344
519.412031	0.174357
519.628949	0.174707
519.845849	0.175673
520.062731	0.175821
520.279594	0.176337
520.496439	0.177501
520.713266	0.177736
520.930074	0.178007
521.146865	0.177549
521.363637	0.177401
521.580391	0.177108
521.797127	0.176920
522.013844	0.177390
522.230543	0.177088
522.447224	0.176888
522.663887	0.177641
522.880532	0.178621
523.097158	0.178755
523.313766	0.179002
523.530356	0.179399
523.746928	0.179828
523.963481	0.179972
524.180017	0.180715
524.396534	0.180912
524.613032	0.181017
524.829513	0.180870
525.045975	0.180707
525.262420	0.180995
525.478845	0.181470
525.695253	0.181439
525.911643	0.182041
526.128014	0.182244
526.344367	0.182737
526.560702	0.182696
526.777018	0.184034
526.993316	0.184506
527.209597	0.185153
527.425858	0.185484
527.642102	0.186121
527.858328	0.186693
528.074535	0.187358
528.290724	0.187265
528.506894	0.187736
528.723047	0.187096
528.939181	0.187686
529.155297	0.187822
529.371395	0.188407
529.587475	0.188963
529.803536	0.188509
530.019579	0.188835
530.235604	0.188775
530.451611	0.189026
530.667600	0.189447
530.883570	0.189504
531.099522	0.189771
531.315456	0.189870
531.531372	0.189696
531.747269	0.189372
531.963148	0.189337
532.179009	0.190119
532.394852	0.190270
532.610676	0.189850
532.826482	0.190387
533.042271	0.191370
533.258040	0.191449
533.473792	0.191356
533.689525	0.193039
533.905240	0.193842
534.120937	0.193982
534.336616	0.193741
534.552277	0.194636
534.767919	0.195386
534.983543	0.195177
535.199149	0.195868
535.414736	0.196092
535.630306	0.195984
535.845857	0.195841
536.061390	0.196375
536.276904	0.197200
536.492401	0.197160
536.707879	0.197136
536.923339	0.197870
537.138781	0.197668
537.354204	0.198087
537.569610	0.198102
537.784997	0.198670
538.000366	0.199140
538.215716	0.199334
538.431049	0.200018
538.646363	0.200657
538.861659	0.200532
539.076937	0.200966
539.292196	0.202179
539.507438	0.202712
539.722661	0.202653
539.937866	0.203005
540.153052	0.202857
540.368221	0.203196
540.583371	0.203112
540.798503	0.203298
541.013617	0.203792
541.228712	0.202831
541.443789	0.202925
541.658848	0.203225
541.873889	0.203066
542.088912	0.203690
542.303916	0.203489
542.518902	0.204078
542.733870	0.204172
542.948820	0.204922
543.163752	0.205823
543.378665	0.206146
543.593560	0.206842
543.808437	0.207237
544.023295	0.207675
544.238136	0.208581
544.452958	0.208876
544.667762	0.209225
544.882548	0.208961
545.097315	0.209321
545.312064	0.209187
545.526795	0.209481
545.741508	0.209906
545.956203	0.210118
546.170879	0.209720
546.385537	0.209754
546.600177	0.210455
546.814799	0.210621
547.029402	0.211134
547.243988	0.211654
547.458555	0.211488
547.673103	0.211638
547.887634	0.211722
548.102146	0.212398
548.316640	0.212530
548.531116	0.212800
548.745574	0.212971
548.960013	0.213160
549.174435	0.213897
549.388838	0.214482
549.603222	0.214968
549.817589	0.215672
550.031937	0.216054
550.246267	0.216407
550.460579	0.216672
550.674873	0.216672
550.889148	0.216456
551.103405	0.215737
551.317644	0.215881
551.531865	0.215517
551.746068	0.215665
551.960252	0.216017
552.174418	0.216301
552.388566	0.216549
552.602696	0.217505
552.816807	0.217980
553.030900	0.218687
553.244975	0.219059
553.459032	0.219666
553.673070	0.219584
553.887091	0.219272
554.101093	0.219183
554.315077	0.219327
554.529042	0.219386
554.742990	0.219587
554.956919	0.219712
555.170830	0.219749
555.384722	0.219770
555.598597	0.220239
555.812453	0.220620
556.026291	0.220583
556.240111	0.220535
556.453913	0.220455
556.667696	0.220567
556.881461	0.220582
557.095208	0.220789
557.308937	0.220845
557.522647	0.221022
557.736339	0.221211
557.950013	0.221767
558.163669	0.221896
558.377307	0.222009
558.590926	0.222051
558.804527	0.222763
559.018110	0.222961
559.231675	0.223545
559.445221	0.223584
559.658749	0.223420
559.872259	0.224223
560.085751	0.224722
560.299225	0.225276
560.512680	0.225623
560.726117	0.225763
560.939536	0.225719
561.152937	0.225779
561.366319	0.225631
561.579683	0.226434
561.793029	0.225801
562.006357	0.225741
562.219667	0.225793
562.432958	0.225994
562.646231	0.225724
562.859486	0.225908
563.072723	0.226095
563.285941	0.226533
563.499141	0.226760
563.712323	0.226827
563.925487	0.226905
564.138632	0.226709
564.351760	0.227085
564.564869	0.227596
564.777960	0.228062
564.991032	0.228186
565.204087	0.228652
565.417123	0.228480
565.630141	0.228840
565.843140	0.229351
566.056122	0.230051
566.269085	0.229965
566.482030	0.229945
566.694957	0.229914
566.907866	0.230121
567.120756	0.230038
567.333628	0.230363
567.546482	0.230586
567.759318	0.230352
567.972135	0.230502
568.184935	0.231090
568.397716	0.230927
568.610478	0.230989
568.823223	0.231117
569.035949	0.231318
569.248657	0.231292
569.461347	0.231918
569.674019	0.232358
569.886672	0.232092
570.099308	0.231734
570.311925	0.232574
570.524523	0.232684
570.737104	0.232699
570.949666	0.232515
571.162210	0.232764
571.374736	0.232550
571.587244	0.232821
571.799733	0.232900
572.012205	0.233151
572.224658	0.233048
572.437092	0.233177
572.649509	0.233228
572.861907	0.233871
573.074287	0.234333
573.286649	0.234374
573.498993	0.234282
573.711318	0.234584
573.923625	0.234747
574.135914	0.234891
574.348185	0.235337
574.560438	0.235124
574.772672	0.235273
574.984888	0.235447
575.197086	0.235579
575.409266	0.235460
575.621427	0.235531
575.833570	0.235394
576.045695	0.235930
576.257802	0.235753
576.469890	0.236477
576.681961	0.236842
576.894013	0.236528
577.106046	0.236478
577.318062	0.237178
577.530059	0.237965
577.742039	0.238592
577.954000	0.238419
578.165942	0.239045
578.377867	0.239091
578.589773	0.238884
578.801661	0.239364
579.013531	0.239688
579.225382	0.239726
579.437216	0.239586
579.649031	0.239873
579.860828	0.240280
580.072606	0.240172
580.284367	0.240184
580.496109	0.240279
580.707833	0.240098
580.919539	0.240437
581.131227	0.240150
581.342896	0.240134
581.554547	0.239979
581.766180	0.239721
581.977795	0.240009
582.189391	0.240450
582.400969	0.240531
582.612529	0.240978
582.824071	0.241289
583.035595	0.241437
583.247100	0.241810
583.458587	0.242156
583.670056	0.242653
583.881506	0.242617
584.092939	0.243087
584.304353	0.243614
584.515749	0.243726
584.727127	0.243718
584.938486	0.243963
585.149828	0.243877
585.361151	0.244104
585.572456	0.243670
585.783742	0.244000
585.995011	0.243777
586.206261	0.243792
586.417493	0.243692
586.628706	0.243710
586.839902	0.243927
587.051079	0.244004
587.262238	0.244234
587.473379	0.244901
587.684502	0.244743
587.895606	0.244911
588.106692	0.245172
588.317760	0.245359
588.528810	0.245600
588.739841	0.246217
588.950855	0.246465
589.161850	0.245875
589.372827	0.245781
589.583785	0.246162
589.794726	0.246204
590.005648	0.246312
590.216552	0.246167
590.427437	0.246349
590.638305	0.246364
590.849154	0.246395
591.059985	0.246780
591.270798	0.247166
591.481592	0.247629
591.692369	0.248082
591.903127	0.248354
592.113867	0.248715
592.324588	0.249209
592.535292	0.249395
592.745977	0.249824
592.956644	0.250101
593.167293	0.250082
593.377923	0.250009
593.588536	0.249793
593.799130	0.249499
594.009706	0.249702
594.220263	0.249785
594.430803	0.249731
594.641324	0.249674
594.851827	0.250039
595.062312	0.250546
595.272778	0.250584
595.483227	0.251083
595.693657	0.251228
595.904069	0.251332
596.114462	0.251435
596.324838	0.251523
596.535195	0.251788
596.745534	0.251767
596.955855	0.251627
597.166157	0.252250
597.376441	0.252076
597.586707	0.252230
597.796955	0.252273
598.007185	0.252367
598.217396	0.252595
598.427589	0.252816
598.637764	0.253286
598.847921	0.253415
599.058060	0.253496
599.268180	0.253778
599.478282	0.253804
599.688366	0.254122
599.898431	0.254056
600.108479	0.253994
600.318508	0.254304
600.528519	0.253968
600.738511	0.254106
600.948486	0.253267
601.158442	0.253553
601.368380	0.253983
601.578300	0.254046
601.788202	0.254072
601.998085	0.254310
602.207950	0.254018
602.417797	0.254500
602.627626	0.254537
602.837436	0.255315
603.047228	0.255487
603.257002	0.255643
603.466758	0.255917
603.676496	0.256289
603.886215	0.256401
604.095916	0.256691
604.305599	0.256662
604.515264	0.256905
604.724910	0.256693
604.934538	0.256427
605.144148	0.256076
605.353740	0.256019
605.563314	0.256046
605.772869	0.256270
605.982406	0.256218
606.191925	0.256471
606.401425	0.256581
606.610908	0.256779
606.820372	0.256716
607.029818	0.257276
607.239246	0.257369
607.448655	0.257412
607.658047	0.257525
607.867420	0.257663
608.076775	0.257913
608.286111	0.257834
608.495430	0.258141
608.704730	0.259008
608.914012	0.259300
609.123275	0.259792
609.332521	0.260097
609.541748	0.260296
609.750957	0.260620
609.960148	0.260175
610.169321	0.260334
610.378475	0.260408
610.587611	0.260217
610.796729	0.259997
611.005829	0.259833
611.214910	0.259799
611.423974	0.259804
611.633019	0.259945
611.842045	0.260171
612.051054	0.260419
612.260044	0.260781
612.469017	0.261089
612.677970	0.261619
612.886906	0.261863
613.095824	0.262036
613.304723	0.262169
613.513604	0.262464
613.722467	0.262986
613.931311	0.262839
614.140138	0.262701
614.348946	0.262585
614.557736	0.262531
614.766507	0.262624
614.975261	0.262592
615.183996	0.262712
615.392713	0.262468
615.601412	0.262315
615.810092	0.262710
616.018754	0.262727
616.227399	0.262699
616.436024	0.262852
616.644632	0.262902
616.853222	0.263228
617.061793	0.263479
617.270346	0.264010
617.478880	0.263958
617.687397	0.264236
617.895895	0.264187
618.104375	0.264645
618.312837	0.264585
618.521281	0.264616
618.729706	0.264676
618.938113	0.264521
619.146502	0.264324
619.354873	0.264673
619.563226	0.264630
619.771560	0.265180
619.979876	0.265209
620.188174	0.265277
620.396453	0.265338
620.604715	0.265456
620.812958	0.265573
621.021183	0.265920
621.229390	0.266024
621.437578	0.266002
621.645748	0.265583
621.853900	0.265709
622.062034	0.266000
622.270150	0.266424
622.478247	0.266791
622.686326	0.267037
622.894387	0.266991
623.102430	0.267205
623.310454	0.267526
623.518461	0.268093
623.726449	0.268097
623.934418	0.268091
624.142370	0.268103
624.350303	0.268094
624.558218	0.268286
624.766115	0.268230
624.973994	0.268585
625.181855	0.268807
625.389697	0.269009
625.597521	0.269407
625.805327	0.269731
626.013114	0.269609
626.220883	0.269535
626.428634	0.269717
626.636367	0.270091
626.844082	0.269725
627.051778	0.269837
627.259457	0.269804
627.467117	0.269915
627.674758	0.269622
627.882382	0.269970
628.089987	0.270056
628.297574	0.270373
628.505143	0.270428
628.712694	0.270896
628.920226	0.270651
629.127740	0.271082
629.335236	0.271139
629.542714	0.271319
629.750174	0.271582
629.957615	0.272167
630.165038	0.272115
630.372443	0.272054
630.579829	0.272064
630.787198	0.272651
630.994548	0.272758
631.201880	0.272681
631.409194	0.273150
631.616489	0.273235
631.823766	0.273347
632.031025	0.273173
632.238266	0.273461
632.445489	0.273889
632.652693	0.273646
632.859879	0.273710
633.067047	0.273877
633.274197	0.273919
633.481329	0.274210
633.688442	0.274108
633.895537	0.274478
634.102614	0.274820
634.309672	0.274615
634.516713	0.274898
634.723735	0.275304
634.930739	0.275547
635.137724	0.275689
635.344692	0.276035
635.551641	0.276317
635.758572	0.276475
635.965485	0.276545
636.172379	0.276762
636.379256	0.277045
636.586114	0.277106
636.792954	0.277276
636.999775	0.277746
637.206579	0.277596
637.413364	0.277716
637.620131	0.277657
637.826880	0.277845
638.033610	0.277894
638.240323	0.277861
638.447017	0.277784
638.653692	0.278060
638.860350	0.278085
639.066990	0.278263
639.273611	0.278457
639.480214	0.279126
639.686798	0.279387
639.893365	0.279690
640.099913	0.280011
640.306443	0.280226
640.512955	0.280171
640.719449	0.280117
640.925924	0.280293
641.132381	0.280477
641.338820	0.280446
641.545241	0.280429
641.751644	0.280609
641.958028	0.280830
642.164394	0.280923
642.370742	0.281327
642.577071	0.281608
642.783383	0.281786
642.989676	0.281821
643.195951	0.281811
643.402207	0.281955
643.608446	0.281930
643.814666	0.281895
644.020868	0.282117
644.227052	0.282150
644.433218	0.282209
644.639365	0.282227
644.845494	0.282523
645.051605	0.282733
645.257698	0.282780
645.463772	0.283061
645.669828	0.282958
645.875866	0.283274
646.081886	0.283448
646.287888	0.283503
646.493871	0.283615
646.699836	0.283839
646.905783	0.284012
647.111712	0.284488
647.317622	0.284866
647.523514	0.285492
647.729388	0.285527
647.935244	0.285879
648.141082	0.286283
648.346901	0.286724
648.552702	0.287027
648.758485	0.287284
648.964250	0.287208
649.169996	0.287416
649.375724	0.287777
649.581434	0.287891
649.787126	0.288028
649.992800	0.288415
650.198455	0.288573
650.404092	0.288529
650.609711	0.288402
650.815311	0.288729
651.020894	0.288650
651.226458	0.288648
651.432004	0.288793
651.637532	0.288994
651.843041	0.288875
652.048532	0.288854
652.254006	0.288843
652.459460	0.289357
652.664897	0.289551
652.870315	0.289646
653.075716	0.289676
653.281097	0.290029
653.486461	0.290016
653.691807	0.290178
653.897134	0.290540
654.102443	0.290797
654.307734	0.290885
654.513006	0.290939
654.718261	0.291317
654.923497	0.291608
655.128715	0.291546
655.333915	0.291751
655.539096	0.292236
655.744259	0.292324
655.949404	0.292802
656.154531	0.293195
656.359640	0.293470
656.564730	0.293674
656.769802	0.293814
656.974856	0.294089
657.179892	0.294646
657.384909	0.294731
657.589908	0.294972
657.794889	0.294905
657.999852	0.295367
658.204797	0.295629
658.409723	0.295870
658.614631	0.296062
658.819521	0.296365
659.024393	0.296385
659.229246	0.296535
659.434081	0.296801
659.638898	0.297228
659.843697	0.296999
660.048478	0.297207
660.253240	0.297402
660.457984	0.297536
660.662710	0.297693
660.867417	0.297877
661.072107	0.298015
661.276778	0.298084
661.481431	0.298230
661.686066	0.298489
661.890682	0.298736
662.095281	0.298908
662.299861	0.299494
662.504422	0.299790
662.708966	0.299837
662.913491	0.300170
663.117999	0.300596
663.322488	0.300866
663.526958	0.301267
663.731411	0.301424
663.935845	0.301786
664.140261	0.301780
664.344659	0.301800
664.549038	0.302038
664.753400	0.302168
664.957743	0.302418
665.162068	0.302480
665.366375	0.302528
665.570663	0.302659
665.774933	0.302759
665.979185	0.303179
666.183419	0.303682
666.387635	0.303764
666.591832	0.303951
666.796011	0.303997
667.000172	0.304170
667.204315	0.304207
667.408439	0.304455
667.612545	0.304604
667.816634	0.304619
668.020703	0.304758
668.224755	0.305063
668.428788	0.305154
668.632803	0.305301
668.836800	0.305544
669.040779	0.305830
669.244739	0.305925
669.448681	0.306080
669.652605	0.306287
669.856511	0.306552
670.060399	0.306913
670.264268	0.307326
670.468119	0.307599
670.671952	0.307744
670.875767	0.307942
671.079563	0.308402
671.283341	0.308780
671.487101	0.309172
671.690843	0.309551
671.894567	0.309877
672.098272	0.310205
672.301959	0.310600
672.505628	0.311022
672.709278	0.311416
672.912911	0.311481
673.116525	0.311580
673.320121	0.311526
673.523699	0.311619
673.727258	0.311706
673.930799	0.311644
674.134322	0.311662
674.337827	0.311748
674.541314	0.312042
674.744782	0.312207
674.948232	0.312497
675.151664	0.312698
675.355078	0.312778
675.558474	0.312940
675.761851	0.313417
675.965210	0.313533
676.168551	0.313820
676.371873	0.314029
676.575178	0.314442
676.778464	0.314474
676.981732	0.314752
677.184981	0.315078
677.388213	0.315184
677.591426	0.315295
677.794621	0.315638
677.997798	0.315717
678.200956	0.315428
678.404097	0.315751
678.607219	0.316090
678.810323	0.316054
679.013408	0.316148
679.216476	0.316466
679.419525	0.316640
679.622556	0.317007
679.825569	0.317330
680.028563	0.317691
680.231540	0.317822
680.434498	0.318137
680.637438	0.318689
680.840359	0.318936
681.043263	0.319109
681.246148	0.319375
681.449015	0.319357
681.651864	0.319555
681.854694	0.320038
682.057506	0.319921
682.260301	0.319985
682.463076	0.320290
682.665834	0.320259
682.868573	0.320641
683.071295	0.320639
683.273998	0.321012
683.476682	0.321104
683.679349	0.321175
683.881997	0.321550
684.084627	0.321742
684.287239	0.321695
684.489833	0.322122
684.692408	0.322160
684.894965	0.322090
685.097504	0.322246
685.300025	0.322343
685.502527	0.322335
685.705012	0.322531
685.907478	0.322884
686.109925	0.322957
686.312355	0.323105
686.514766	0.323505
686.717159	0.324178
686.919534	0.324467
687.121891	0.324856
687.324230	0.325281
687.526550	0.325511
687.728852	0.325580
687.931136	0.325999
688.133401	0.326211
688.335649	0.326300
688.537878	0.326576
688.740089	0.326697
688.942281	0.326907
689.144456	0.327138
689.346612	0.327308
689.548750	0.327349
689.750870	0.327716
689.952971	0.328024
690.155055	0.328180
690.357120	0.328178
690.559167	0.328358
690.761195	0.328700
690.963206	0.328929
691.165198	0.329135
691.367172	0.329282
691.569128	0.329281
691.771065	0.329270
691.972984	0.329062
692.174885	0.329101
692.376768	0.329315
692.578633	0.329203
692.780479	0.329237
692.982308	0.329363
693.184118	0.329807
693.385909	0.329770
693.587683	0.329907
693.789438	0.330353
693.991175	0.330447
694.192894	0.330413
694.394595	0.330506
694.596277	0.330571
694.797941	0.330705
694.999587	0.330886
695.201215	0.331079
695.402824	0.331131
695.604416	0.331324
695.805989	0.331691
696.007543	0.331848
696.209080	0.332191
696.410598	0.332539
696.612099	0.332824
696.813580	0.332827
697.015044	0.333014
697.216490	0.333321
697.417917	0.333406
697.619326	0.333580
697.820717	0.333716
698.022089	0.333937
698.223444	0.334030
698.424780	0.334101
698.626098	0.334379
698.827397	0.334697
699.028679	0.334490
699.229942	0.334605
699.431187	0.334468
699.632414	0.334740
699.833622	0.334741
700.034813	0.335011
700.235985	0.335063
700.437139	0.335077
700.638274	0.335068
700.839392	0.335491
701.040491	0.335558
701.241572	0.336141
701.442635	0.336233
701.643679	0.336552
701.844706	0.336551
702.045714	0.336749
702.246704	0.336961
702.447675	0.337091
702.648629	0.337098
702.849564	0.337251
703.050481	0.337040
703.251380	0.336792
703.452260	0.336821
703.653122	0.336948
703.853966	0.336864
704.054792	0.336856
704.255600	0.336769
704.456389	0.337100
704.657160	0.337319
704.857913	0.337219
705.058648	0.337723
705.259365	0.337557
705.460063	0.337551
705.660743	0.337956
705.861405	0.337917
706.062048	0.338140
706.262674	0.337994
706.463281	0.337774
706.663870	0.337764
706.864441	0.337421
707.064993	0.337750
707.265527	0.337834
707.466043	0.337668
707.666541	0.337583
707.867021	0.337591
708.067482	0.337948
708.267925	0.338305
708.468350	0.338707
708.668757	0.338849
708.869145	0.338536
709.069516	0.338580
709.269868	0.338544
709.470201	0.338672
709.670517	0.338643
709.870814	0.338328
710.071093	0.338319
710.271354	0.338255
710.471597	0.338298
710.671821	0.338248
710.872028	0.338229
711.072216	0.338245
711.272385	0.338212
711.472537	0.338324
711.672670	0.338322
711.872785	0.338003
712.072882	0.337770
712.272961	0.337564
712.473021	0.337653
712.673063	0.337580
712.873087	0.337472
713.073093	0.337432
713.273081	0.337189
713.473050	0.337190
713.673001	0.337310
713.872934	0.337325
714.072849	0.337648
714.272745	0.337659
714.472623	0.337459
714.672483	0.337731
714.872325	0.337711
715.072148	0.337833
715.271954	0.337786
715.471741	0.337599
715.671509	0.337746
715.871260	0.337748
716.070992	0.337646
716.270707	0.337753
716.470403	0.337490
716.670080	0.337423
716.869740	0.337446
717.069381	0.337476
717.269004	0.337568
717.468609	0.337487
717.668195	0.337210
717.867764	0.337300
718.067314	0.337028
718.266846	0.336844
718.466360	0.336493
718.665855	0.336427
718.865332	0.336132
719.064791	0.335867
719.264232	0.335728
719.463655	0.335645
719.663059	0.335477
719.862445	0.335410
720.061813	0.335370
720.261163	0.335666
720.460494	0.335439
720.659807	0.335458
720.859102	0.335538
721.058379	0.335434
721.257638	0.335100
721.456878	0.335090
721.656100	0.335044
721.855304	0.334915
722.054490	0.335213
722.253657	0.335107
722.452806	0.335009
722.651937	0.334943
722.851050	0.334849
723.050145	0.334981
723.249221	0.334895
723.448279	0.334678
723.647319	0.334575
723.846340	0.333964
724.045344	0.333843
724.244329	0.333682
724.443296	0.333370
724.642245	0.333452
724.841175	0.333418
725.040088	0.333280
725.238982	0.333352
725.437857	0.333256
725.636715	0.333168
725.835554	0.333161
726.034376	0.333179
726.233179	0.333167
726.431963	0.333062
726.630730	0.332990
726.829478	0.332671
727.028208	0.332618
727.226920	0.332506
727.425614	0.332354
727.624289	0.332043
727.822946	0.332163
728.021585	0.332290
728.220206	0.331901
728.418808	0.331635
728.617392	0.331728
728.815958	0.331455
729.014506	0.331171
729.213036	0.330917
729.411547	0.330888
729.610040	0.330496
729.808515	0.330261
730.006972	0.330280
730.205410	0.330145
730.403831	0.329908
730.602233	0.329991
730.800616	0.330106
730.998982	0.330267
731.197329	0.330254
731.395658	0.330130
731.593969	0.329943
731.792262	0.329445
731.990536	0.329270
732.188793	0.329157
732.387031	0.328861
732.585250	0.328522
732.783452	0.328310
732.981635	0.327892
733.179800	0.327641
733.377947	0.327377
733.576076	0.327426
733.774186	0.327320
733.972278	0.326933
734.170352	0.326805
734.368408	0.326496
734.566446	0.326309
734.764465	0.326442
734.962466	0.326406
735.160449	0.326136
735.358413	0.326129
735.556360	0.325787
735.754288	0.325556
735.952198	0.325526
736.150090	0.325401
736.347963	0.325206
736.545818	0.324743
736.743655	0.324644
736.941474	0.324763
737.139275	0.324665
737.337057	0.324425
737.534821	0.324225
737.732567	0.323615
737.930295	0.323389
738.128005	0.322957
738.325696	0.323013
738.523369	0.322610
738.721024	0.322325
738.918660	0.321819
739.116279	0.321856
739.313879	0.321564
739.511461	0.321409
739.709024	0.321194
739.906570	0.321249
740.104097	0.320625
740.301606	0.320326
740.499097	0.319827
740.696569	0.319715
740.894024	0.319595
741.091460	0.319360
741.288878	0.319373
741.486277	0.319204
741.683659	0.319084
741.881022	0.319047
742.078367	0.318774
742.275694	0.318621
742.473002	0.318544
742.670293	0.318072
742.867565	0.318393
743.064819	0.317785
743.262054	0.317822
743.459272	0.317499
743.656471	0.317423
743.853652	0.317341
744.050815	0.317369
744.247959	0.317077
744.445085	0.316825
744.642194	0.316483
744.839283	0.316545
745.036355	0.316139
745.233408	0.315791
745.430444	0.315460
745.627461	0.315311
745.824459	0.314725
746.021440	0.314539
746.218402	0.314184
746.415346	0.313809
746.612272	0.313759
746.809180	0.313689
747.006069	0.313407
747.202940	0.313276
747.399793	0.312978
747.596628	0.313132
747.793444	0.312832
747.990243	0.312769
748.187023	0.312749
748.383784	0.312424
748.580528	0.312154
748.777253	0.312218
748.973960	0.311669
749.170649	0.311207
749.367320	0.310656
749.563973	0.310387
749.760607	0.310516
749.957223	0.310163
750.153821	0.309913
750.350400	0.309638
750.546962	0.309619
750.743505	0.309616
750.940030	0.309362
751.136536	0.309386
751.333025	0.309353
751.529495	0.308655
751.725947	0.308566
751.922381	0.308368
752.118796	0.308282
752.315194	0.307705
752.511573	0.307473
752.707934	0.307357
752.904276	0.307026
753.100601	0.306774
753.296907	0.306787
753.493195	0.306566
753.689465	0.306170
753.885716	0.305970
754.081949	0.305917
754.278164	0.306071
754.474361	0.306128
754.670540	0.305790
754.866700	0.305549
755.062843	0.305555
755.258967	0.305242
755.455072	0.305406
755.651160	0.304867
755.847229	0.304648
756.043280	0.303978
756.239313	0.303752
756.435328	0.303935
756.631324	0.303727
756.827302	0.303313
757.023262	0.303101
757.219204	0.302798
757.415127	0.302807
757.611033	0.302516
757.806920	0.302352
758.002788	0.302040
758.198639	0.301848
758.394471	0.301811
758.590286	0.301665
758.786081	0.301622
758.981859	0.301478
759.177619	0.301313
759.373360	0.301122
759.569083	0.301214
759.764788	0.301022
759.960474	0.300842
760.156143	0.300667
760.351793	0.300725
760.547425	0.300604
760.743038	0.300456
760.938634	0.300221
761.134211	0.299990
761.329770	0.299792
761.525311	0.299597
761.720833	0.299616
761.916338	0.299262
762.111824	0.299062
762.307292	0.298844
762.502741	0.298616
762.698173	0.298787
762.893586	0.298680
763.088981	0.298349
763.284358	0.298127
763.479716	0.297746
763.675057	0.297734
763.870379	0.297547
764.065683	0.297328
764.260968	0.297033
764.456236	0.296781
764.651485	0.296680
764.846716	0.296872
765.041929	0.297110
765.237123	0.297119
765.432299	0.296830
765.627457	0.296363
765.822597	0.296090
766.017719	0.296014
766.212822	0.295999
766.407907	0.295925
766.602974	0.295738
766.798023	0.295561
766.993054	0.295048
767.188066	0.295075
767.383060	0.295360
767.578036	0.295245
767.772993	0.295320
767.967933	0.295040
768.162854	0.294734
768.357757	0.294518
768.552642	0.294542
768.747508	0.294678
768.942356	0.294322
769.137186	0.294233
769.331998	0.294168
769.526792	0.293801
769.721567	0.293671
769.916324	0.293812
770.111063	0.293803
770.305784	0.293592
770.500486	0.293307
770.695171	0.293341
770.889837	0.293176
771.084484	0.293056
771.279114	0.293111
771.473725	0.292989
771.668318	0.292811
771.862893	0.292465
772.057450	0.292300
772.251988	0.292205
772.446509	0.292361
772.641011	0.292387
772.835494	0.292722
773.029960	0.292732
773.224407	0.292857
773.418836	0.292988
773.613247	0.292994
773.807640	0.292890
774.002014	0.293175
774.196370	0.293114
774.390708	0.292876
774.585028	0.292487
774.779330	0.292591
774.973613	0.292547
775.167878	0.292412
775.362125	0.292395
775.556354	0.292506
775.750564	0.292508
775.944756	0.292277
776.138930	0.292491
776.333086	0.292638
776.527223	0.292298
776.721343	0.292195
776.915444	0.292275
777.109526	0.292385
777.303591	0.292453
777.497637	0.292281
777.691666	0.292423
777.885676	0.292482
778.079667	0.292444
778.273641	0.292701
778.467596	0.292826
778.661533	0.292526
778.855452	0.292630
779.049352	0.292312
779.243235	0.292592
779.437099	0.292491
779.630945	0.292102
779.824773	0.292202
780.018582	0.292066
780.212373	0.292209
780.406146	0.292539
780.599901	0.292395
780.793638	0.292361
780.987356	0.291971
781.181056	0.291851
781.374738	0.292088
781.568402	0.291857
781.762047	0.292178
781.955674	0.292158
782.149283	0.292148
782.342874	0.292420
782.536447	0.292590
782.730001	0.292969
782.923537	0.293359
783.117055	0.293138
783.310555	0.293461
783.504036	0.293531
783.697499	0.293333
783.890944	0.293350
784.084371	0.293427
784.277780	0.293565
784.471170	0.293282
784.664542	0.293181
784.857896	0.293611
785.051231	0.293600
785.244549	0.293226
785.437848	0.293211
785.631129	0.293246
785.824392	0.293013
786.017636	0.292871
786.210863	0.293337
786.404071	0.293512
786.597260	0.293464
786.790432	0.293573
786.983585	0.293848
787.176721	0.293864
787.369838	0.293979
787.562936	0.293996
787.756017	0.294116
787.949079	0.294106
788.142123	0.294185
788.335149	0.294223
788.528156	0.294256
788.721146	0.294292
788.914117	0.294494
789.107070	0.294667
789.300005	0.295078
789.492921	0.295278
789.685819	0.295286
789.878699	0.295263
790.071561	0.295087
790.264405	0.295098
790.457230	0.295303
790.650037	0.295672
790.842826	0.295791
791.035597	0.295815
791.228349	0.296004
791.421084	0.296177
791.613800	0.296519
791.806497	0.296899
791.999177	0.297304
792.191838	0.297583
792.384481	0.297684
792.577106	0.297627
792.769713	0.297812
792.962301	0.297837
793.154871	0.297939
793.347423	0.297859
793.539957	0.297871
793.732473	0.297841
793.924970	0.297727
794.117449	0.297648
794.309910	0.297979
794.502353	0.297943
794.694777	0.298094
794.887183	0.298262
795.079571	0.298578
795.271941	0.299057
795.464293	0.299312
795.656626	0.299240
795.848941	0.299533
796.041238	0.299550
796.233516	0.299928
796.425777	0.300238
796.618019	0.300292
796.810243	0.300650
797.002449	0.300811
797.194636	0.300900
797.386805	0.301361
797.578956	0.301832
797.771089	0.302181
797.963204	0.302291
798.155300	0.302527
798.347378	0.302925
798.539438	0.302973
798.731480	0.302869
798.923503	0.303130
799.115509	0.303446
799.307496	0.303218
799.499465	0.303521
799.691415	0.303829
799.883348	0.304080
800.075262	0.304022
800.267158	0.304135
800.459035	0.304754
800.650895	0.304686
800.842736	0.304823
801.034559	0.305261
801.226364	0.305017
801.418150	0.305138
801.609919	0.305290
801.801669	0.305603
801.993401	0.305789
802.185114	0.305903
802.376810	0.306294
802.568487	0.306628
802.760146	0.306518
802.951787	0.306690
803.143409	0.306883
803.335014	0.307143
803.526600	0.307045
803.718168	0.307422
803.909717	0.307662
804.101249	0.307747
804.292762	0.307403
804.484257	0.307787
804.675734	0.308062
804.867192	0.308299
805.058632	0.308410
805.250054	0.309154
805.441458	0.309341
805.632844	0.309525
805.824211	0.309875
806.015561	0.310739
806.206891	0.311267
806.398204	0.311765
806.589499	0.312289
806.780775	0.312719
806.972033	0.312796
807.163273	0.312994
807.354495	0.313332
807.545698	0.313776
807.736883	0.313917
807.928050	0.314307
808.119199	0.315054
808.310329	0.315271
808.501441	0.315284
808.692535	0.315834
808.883611	0.316045
809.074669	0.316293
809.265708	0.316540
809.456729	0.316761
809.647732	0.316847
809.838717	0.317072
810.029683	0.317269
810.220632	0.317943
810.411562	0.317968
810.602474	0.318590
810.793367	0.318893
810.984242	0.319100
811.175100	0.319705
811.365938	0.319839
811.556759	0.319989
811.747562	0.320550
811.938346	0.320979
812.129112	0.321325
812.319860	0.321634
812.510589	0.322180
812.701300	0.322868
812.891994	0.323085
813.082668	0.323610
813.273325	0.323672
813.463964	0.323703
813.654584	0.323820
813.845186	0.323849
814.035769	0.324263
814.226335	0.324163
814.416882	0.324217
814.607411	0.324366
814.797922	0.324825
814.988415	0.325002
815.178889	0.325359
815.369345	0.325729
815.559783	0.326473
815.750203	0.326491
815.940605	0.327300
816.130988	0.327407
816.321353	0.328195
816.511700	0.328414
816.702028	0.328966
816.892339	0.329411
817.082631	0.329795
817.272905	0.330270
817.463161	0.330547
817.653398	0.330513
817.843617	0.331101
818.033819	0.331405
818.224001	0.331720
818.414166	0.332232
818.604312	0.332380
818.794440	0.332926
818.984550	0.333410
819.174642	0.334014
819.364716	0.334361
819.554771	0.335046
819.744808	0.335389
819.934827	0.335994
820.124827	0.336362
820.314810	0.337018
820.504774	0.337574
820.694720	0.337915
820.884647	0.338161
821.074557	0.338524
821.264448	0.339047
821.454321	0.339164
821.644176	0.339659
821.834012	0.340106
822.023831	0.340511
822.213631	0.340307
822.403413	0.340570
822.593176	0.340967
822.782922	0.341775
822.972649	0.342004
823.162358	0.342521
823.352049	0.342857
823.541721	0.343395
823.731376	0.343702
823.921012	0.344244
824.110629	0.344738
824.300229	0.345538
824.489811	0.345739
824.679374	0.346205
824.868919	0.346602
825.058445	0.346720
825.247954	0.346973
825.437444	0.347385
825.626916	0.348076
825.816370	0.348330
826.005806	0.348577
826.195223	0.349171
826.384622	0.349634
826.574003	0.350398
826.763366	0.351071
826.952711	0.351298
827.142037	0.351910
827.331345	0.352148
827.520635	0.352735
827.709906	0.352812
827.899160	0.353028
828.088395	0.352932
828.277612	0.353107
828.466810	0.353561
828.655991	0.354430
828.845153	0.354621
829.034297	0.355249
829.223423	0.355587
829.412531	0.356167
829.601620	0.356620
829.790691	0.357533
829.979744	0.358033
830.168779	0.358523
830.357795	0.358817
830.546793	0.359085
830.735773	0.359167
830.924735	0.359480
831.113679	0.360052
831.302604	0.360660
831.491511	0.361045
831.680400	0.361533
831.869271	0.361878
832.058123	0.362510
832.246957	0.363609
832.435773	0.364597
832.624571	0.365298
832.813351	0.365908
833.002112	0.366504
833.190855	0.367051
833.379580	0.367553
833.568287	0.368267
833.756975	0.368726
833.945645	0.369141
834.134297	0.369668
834.322931	0.370236
834.511547	0.370578
834.700144	0.370819
834.888723	0.371015
835.077284	0.371594
835.265826	0.371804
835.454351	0.371932
835.642857	0.371992
835.831345	0.372397
836.019815	0.372832
836.208266	0.373074
836.396699	0.373766
836.585114	0.374442
836.773511	0.374636
836.961890	0.375190
837.150250	0.375981
837.338592	0.376645
837.526916	0.376871
837.715222	0.377091
837.903510	0.377991
838.091779	0.378214
838.280030	0.378915
838.468263	0.379903
838.656477	0.380373
838.844674	0.380754
839.032852	0.381333
839.221012	0.381725
839.409153	0.382201
839.597277	0.382381
839.785382	0.383002
839.973469	0.383535
840.161538	0.383813
840.349589	0.384243
840.537621	0.384615
840.725635	0.385122
840.913631	0.385927
841.101609	0.386504
841.289568	0.387377
841.477509	0.387941
841.665432	0.388166
841.853337	0.388420
842.041224	0.389204
842.229092	0.389920
842.416942	0.390499
842.604774	0.391139
842.792588	0.391708
842.980383	0.392236
843.168160	0.392572
843.355919	0.393093
843.543660	0.393907
843.731382	0.394385
843.919087	0.395129
844.106773	0.395588
844.294441	0.396028
844.482090	0.396700
844.669722	0.397098
844.857335	0.398025
845.044930	0.398705
845.232507	0.398785
845.420065	0.399567
845.607605	0.399753
845.795127	0.400267
845.982631	0.401027
846.170117	0.401464
846.357584	0.402123
846.545033	0.403013
846.732464	0.403287
846.919877	0.403898
847.107272	0.403965
847.294648	0.404732
847.482006	0.405381
847.669346	0.405723
847.856667	0.406426
848.043971	0.406960
848.231256	0.406779
848.418523	0.407667
848.605771	0.408218
848.793002	0.408745
848.980214	0.409384
849.167408	0.410276
849.354584	0.410356
849.541742	0.411012
849.728881	0.411487
849.916002	0.412245
850.103105	0.412277
850.290190	0.413036
850.477256	0.413345
850.664304	0.413283
850.851334	0.413157
851.038346	0.413820
851.225340	0.414084
851.412315	0.414619
851.599272	0.415188
851.786211	0.416210
851.973132	0.416384
852.160034	0.417301
852.346918	0.418143
852.533784	0.418647
852.720632	0.419293
852.907462	0.419860
853.094273	0.419980
853.281066	0.420085
853.467841	0.420666
853.654598	0.421513
853.841336	0.422021
854.028056	0.422627
854.214758	0.423435
854.401442	0.423800
854.588107	0.424037
854.774755	0.424806
854.961384	0.425568
855.147995	0.425959
855.334587	0.426523
855.521162	0.427148
855.707718	0.427645
855.894256	0.427778
856.080775	0.428500
856.267277	0.428981
856.453760	0.429574
856.640225	0.429915
856.826672	0.429819
857.013101	0.430516
857.199511	0.430847
857.385903	0.431689
857.572277	0.432624
857.758633	0.433106
857.944970	0.434005
858.131290	0.434219
858.317591	0.434661
858.503873	0.435543
858.690138	0.435346
858.876384	0.435821
859.062612	0.435449
859.248822	0.435667
859.435014	0.436135
859.621188	0.436558
859.807343	0.437206
859.993480	0.437745
860.179599	0.438474
860.365699	0.439055
860.551781	0.439882
860.737846	0.440476
860.923891	0.440724
861.109919	0.441326
861.295929	0.441572
861.481920	0.441972
861.667893	0.442893
861.853848	0.443092
862.039784	0.443938
862.225702	0.444155
862.411603	0.445123
862.597484	0.445957
862.783348	0.446194
862.969193	0.447077
863.155021	0.447799
863.340830	0.448207
863.526620	0.448967
863.712393	0.449318
863.898147	0.449669
864.083883	0.450524
864.269601	0.450892
864.455301	0.451957
864.640982	0.451943
864.826645	0.452070
865.012290	0.452041
865.197917	0.452179
865.383526	0.452606
865.569116	0.452781
865.754688	0.452444
865.940242	0.452943
866.125777	0.452747
866.311295	0.453310
866.496794	0.453926
866.682275	0.454674
866.867737	0.455237
867.053182	0.455618
867.238608	0.456026
867.424016	0.456721
867.609406	0.456983
867.794778	0.457280
867.980131	0.457734
868.165466	0.458143
868.350783	0.458424
868.536082	0.458496
868.721362	0.458701
868.906625	0.459366
869.091869	0.459460
869.277094	0.459683
869.462302	0.460224
869.647491	0.460875
869.832662	0.460959
870.017815	0.461171
870.202950	0.461460
870.388066	0.461790
870.573165	0.461738
870.758245	0.461821
870.943306	0.462207
871.128350	0.462334
871.313375	0.462815
871.498382	0.463215
871.683371	0.463521
871.868342	0.463976
872.053294	0.464773
872.238229	0.465603
872.423144	0.466276
872.608042	0.466416
872.792922	0.466986
872.977783	0.467286
873.162626	0.467353
873.347451	0.467543
873.532258	0.468016
873.717046	0.467859
873.901816	0.467738
874.086568	0.468223
874.271302	0.468684
874.456017	0.468772
874.640715	0.468739
874.825394	0.469711
875.010055	0.470689
875.194697	0.471058
875.379322	0.471612
875.563928	0.472778
875.748516	0.472789
875.933085	0.473429
876.117637	0.473695
876.302170	0.473844
876.486685	0.474387
876.671182	0.474537
876.855661	0.474682
877.040121	0.475071
877.224563	0.475058
877.408987	0.475968
877.593393	0.475896
877.777780	0.476689
877.962150	0.476892
878.146501	0.476449
878.330833	0.476709
878.515148	0.477249
878.699444	0.477193
878.883722	0.476461
879.067982	0.475852
879.252224	0.476196
879.436447	0.476279
879.620653	0.476673
879.804840	0.477007
879.989008	0.476847
880.173159	0.476694
880.357291	0.476962
880.541405	0.477665
880.725501	0.478263
880.909579	0.478414
881.093638	0.478180
881.277680	0.478655
881.461703	0.479083
881.645707	0.479205
881.829694	0.479550
882.013662	0.479117
882.197612	0.479388
882.381544	0.479475
882.565458	0.479161
882.749353	0.479567
882.933230	0.479136
883.117089	0.479279
883.300930	0.479497
883.484753	0.479948
883.668557	0.480908
883.852343	0.481560
884.036111	0.481613
884.219861	0.482530
884.403592	0.482642
884.587305	0.482495
884.771000	0.482795
884.954677	0.483158
885.138335	0.482833
885.321976	0.482568
885.505598	0.482121
885.689201	0.482104
885.872787	0.481376
886.056354	0.481484
886.239904	0.482090
886.423434	0.481658
886.606947	0.481662
886.790442	0.481705
886.973918	0.482300
887.157376	0.482282
887.340816	0.482836
887.524237	0.483712
887.707641	0.483370
887.891026	0.483370
888.074393	0.483622
888.257741	0.483326
888.441072	0.483145
888.624384	0.482462
888.807678	0.482602
888.990954	0.481955
889.174211	0.481996
889.357451	0.482647
889.540672	0.483115
889.723875	0.482733
889.907059	0.483634
890.090226	0.483839
890.273374	0.484214
890.456504	0.484011
890.639616	0.484572
890.822709	0.484174
891.005785	0.483743
891.188842	0.483351
891.371881	0.483717
891.554901	0.483089
891.737904	0.483253
891.920888	0.482976
892.103854	0.483099
892.286802	0.482628
892.469731	0.482434
892.652643	0.482434
892.835536	0.482147
893.018410	0.482252
893.201267	0.481747
893.384106	0.481422
893.566926	0.481455
893.749728	0.481737
893.932511	0.481977
894.115277	0.482555
894.298024	0.482334
894.480753	0.482710
894.663464	0.482564
894.846157	0.483150
895.028831	0.482907
895.211487	0.483130
895.394125	0.482784
895.576745	0.482420
895.759346	0.481730
895.941930	0.481678
896.124495	0.481030
896.307041	0.480574
896.489570	0.480405
896.672080	0.480559
896.854573	0.480061
897.037046	0.479301
897.219502	0.479300
897.401940	0.479484
897.584359	0.479764
897.766760	0.479789
897.949143	0.480259
898.131507	0.479698
898.313854	0.479639
898.496182	0.479785
898.678492	0.480461
898.860783	0.480499
899.043057	0.479968
899.225312	0.479090
899.407549	0.479167
899.589768	0.478842
899.771968	0.478606
899.954151	0.477956
900.136315	0.477367
900.318461	0.476605
900.500588	0.476187
900.682698	0.476032
900.864789	0.476330
901.046862	0.475748
901.228917	0.475041
901.410953	0.474785
901.592971	0.474759
901.774972	0.474048
901.956953	0.474076
902.138917	0.473408
902.320862	0.473393
902.502790	0.473521
902.684699	0.473205
902.866589	0.472325
903.048462	0.472021
903.230316	0.471981
903.412152	0.472037
903.593970	0.471495
903.775770	0.471413
903.957551	0.470684
904.139314	0.470058
904.321059	0.469523
904.502786	0.469883
904.684494	0.469518
904.866185	0.468885
905.047857	0.469155
905.229510	0.468443
905.411146	0.468270
905.592763	0.468038
905.774363	0.467410
905.955943	0.467157
906.137506	0.466778
906.319051	0.466490
906.500577	0.466281
906.682085	0.465629
906.863575	0.464849
907.045046	0.463833
907.226500	0.463288
907.407935	0.462678
907.589352	0.462062
907.770750	0.461502
907.952131	0.460959
908.133493	0.459842
908.314837	0.458533
908.496163	0.458557
908.677470	0.458352
908.858760	0.457884
909.040031	0.457000
909.221284	0.456112
909.402518	0.455576
909.583735	0.455472
909.764933	0.455444
909.946113	0.455664
910.127275	0.454849
910.308418	0.454688
910.489544	0.453982
910.670651	0.453692
910.851740	0.453533
911.032810	0.453146
911.213863	0.452428
911.394897	0.451613
911.575913	0.450763
911.756911	0.450719
911.937890	0.450293
912.118851	0.450295
912.299794	0.449987
912.480719	0.449290
912.661626	0.448780
912.842514	0.447661
913.023384	0.446785
913.204236	0.445990
913.385070	0.445004
913.565886	0.443811
913.746683	0.442427
913.927462	0.441611
914.108223	0.441852
914.288965	0.440893
914.469690	0.440820
914.650396	0.439753
914.831084	0.438578
915.011754	0.438586
915.192405	0.438221
915.373038	0.437222
915.553653	0.435811
915.734250	0.434938
915.914829	0.433872
916.095389	0.432858
916.275931	0.433202
916.456455	0.433094
916.636961	0.432190
916.817448	0.431149
916.997917	0.431461
917.178368	0.431831
917.358801	0.430921
917.539216	0.430314
917.719612	0.429758
917.899990	0.428829
918.080350	0.428780
918.260692	0.427838
918.441015	0.427510
918.621320	0.426294
918.801607	0.425119
918.981876	0.424323
919.162127	0.423196
919.342359	0.422001
919.522573	0.421159
919.702769	0.420462
919.882947	0.420026
920.063106	0.419158
920.243247	0.419115
920.423370	0.418798
920.603475	0.417924
920.783562	0.418119
920.963630	0.418028
921.143680	0.417702
921.323712	0.416669
921.503725	0.415856
921.683721	0.414853
921.863698	0.413881
922.043657	0.412065
922.223598	0.411257
922.403520	0.410160
922.583424	0.409236
922.763311	0.407922
922.943178	0.406766
923.123028	0.405038
923.302859	0.404441
923.482673	0.403455
923.662467	0.402325
923.842244	0.400930
924.022003	0.399768
924.201743	0.398496
924.381465	0.398460
924.561169	0.397398
924.740854	0.396928
924.920522	0.396178
925.100171	0.394757
925.279802	0.394609
925.459414	0.394211
925.639009	0.394014
925.818585	0.392991
925.998143	0.391838
926.177683	0.391639
926.357205	0.390579
926.536708	0.390012
926.716193	0.388660
926.895660	0.387618
927.075109	0.386778
927.254539	0.385330
927.433951	0.385097
927.613345	0.383890
927.792721	0.382757
927.972079	0.382820
928.151418	0.381515
928.330739	0.381627
928.510042	0.380919
928.689327	0.380763
928.868593	0.379779
929.047841	0.378285
929.227071	0.376557
929.406283	0.375642
929.585476	0.373890
929.764652	0.372152
929.943809	0.370970
930.122948	0.369419
930.302068	0.368131
930.481171	0.366390
930.660255	0.365340
930.839321	0.364999
931.018369	0.362940
931.197398	0.361418
931.376409	0.361019
931.555402	0.360345
931.734377	0.360858
931.913334	0.359542
932.092272	0.359446
932.271192	0.358209
932.450094	0.356618
932.628978	0.356276
932.807844	0.355932
932.986691	0.354328
933.165520	0.351885
933.344331	0.350238
933.523123	0.348422
933.701898	0.347156
933.880654	0.346080
934.059392	0.344797
934.238111	0.343401
934.416813	0.342285
934.595496	0.341730
934.774161	0.342071
934.952808	0.340817
935.131437	0.340906
935.310047	0.339977
935.488639	0.338461
935.667213	0.338420
935.845769	0.337840
936.024306	0.336952
936.202825	0.335222
936.381326	0.333418
936.559809	0.331888
936.738274	0.330034
936.916720	0.329478
937.095148	0.328811
937.273558	0.327101
937.451950	0.325716
937.630323	0.324131
937.808678	0.323770
937.987015	0.321528
938.165334	0.320539
938.343635	0.318871
938.521917	0.318162
938.700181	0.317094
938.878427	0.315719
939.056655	0.315111
939.234864	0.313937
939.413055	0.313328
939.591228	0.313867
939.769383	0.311976
939.947519	0.312666
940.125638	0.311582
940.303738	0.310660
940.481820	0.308658
940.659883	0.306838
940.837929	0.307342
941.015956	0.305663
941.193965	0.304608
941.371955	0.303727
941.549928	0.301173
941.727882	0.298655
941.905818	0.296812
942.083736	0.296618
942.261636	0.295934
942.439517	0.292621
942.617380	0.290867
942.795225	0.288407
942.973052	0.287320
943.150860	0.285957
943.328651	0.285147
943.506423	0.285052
943.684176	0.284575
943.861912	0.283649
944.039629	0.282812
944.217328	0.281907
944.395009	0.280405
944.572672	0.279852
944.750317	0.278218
944.927943	0.275885
945.105551	0.274897
945.283141	0.273023
945.460712	0.270302
945.638265	0.268676
945.815801	0.267214
945.993317	0.266354
946.170816	0.263875
946.348297	0.262799
946.525759	0.262433
946.703203	0.260202
946.880629	0.259761
947.058036	0.259167
947.235425	0.259315
947.412797	0.258154
947.590149	0.257440
947.767484	0.256837
947.944800	0.256046
948.122099	0.254359
948.299379	0.252928
948.476640	0.250721
948.653884	0.249197
948.831109	0.246454
949.008316	0.244825
949.185505	0.243840
949.362676	0.242369
949.539828	0.240160
949.716962	0.238526
949.894078	0.239792
950.071176	0.239519
950.248256	0.239590
950.425317	0.237723
950.602360	0.236823
950.779385	0.234303
950.956391	0.234871
951.133380	0.234315
951.310350	0.233675
951.487302	0.230710
951.664235	0.227117
951.841151	0.225510
952.018048	0.224922
952.194927	0.223514
952.371788	0.223973
952.548631	0.222024
952.725455	0.220419
952.902261	0.218412
953.079049	0.217580
953.255819	0.217624
953.432570	0.215049
953.609303	0.214419
953.786018	0.213208
953.962715	0.211996
954.139394	0.209368
954.316054	0.207349
954.492696	0.208069
954.669320	0.206833
954.845926	0.206497
955.022513	0.205547
955.199083	0.203197
955.375634	0.201730
955.552166	0.201258
955.728681	0.201119
955.905177	0.201725
956.081655	0.198048
956.258115	0.195777
956.434557	0.193352
956.610980	0.191538
956.787385	0.192373
956.963772	0.192738
957.140141	0.190833
957.316492	0.189726
957.492824	0.189519
957.669138	0.189314
957.845434	0.189902
958.021712	0.189381
958.197971	0.190598
958.374212	0.188115
958.550435	0.187270
958.726640	0.186064
958.902826	0.185210
959.078995	0.183098
959.255145	0.180370
959.431277	0.176948
959.607390	0.175964
959.783486	0.174277
959.959563	0.174411
960.135622	0.172105
960.311662	0.170308
960.487685	0.168110
960.663689	0.167447
960.839675	0.169462
961.015643	0.170781
961.191593	0.171322
961.367524	0.169528
961.543437	0.167121
961.719332	0.166731
961.895209	0.167133
962.071067	0.169593
962.246907	0.169331
962.422730	0.168198
962.598533	0.166867
962.774319	0.165320
962.950086	0.165814
963.125835	0.166424
963.301566	0.164237
963.477279	0.164791
963.652973	0.161867
963.828650	0.158535
964.004308	0.157360
964.179947	0.156571
964.355569	0.156765
964.531172	0.155611
964.706757	0.156095
964.882324	0.159260
965.057873	0.158709
965.233403	0.156893
965.408916	0.158741
965.584410	0.158468
965.759885	0.159307
965.935343	0.157509
966.110782	0.158953
966.286203	0.160528
966.461606	0.157398
966.636991	0.157665
966.812357	0.158018
966.987705	0.157387
967.163035	0.158400
967.338347	0.155752
967.513641	0.156704
967.688916	0.155580
967.864173	0.155164
968.039412	0.157193
968.214632	0.156080
968.389835	0.156298
968.565019	0.156090
968.740185	0.154985
968.915333	0.157931
969.090462	0.158561
969.265573	0.158025
969.440667	0.155597
969.615741	0.153732
969.790798	0.154934
969.965836	0.155040
970.140856	0.154791
970.315858	0.157688
970.490842	0.157614
970.665808	0.157346
970.840755	0.157364
971.015684	0.157213
971.190595	0.159056
971.365487	0.155932
971.540362	0.156394
971.715218	0.154397
971.890056	0.151176
972.064875	0.150683
972.239677	0.150075
972.414460	0.150512
972.589225	0.154490
972.763972	0.153230
972.938700	0.155503
973.113411	0.158285
973.288103	0.160970
973.462777	0.161901
973.637432	0.161587
973.812070	0.158437
973.986689	0.159327
974.161290	0.153969
974.335873	0.155212
974.510437	0.154549
974.684984	0.150363
974.859512	0.148645
975.034022	0.149585
975.208513	0.148424
975.382987	0.151448
975.557442	0.150202
975.731879	0.153376
975.906298	0.150823
976.080698	0.149445
976.255080	0.151751
976.429445	0.153215
976.603790	0.153398
976.778118	0.153525
976.952427	0.152660
977.126719	0.154140
977.300992	0.152957
977.475246	0.152061
977.649483	0.154036
977.823701	0.152730
977.997901	0.152473
978.172083	0.149247
978.346247	0.149819
978.520392	0.149845
978.694519	0.150273
978.868628	0.151444
979.042719	0.153427
979.216791	0.151777
979.390845	0.153384
979.564882	0.154414
979.738899	0.159589
979.912899	0.159158
980.086880	0.158853
980.260843	0.156664
980.434788	0.156491
980.608715	0.156140
980.782623	0.157001
980.956514	0.155697
981.130386	0.156043
981.304240	0.153571
981.478075	0.151651
981.651892	0.152621
981.825692	0.154504
981.999472	0.151586
982.173235	0.153209
982.346980	0.152263
982.520706	0.154755
982.694414	0.153659
982.868104	0.153970
983.041775	0.156262
983.215428	0.156888
983.389064	0.154003
983.562680	0.155551
983.736279	0.155076
983.909860	0.155572
984.083422	0.154279
984.256966	0.155646
984.430491	0.154157
984.603999	0.153095
984.777488	0.149961
984.950959	0.151882
985.124412	0.152973
985.297847	0.153427
985.471263	0.155060
985.644661	0.155049
985.818041	0.154360
985.991403	0.154253
986.164747	0.153805
986.338072	0.154747
986.511379	0.154718
986.684668	0.154763
986.857938	0.154585
987.031191	0.154125
987.204425	0.154607
987.377641	0.153785
987.550839	0.153059
987.724018	0.154301
987.897179	0.157279
988.070322	0.156096
988.243447	0.155333
988.416554	0.153462
988.589642	0.153717
988.762712	0.153014
988.935764	0.154259
989.108798	0.155992
989.281813	0.154069
989.454811	0.152332
989.627790	0.153086
989.800751	0.152037
989.973693	0.152719
990.146617	0.151012
990.319524	0.149906
990.492412	0.147306
990.665281	0.146612
990.838133	0.146831
991.010966	0.147031
991.183781	0.147901
991.356578	0.149986
991.529356	0.149651
991.702117	0.150356
991.874859	0.151592
992.047583	0.152808
992.220288	0.152146
992.392976	0.153738
992.565645	0.153244
992.738296	0.152557
992.910929	0.151227
993.083543	0.149302
993.256139	0.148273
993.428718	0.147372
993.601277	0.148266
993.773819	0.148392
993.946342	0.146858
994.118848	0.146828
994.291335	0.146370
994.463803	0.146531
994.636254	0.148320
994.808686	0.149164
994.981100	0.147647
995.153496	0.145228
995.325874	0.147231
995.498233	0.148961
995.670574	0.150644
995.842897	0.150465
996.015202	0.151348
996.187488	0.153004
996.359757	0.152421
996.532007	0.152137
996.704239	0.153756
996.876452	0.152631
997.048648	0.152963
997.220825	0.152700
997.392984	0.155249
997.565124	0.153565
997.737247	0.151975
997.909351	0.152242
998.081437	0.154176
998.253505	0.153238
998.425554	0.152438
998.597586	0.151546
998.769599	0.150309
998.941594	0.151661
999.113571	0.150685
999.285529	0.150861
999.457469	0.152037
999.629391	0.150344
999.801295	0.150852
999.973181	0.150717
1000.145048	0.151405
1000.316897	0.152666
1000.488728	0.148975
1000.660541	0.152270
1000.832335	0.153568
1001.004111	0.150777
1001.175869	0.151849
1001.347609	0.152135
1001.519331	0.153659
1001.691034	0.154663
1001.862719	0.152502
1002.034386	0.150703
1002.206035	0.148692
1002.377665	0.147617
1002.549277	0.149836
1002.720871	0.149813
1002.892447	0.150064
1003.064004	0.149857
1003.235544	0.149107
1003.407065	0.151248
1003.578568	0.153999
1003.750052	0.152987
1003.921519	0.152367
1004.092967	0.151002
1004.264397	0.151084
1004.435809	0.152108
1004.607202	0.150970
1004.778577	0.151219
1004.949934	0.149236
1005.121273	0.149296
1005.292594	0.149613
1005.463896	0.150017
1005.635180	0.153148
1005.806446	0.153909
1005.977694	0.153334
1006.148923	0.152534
1006.320135	0.150748
1006.491328	0.152486
1006.662503	0.152545
1006.833659	0.154854
1007.004798	0.154563
1007.175918	0.153827
1007.347020	0.152773
1007.518103	0.152492
1007.689169	0.152748
1007.860216	0.152678
1008.031245	0.152420
1008.202256	0.150396
1008.373248	0.149328
1008.544223	0.150723
1008.715179	0.148301
1008.886117	0.149321
1009.057036	0.149411
1009.227938	0.148687
1009.398821	0.148983
1009.569686	0.149239
1009.740533	0.151225
1009.911361	0.152345
1010.082172	0.150703
1010.252964	0.151518
1010.423738	0.150691
1010.594493	0.149870
1010.765231	0.153248
1010.935950	0.154117
1011.106651	0.152403
1011.277334	0.152045
1011.447998	0.149248
1011.618645	0.148245
1011.789273	0.148537
1011.959882	0.149597
1012.130474	0.149262
1012.301048	0.148207
1012.471603	0.146765
1012.642140	0.147415
1012.812658	0.147477
1012.983159	0.146538
1013.153641	0.149625
1013.324105	0.151534
1013.494551	0.150967
1013.664979	0.153408
1013.835388	0.150538
1014.005779	0.152236
1014.176152	0.153250
1014.346507	0.152538
1014.516843	0.155024
1014.687162	0.153542
1014.857462	0.152878
1015.027744	0.152422
1015.198007	0.151421
1015.368252	0.153127
1015.538480	0.151879
1015.708689	0.150922
1015.878879	0.152285
1016.049052	0.153106
1016.219206	0.154234
1016.389342	0.153113
1016.559460	0.153930
1016.729559	0.154109
1016.899641	0.153428
1017.069704	0.154240
1017.239749	0.153487
1017.409775	0.153238
1017.579784	0.151858
1017.749774	0.150600
1017.919746	0.149812
1018.089700	0.151389
1018.259635	0.149399
1018.429553	0.148045
1018.599452	0.147646
1018.769333	0.146660
1018.939195	0.144786
1019.109040	0.145271
1019.278866	0.143930
1019.448674	0.145262
1019.618464	0.142910
1019.788235	0.143545
1019.957989	0.145912
1020.127724	0.145076
1020.297441	0.145745
1020.467139	0.145222
1020.636820	0.146672
1020.806482	0.145380
1020.976126	0.144106
1021.145752	0.145711
1021.315359	0.146221
1021.484948	0.144819
1021.654519	0.144539
1021.824072	0.146847
1021.993607	0.149102
1022.163123	0.148286
1022.332621	0.150250
1022.502101	0.148993
1022.671563	0.148534
1022.841007	0.150891
1023.010432	0.152340
1023.179839	0.153796
1023.349228	0.152733
1023.518598	0.152104
1023.687951	0.151157
1023.857285	0.151269
1024.026601	0.153304
1024.195899	0.152039
1024.365178	0.149298
1024.534439	0.151603
1024.703682	0.151084
1024.872907	0.150172
1025.042114	0.150877
1025.211302	0.151599
1025.380472	0.152630
1025.549624	0.152223
1025.718758	0.154276
1025.887873	0.154617
1026.056970	0.152865
1026.226049	0.154550
1026.395110	0.155128
1026.564153	0.152149
1026.733177	0.151328
1026.902183	0.149971
1027.071171	0.149880
1027.240141	0.149793
1027.409092	0.149277
1027.578026	0.148952
1027.746940	0.147633
1027.915837	0.147655
1028.084716	0.150415
1028.253576	0.150601
1028.422418	0.151171
1028.591242	0.151655
1028.760048	0.150028
1028.928835	0.150139
1029.097604	0.148552
1029.266355	0.149439
1029.435088	0.150008
1029.603803	0.148331
1029.772499	0.146771
1029.941177	0.147510
1030.109837	0.148243
1030.278478	0.148557
1030.447102	0.148328
1030.615707	0.147592
1030.784294	0.143863
1030.952863	0.142378
1031.121413	0.143609
1031.289945	0.144121
1031.458460	0.144044
1031.626955	0.140761
1031.795433	0.140039
1031.963892	0.141194
1032.132334	0.143039
1032.300756	0.146383
1032.469161	0.146946
1032.637548	0.146145
1032.805916	0.146508
1032.974266	0.145547
1033.142598	0.147290
1033.310911	0.146918
1033.479207	0.145516
1033.647484	0.143319
1033.815743	0.141824
1033.983983	0.142465
1034.152206	0.143594
1034.320410	0.143214
1034.488596	0.144723
1034.656764	0.143560
1034.824914	0.144356
1034.993045	0.144935
1035.161158	0.146184
1035.329253	0.147221
1035.497330	0.146145
1035.665388	0.146186
1035.833428	0.148467
1036.001450	0.148315
1036.169454	0.148015
1036.337440	0.149598
1036.505407	0.149582
1036.673356	0.149265
1036.841287	0.148370
1037.009200	0.149781
1037.177094	0.149501
1037.344970	0.149296
1037.512828	0.148262
1037.680668	0.150249
1037.848489	0.149422
1038.016293	0.148321
1038.184078	0.150429
1038.351845	0.151415
1038.519593	0.149505
1038.687324	0.148195
1038.855036	0.146965
1039.022730	0.146628
1039.190406	0.147071
1039.358063	0.145291
1039.525702	0.147558
1039.693323	0.147197
1039.860926	0.145329
1040.028511	0.146056
1040.196077	0.147201
1040.363625	0.148402
1040.531155	0.148065
1040.698667	0.146756
1040.866161	0.147258
1041.033636	0.146009
1041.201093	0.144770
1041.368532	0.144841
1041.535952	0.146214
1041.703355	0.144020
1041.870739	0.142999
1042.038105	0.143051
1042.205452	0.143809
1042.372782	0.143471
1042.540093	0.144055
1042.707386	0.144553
1042.874661	0.145640
1043.041918	0.143790
1043.209156	0.145801
1043.376376	0.144962
1043.543578	0.146806
1043.710762	0.148233
1043.877927	0.148869
1044.045074	0.148695
1044.212203	0.148892
1044.379314	0.148745
1044.546407	0.148237
1044.713481	0.148700
1044.880537	0.148013
1045.047575	0.145899
1045.214595	0.142989
1045.381596	0.144184
1045.548579	0.143953
1045.715544	0.143119
1045.882491	0.142825
1046.049420	0.142750
1046.216330	0.141805
1046.383222	0.145175
1046.550096	0.147108
1046.716951	0.148450
1046.883789	0.147560
1047.050608	0.147597
1047.217409	0.148194
1047.384192	0.148624
1047.550956	0.149691
1047.717703	0.149800
1047.884431	0.146028
1048.051140	0.145151
1048.217832	0.146176
1048.384505	0.146784
1048.551161	0.145585
1048.717798	0.144788
1048.884416	0.147189
1049.051017	0.146247
1049.217599	0.146757
1049.384163	0.150861
1049.550709	0.149108
1049.717237	0.146257
1049.883746	0.147161
1050.050237	0.148115
1050.216710	0.148916
1050.383165	0.148620
1050.549601	0.148367
1050.716019	0.148739
1050.882420	0.146254
1051.048801	0.147716
1051.215165	0.149301
1051.381510	0.148670
1051.547837	0.150206
1051.714146	0.150613
1051.880437	0.150144
1052.046709	0.151383
1052.212964	0.150984
1052.379200	0.150188
1052.545417	0.149590
1052.711617	0.147766
1052.877798	0.147689
1053.043961	0.146719
1053.210106	0.146563
1053.376233	0.146636
1053.542341	0.147248
1053.708432	0.146616
1053.874504	0.147193
1054.040557	0.148710
1054.206593	0.152323
1054.372610	0.150825
1054.538609	0.151256
1054.704590	0.151943
1054.870553	0.150317
1055.036497	0.150593
1055.202424	0.151629
1055.368331	0.152615
1055.534221	0.151704
1055.700093	0.150573
1055.865946	0.151612
1056.031781	0.150547
1056.197598	0.152430
1056.363397	0.153498
1056.529177	0.151782
1056.694939	0.150059
1056.860683	0.149566
1057.026409	0.151438
1057.192116	0.152161
1057.357806	0.153793
1057.523477	0.154742
1057.689130	0.149817
1057.854764	0.148527
1058.020381	0.149292
1058.185979	0.149741
1058.351559	0.149579
1058.517120	0.148490
1058.682664	0.148759
1058.848189	0.146819
1059.013696	0.145270
1059.179185	0.147122
1059.344656	0.144326
1059.510108	0.145102
1059.675542	0.144976
1059.840958	0.147321
1060.006356	0.144461
1060.171735	0.142929
1060.337096	0.142101
1060.502439	0.143625
1060.667764	0.143207
1060.833071	0.143782
1060.998359	0.146162
1061.163629	0.147391
1061.328881	0.145318
1061.494115	0.149085
1061.659330	0.148360
1061.824527	0.148532
1061.989706	0.146992
1062.154867	0.147514
1062.320010	0.151734
1062.485134	0.147062
1062.650240	0.145188
1062.815328	0.145739
1062.980398	0.144537
1063.145449	0.144728
1063.310482	0.144657
1063.475497	0.146039
1063.640494	0.145731
1063.805473	0.144067
1063.970433	0.147069
1064.135375	0.149294
1064.300299	0.148934
1064.465204	0.148532
1064.630092	0.148848
1064.794961	0.148041
1064.959812	0.145843
1065.124645	0.146592
1065.289459	0.146585
1065.454256	0.146486
1065.619034	0.146190
1065.783793	0.145502
1065.948535	0.145831
1066.113258	0.147966
1066.277964	0.149917
1066.442651	0.153840
1066.607319	0.153833
1066.771970	0.154352
1066.936602	0.151845
1067.101216	0.150410
1067.265812	0.150678
1067.430389	0.152071
1067.594949	0.150360
1067.759490	0.150646
1067.924013	0.148491
1068.088518	0.147176
1068.253004	0.148142
1068.417472	0.150850
1068.581922	0.151499
1068.746354	0.152363
1068.910768	0.151202
1069.075163	0.152216
1069.239540	0.152461
1069.403899	0.154264
1069.568240	0.154427
1069.732562	0.154904
1069.896866	0.154941
1070.061152	0.156224
1070.225420	0.155623
1070.389670	0.155642
1070.553901	0.156505
1070.718114	0.157154
1070.882309	0.154931
1071.046486	0.154708
1071.210644	0.154205
1071.374784	0.153457
1071.538906	0.154558
1071.703010	0.154356
1071.867096	0.153753
1072.031163	0.152631
1072.195212	0.152681
1072.359243	0.154124
1072.523256	0.157671
1072.687250	0.157900
1072.851226	0.158239
1073.015184	0.157582
1073.179124	0.160017
1073.343045	0.161548
1073.506949	0.161999
1073.670834	0.160770
1073.834701	0.161982
1073.998549	0.162096
1074.162380	0.162132
1074.326192	0.160733
1074.489986	0.158882
1074.653761	0.157888
1074.817519	0.157765
1074.981258	0.157159
1075.144979	0.158810
1075.308682	0.157138
1075.472367	0.156657
1075.636033	0.156998
1075.799681	0.161288
1075.963311	0.162347
1076.126923	0.163414
1076.290516	0.165251
1076.454092	0.166164
1076.617649	0.163492
1076.781187	0.166151
1076.944708	0.164201
1077.108210	0.161859
1077.271695	0.159619
1077.435160	0.160625
1077.598608	0.158374
1077.762038	0.156135
1077.925449	0.153323
1078.088842	0.154591
1078.252217	0.153246
1078.415573	0.154256
1078.578912	0.156450
1078.742232	0.157874
1078.905534	0.157638
1079.068817	0.158364
1079.232083	0.159642
1079.395330	0.162103
1079.558559	0.162544
1079.721770	0.159244
1079.884962	0.158029
1080.048136	0.157431
1080.211293	0.154096
1080.374430	0.153953
1080.537550	0.154877
1080.700651	0.154795
1080.863735	0.155882
1081.026800	0.156092
1081.189846	0.160123
1081.352875	0.165217
1081.515885	0.167267
1081.678877	0.168376
1081.841851	0.168347
1082.004807	0.167335
1082.167744	0.167139
1082.330663	0.167111
1082.493564	0.166597
1082.656447	0.169064
1082.819312	0.165763
1082.982158	0.163687
1083.144986	0.162637
1083.307796	0.160608
1083.470587	0.164252
1083.633361	0.163753
1083.796116	0.163365
1083.958853	0.165030
1084.121571	0.161649
1084.284272	0.162327
1084.446954	0.163083
1084.609618	0.166445
1084.772264	0.170410
1084.934892	0.165280
1085.097501	0.167972
1085.260092	0.167914
1085.422665	0.169343
1085.585220	0.170497
1085.747756	0.171275
1085.910274	0.173064
1086.072774	0.174096
1086.235256	0.171285
1086.397720	0.172975
1086.560165	0.173310
1086.722592	0.173068
1086.885001	0.171906
1087.047392	0.170220
1087.209764	0.168930
1087.372119	0.165745
1087.534455	0.161534
1087.696772	0.161167
1087.859072	0.163949
1088.021353	0.162366
1088.183616	0.163222
1088.345861	0.162945
1088.508088	0.164393
1088.670296	0.165939
1088.832486	0.168610
1088.994658	0.174157
1089.156812	0.175546
1089.318948	0.174986
1089.481065	0.174523
1089.643164	0.173054
1089.805245	0.172251
1089.967308	0.172821
1090.129352	0.170855
1090.291378	0.171787
1090.453386	0.166656
1090.615376	0.167361
1090.777347	0.169959
1090.939301	0.168370
1091.101236	0.171383
1091.263153	0.170743
1091.425051	0.169603
1091.586932	0.173142
1091.748794	0.172335
1091.910638	0.175752
1092.072463	0.176793
1092.234271	0.171536
1092.396060	0.172976
1092.557831	0.171701
1092.719584	0.173209
1092.881319	0.174742
1093.043035	0.175479
1093.204733	0.177747
1093.366413	0.175171
1093.528075	0.175928
1093.689718	0.180786
1093.851343	0.180822
1094.012950	0.177608
1094.174539	0.179911
1094.336110	0.182276
1094.497662	0.175956
1094.659196	0.175630
1094.820712	0.175413
1094.982210	0.174804
1095.143689	0.171161
1095.305151	0.173639
1095.466594	0.178163
1095.628018	0.174480
1095.789425	0.173742
1095.950813	0.176749
1096.112183	0.171872
1096.273535	0.172822
1096.434869	0.173658
1096.596184	0.172726
1096.757482	0.168075
1096.918761	0.168450
1097.080021	0.169718
1097.241264	0.168240
1097.402488	0.169369
1097.563694	0.172675
1097.724882	0.174026
1097.886052	0.169491
1098.047203	0.173604
1098.208336	0.179769
1098.369451	0.180016
1098.530548	0.177314
1098.691627	0.175602
1098.852687	0.171842
1099.013729	0.170298
1099.174753	0.169385
1099.335758	0.174489
1099.496746	0.171051
1099.657715	0.166882
1099.818666	0.164666
1099.979599	0.169195
1100.140513	0.167624
1100.301409	0.176090
1100.462287	0.180812
1100.623147	0.184152
1100.783989	0.185122
1100.944812	0.188686
1101.105617	0.189160
1101.266404	0.188558
1101.427173	0.185284
1101.587923	0.186188
1101.748656	0.178316
1101.909370	0.169120
1102.070066	0.170320
1102.230743	0.170994
1102.391403	0.170612
1102.552044	0.168061
1102.712667	0.168675
1102.873271	0.170462
1103.033858	0.171895
1103.194426	0.173139
1103.354976	0.178859
1103.515508	0.176545
1103.676021	0.176027
1103.836517	0.175509
1103.996994	0.176550
1104.157453	0.173177
1104.317893	0.172958
1104.478316	0.175432
1104.638720	0.176224
1104.799106	0.174046
1104.959474	0.173452
1105.119823	0.167672
1105.280155	0.165442
1105.440468	0.168745
1105.600763	0.173981
1105.761039	0.174188
1105.921298	0.175640
1106.081538	0.178563
1106.241760	0.186741
1106.401964	0.189510
1106.562149	0.193936
1106.722316	0.196753
1106.882465	0.199473
1107.042596	0.201218
1107.202709	0.200887
1107.362803	0.202287
1107.522879	0.205748
1107.682937	0.195409
1107.842977	0.189808
1108.002999	0.189724
1108.163002	0.192327
1108.322987	0.190592
1108.482954	0.189692
1108.642902	0.191834
1108.802833	0.187262
1108.962745	0.181717
1109.122639	0.187513
1109.282515	0.192490
1109.442372	0.191580
1109.602211	0.191566
1109.762032	0.192973
1109.921835	0.194487
1110.081620	0.198251
1110.241386	0.201424
1110.401134	0.201259
1110.560864	0.201029
1110.720576	0.198068
1110.880269	0.202274
1111.039945	0.200561
1111.199602	0.198172
1111.359240	0.195467
1111.518861	0.191330
1111.678463	0.188532
1111.838047	0.192978
1111.997613	0.191157
1112.157161	0.196635
1112.316690	0.192954
1112.476202	0.187950
1112.635695	0.190234
1112.795169	0.189849
1112.954626	0.188884
1113.114064	0.187806
1113.273484	0.181070
1113.432886	0.180642
1113.592270	0.177320
1113.751635	0.181052
1113.910983	0.185513
1114.070312	0.185328
1114.229622	0.183527
1114.388915	0.186712
1114.548189	0.186352
1114.707445	0.187829
1114.866683	0.188798
1115.025903	0.188522
1115.185104	0.188471
1115.344287	0.191255
1115.503452	0.188709
1115.662599	0.190600
1115.821727	0.191374
1115.980838	0.192134
1116.139930	0.194103
1116.299004	0.189385
1116.458059	0.190450
1116.617097	0.186337
1116.776116	0.181866
1116.935117	0.187104
1117.094099	0.192331
1117.253064	0.190778
1117.412010	0.191761
1117.570938	0.190239
1117.729848	0.190902
1117.888740	0.197171
1118.047613	0.200548
1118.206468	0.202174
1118.365305	0.199431
1118.524124	0.193229
1118.682924	0.187855
1118.841707	0.191392
1119.000471	0.191187
1119.159216	0.197264
1119.317944	0.190268
1119.476653	0.188905
1119.635344	0.189736
1119.794017	0.189799
1119.952672	0.193348
1120.111308	0.202156
1120.269927	0.197902
1120.428527	0.194553
1120.587108	0.195804
1120.745672	0.194821
1120.904217	0.192354
1121.062744	0.192325
1121.221253	0.193548
1121.379744	0.194011
1121.538216	0.187855
1121.696671	0.188656
1121.855107	0.200403
1122.013524	0.196542
1122.171924	0.198153
1122.330305	0.200677
1122.488668	0.207438
1122.647013	0.205406
1122.805340	0.205619
1122.963648	0.208283
1123.121938	0.212161
1123.280210	0.209579
1123.438464	0.213314
1123.596700	0.214025
1123.754917	0.213935
1123.913116	0.205079
1124.071297	0.203862
1124.229459	0.202112
1124.387604	0.200606
1124.545730	0.196835
1124.703838	0.198712
1124.861928	0.199796
1125.019999	0.200417
1125.178052	0.203926
1125.336088	0.199679
1125.494104	0.200148
1125.652103	0.199678
1125.810083	0.206962
1125.968045	0.208239
1126.125989	0.202739
1126.283915	0.204764
1126.441823	0.207235
1126.599712	0.206540
1126.757583	0.212882
1126.915436	0.214240
1127.073270	0.210924
1127.231087	0.200823
1127.388885	0.205843
1127.546665	0.207562
1127.704426	0.199584
1127.862170	0.196916
1128.019895	0.197065
1128.177602	0.200125
1128.335291	0.197778
1128.492961	0.199205
1128.650614	0.206983
1128.808248	0.200519
1128.965864	0.200466
1129.123461	0.200663
1129.281041	0.197855
1129.438602	0.192124
1129.596145	0.192681
1129.753670	0.191878
1129.911176	0.207087
1130.068665	0.203082
1130.226135	0.206001
1130.383587	0.214217
1130.541020	0.224872
1130.698436	0.226548
1130.855833	0.229758
1131.013212	0.224392
1131.170573	0.226000
1131.327915	0.211800
1131.485239	0.213777
1131.642545	0.215175
1131.799833	0.208917
1131.957103	0.199540
1132.114354	0.199051
1132.271588	0.201310
1132.428803	0.205451
1132.585999	0.205850
1132.743178	0.203836
1132.900338	0.197300
1133.057480	0.198546
1133.214604	0.190893
1133.371710	0.197587
1133.528797	0.194036
1133.685866	0.197360
1133.842917	0.191851
1133.999950	0.194632
1134.156964	0.201299
1134.313960	0.205013
1134.470938	0.200293
1134.627898	0.210003
1134.784840	0.211684
1134.941763	0.218524
1135.098668	0.217553
1135.255555	0.224662
1135.412424	0.224688
1135.569274	0.215478
1135.726107	0.215001
1135.882921	0.215558
1136.039716	0.209800
1136.196494	0.203326
1136.353253	0.205781
1136.509995	0.207693
1136.666717	0.202475
1136.823422	0.202735
1136.980109	0.208263
1137.136777	0.206553
1137.293427	0.201148
1137.450059	0.202960
1137.606672	0.198632
1137.763267	0.195659
1137.919844	0.192226
1138.076403	0.196126
1138.232944	0.199771
1138.389466	0.203671
1138.545971	0.210309
1138.702457	0.215317
1138.858924	0.215465
1139.015374	0.219949
1139.171805	0.224382
1139.328218	0.224341
1139.484613	0.222863
1139.640990	0.214785
1139.797348	0.216645
1139.953688	0.215292
1140.110010	0.228433
1140.266314	0.223128
1140.422600	0.231884
1140.578867	0.231242
1140.735116	0.228715
1140.891347	0.227241
1141.047559	0.240313
1141.203754	0.230389
1141.359930	0.238476
1141.516088	0.224027
1141.672228	0.232346
1141.828349	0.225178
1141.984452	0.219473
1142.140537	0.218887
1142.296604	0.219293
1142.452653	0.205638
1142.608683	0.208311
1142.764695	0.194542
1142.920689	0.193914
1143.076665	0.190842
1143.232622	0.197136
1143.388562	0.200691
1143.544483	0.202943
1143.700385	0.201700
1143.856270	0.206315
1144.012136	0.205755
1144.167985	0.204509
1144.323814	0.206747
1144.479626	0.207489
1144.635420	0.206495
1144.791195	0.206605
1144.946952	0.204685
1145.102691	0.210485
1145.258411	0.221112
1145.414113	0.222298
1145.569798	0.236655
1145.725463	0.239477
1145.881111	0.243713
1146.036741	0.236641
1146.192352	0.234955
1146.347945	0.239117
1146.503519	0.227875
1146.659076	0.224545
1146.814614	0.228171
1146.970134	0.215857
1147.125636	0.210852
1147.281120	0.207563
1147.436585	0.207155
1147.592032	0.216099
1147.747461	0.213500
1147.902872	0.216423
1148.058265	0.214628
1148.213639	0.216922
1148.368995	0.223908
1148.524333	0.229148
1148.679653	0.220957
1148.834954	0.227897
1148.990237	0.215051
1149.145502	0.220613
1149.300749	0.225992
1149.455977	0.221652
1149.611188	0.221392
1149.766380	0.220002
1149.921553	0.227718
1150.076709	0.245156
1150.231846	0.235918
1150.386966	0.234485
1150.542066	0.225709
1150.697149	0.234251
1150.852214	0.238296
1151.007260	0.239066
1151.162288	0.246043
1151.317298	0.231829
1151.472289	0.213353
1151.627263	0.210871
1151.782218	0.217213
1151.937155	0.229640
1152.092073	0.218899
1152.246974	0.220423
1152.401856	0.215978
1152.556720	0.212028
1152.711566	0.211565
1152.866393	0.228940
1153.021203	0.232797
1153.175994	0.237288
1153.330767	0.244547
1153.485521	0.250104
1153.640258	0.242696
1153.794976	0.238314
1153.949676	0.228611
1154.104358	0.230114
1154.259021	0.215062
1154.413667	0.213976
1154.568294	0.203463
1154.722903	0.184089
1154.877493	0.179386
1155.032066	0.165786
1155.186620	0.173490
1155.341156	0.173150
1155.495674	0.177058
1155.650173	0.176960
1155.804654	0.182658
1155.959118	0.178839
1156.113562	0.179807
1156.267989	0.187912
1156.422397	0.200720
1156.576788	0.188441
1156.731160	0.196664
1156.885513	0.194348
1157.039849	0.197500
1157.194166	0.201280
1157.348465	0.207635
1157.502746	0.199301
1157.657009	0.194335
1157.811253	0.201027
1157.965479	0.216754
1158.119687	0.213506
1158.273877	0.210422
1158.428048	0.212073
1158.582201	0.211192
1158.736337	0.206516
1158.890453	0.222259
1159.044552	0.216054
1159.198632	0.212649
1159.352694	0.200118
1159.506738	0.206179
1159.660764	0.207059
1159.814771	0.203068
1159.968761	0.200622
1160.122732	0.207839
1160.276685	0.209412
1160.430619	0.219803
1160.584535	0.215771
1160.738434	0.218908
1160.892313	0.217544
1161.046175	0.219979
1161.200019	0.227004
1161.353844	0.222572
1161.507651	0.222380
1161.661440	0.208445
1161.815210	0.205549
1161.968962	0.209022
1162.122697	0.218870
1162.276412	0.207106
1162.430110	0.222862
1162.583789	0.216646
1162.737451	0.215907
1162.891094	0.215555
1163.044718	0.226401
1163.198325	0.226615
1163.351913	0.227137
1163.505483	0.208851
1163.659035	0.225523
1163.812569	0.211425
1163.966084	0.206480
1164.119581	0.218991
1164.273060	0.200797
1164.426521	0.201791
1164.579964	0.192693
1164.733388	0.192431
1164.886794	0.197330
1165.040182	0.195523
1165.193551	0.203002
1165.346903	0.206760
1165.500236	0.206413
1165.653551	0.229332
1165.806848	0.242115
1165.960126	0.247012
1166.113386	0.258172
1166.266628	0.260622
1166.419852	0.252104
1166.573058	0.249748
1166.726245	0.254943
1166.879414	0.257799
1167.032565	0.257895
1167.185698	0.230222
1167.338812	0.225617
1167.491909	0.211519
1167.644987	0.208898
1167.798046	0.220758
1167.951088	0.212469
1168.104111	0.214226
1168.257117	0.197790
1168.410103	0.180729
1168.563072	0.194686
1168.716023	0.201355
1168.868955	0.204527
1169.021869	0.216699
1169.174765	0.199418
1169.327642	0.189361
1169.480501	0.182735
1169.633343	0.182899
1169.786165	0.191229
1169.938970	0.191246
1170.091757	0.185033
1170.244525	0.192138
1170.397275	0.189105
1170.550007	0.200338
1170.702720	0.217577
1170.855415	0.226644
1171.008092	0.219848
1171.160751	0.215837
1171.313392	0.200188
1171.466014	0.220814
1171.618619	0.134041
1171.771205	0.134041
1171.923772	0.134041
