sample name	sample
index	1289
start time	 04-29-2021  03:02:07 PM
880	0.394678
Peak Time (s)	91.036
Peak Height 	0.3947
calc peak height	90,93
Baseline Time (s)	11.035
Baseline Value 	-0.006065
subtract baseline	10,4
Abs	0.292905
Peak Time (s)	90.537
Peak Height 	0.2929
calc peak height	90,93
Baseline Time (s)	10.037
Baseline Value 	0.002854
subtract baseline	10,3
PK_550	0.149736
Peak Time (s)	90.537
Peak Height 	0.1497
calc peak height	90,93
Baseline Time (s)	11.035
Baseline Value 	5.5318E-4
subtract baseline	10,2
PK_880	0.268953
Peak Time (s)	91.538
Peak Height 	0.269
calc peak height	90,93
Baseline Time (s)	9.037
Baseline Value 	0.00312
subtract baseline	10,1


Time (s)	A880-A510	A880-A775	A880-A975	A880	I510	I775	I975	I880	
0.037000	-0.002032	-0.001693	0.003641	0.002197	6303.259353	40995.356381	3868.692329	20969.390833
0.537500	-0.002293	0.000675	0.000820	0.004919	6280.409921	40964.308959	3856.950163	20856.864226
1.040000	-0.002829	-0.000140	-0.000839	0.004234	6281.559062	40952.980618	3854.904375	20885.137518
1.536500	0.000278	0.000388	-0.001654	0.005080	6298.851526	40925.158677	3851.419878	20850.230424
2.035000	0.001969	0.000619	-0.002967	0.002435	6332.296602	41177.296079	3854.213001	20959.542947
2.535500	-0.001025	0.000227	0.000669	0.002025	6312.332178	41178.810079	3862.741977	20976.526619
3.036000	0.002060	0.001423	-0.000049	-0.000451	6355.446191	41503.004943	3866.474198	21079.506141
3.536000	-0.000507	-0.000098	0.001668	0.000873	6325.218693	41251.534088	3867.308618	21024.361345
4.036000	0.001088	-0.000274	0.001540	0.000086	6343.692414	41305.499612	3868.714414	21057.145950
4.535500	0.001879	0.001248	0.001660	0.001123	6341.784655	41348.285149	3866.760222	21013.978352
5.037000	-0.000504	0.000612	0.003191	0.000676	6326.773379	41331.664674	3870.978766	21032.584906
5.537000	0.001110	-0.000333	-0.000974	-0.000217	6346.220990	41326.990800	3864.013231	21069.775661
6.034500	0.000240	0.000961	0.001036	-0.000062	6338.258324	41427.713759	3867.956785	21063.318585
6.535000	0.000076	0.000501	0.001112	0.000360	6333.704990	41349.651528	3867.218831	21045.711040
7.035000	-0.001173	-0.000213	0.001029	0.000267	6324.755982	41294.906884	3867.240090	21049.612289
7.536000	-0.002900	-0.000012	-0.005390	0.000332	6310.925124	41306.898511	3853.540339	21046.879552
8.036000	-0.000297	0.000441	0.000354	0.000012	6333.519412	41375.168631	3866.346540	21060.230568
8.536500	-0.000858	-0.000153	-0.002500	-0.000340	6331.891255	41353.775862	3861.042789	21074.899144
9.036500	0.000000	-0.000100	0.000363	-0.000241	6337.783262	41349.739640	3866.903423	21070.778160
9.536500	0.000628	0.000299	0.002267	0.000116	6339.880601	41353.336131	3870.200015	21055.873871
10.036500	-0.001696	0.000376	0.000000	0.000035	6322.503698	41367.386006	3865.545325	21059.262994
10.537500	-0.001208	-0.000507	0.000009	-0.000423	6329.821881	41329.838880	3866.538577	21078.347619
11.035000	0.000551	0.000000	-0.003786	0.000000	6340.189948	41337.233098	3857.609743	21060.716313
11.535500	0.000387	0.000870	-0.000902	0.000251	6336.970394	41392.007222	3863.174525	21050.280047
12.035500	0.002768	0.000905	0.004441	-0.000058	6357.910833	41422.367883	3875.229689	21063.151939
12.538500	0.000006	0.000279	-0.001309	-0.000376	6338.871187	41395.061626	3863.639589	21076.381731
13.036000	0.000916	0.001181	-0.002064	0.001650	6330.218383	41295.801855	3857.761896	20992.084109
13.536000	0.002584	0.000965	0.001440	0.001412	6345.018389	41297.810940	3865.680040	21001.973957
14.039500	-0.000706	0.000118	-0.000358	0.002349	6312.289094	41140.761460	3859.886109	20963.086235
14.537000	-0.003047	0.000584	0.003135	0.002666	6291.876881	41153.804247	3866.616039	20949.948309
15.037500	0.000497	0.000800	-0.001899	0.001819	6325.668705	41247.378131	3857.753254	20985.087626
15.534500	0.000206	0.000352	0.002908	0.000450	6334.016708	41328.581431	3870.856599	21041.953699
16.035500	-0.002332	-0.000135	0.004537	-0.000038	6318.152592	41328.667912	3875.390328	21062.288024
16.535500	0.001693	0.000926	0.000972	0.000712	6343.529515	41356.080188	3866.171115	21031.060450
17.036000	0.001682	0.000761	0.002934	-0.001801	6363.036959	41564.092552	3875.735189	21135.919562
17.536000	-0.002838	0.000642	0.000751	0.001460	6302.725742	41265.051232	3864.113226	20999.954674
18.039000	0.000775	0.000342	0.004415	0.001216	6332.488405	41260.102441	3872.441144	21010.105774
18.539000	0.000177	0.000741	0.003377	0.001477	6325.837731	41272.339596	3869.666198	20999.282914
19.037000	-0.002861	0.000728	-0.002357	0.001634	6301.215424	41257.253355	3857.177660	20992.733339
19.534500	0.000638	0.000793	-0.004259	0.001585	6328.568882	41267.437424	3853.285868	20994.795698
20.037500	-0.000369	0.000224	0.007538	0.001424	6322.023844	41231.404683	3878.701861	21001.461052
20.535000	-0.000240	0.000462	0.002141	0.001040	6325.992824	41286.191203	3867.962414	21017.422648
21.035500	-0.003034	0.000565	-0.001839	0.001456	6301.248627	41258.661482	3858.644256	21000.130859
21.535000	0.000418	0.000880	-0.001396	0.002127	6322.675343	41227.261489	3858.163476	20972.275262
22.038500	-0.001734	0.000407	0.001792	0.000931	6315.299600	41291.029964	3867.451062	21021.971951
22.536000	0.000306	-0.000240	0.001557	0.001044	6330.192493	41224.038077	3866.710784	21017.265955
23.036500	-0.000789	-0.000327	0.003940	0.001089	6321.374419	41212.417498	3871.697940	21015.399089
23.536500	-0.000391	0.000139	-0.000622	0.001110	6324.281859	41251.548663	3861.946701	21014.508105
24.037000	-0.002533	0.000898	0.005068	0.001830	6302.230274	41255.024615	3872.524166	20984.603507
24.537000	0.002217	-0.000117	0.000230	0.001275	6343.227777	41214.495668	3863.402245	21007.664428
25.035000	-0.000397	0.000163	0.002060	0.000968	6325.337273	41266.252925	3867.942360	21020.419067
25.535000	-0.000719	0.000120	0.002537	0.001255	6320.624695	41237.121899	3868.346195	21008.482350
26.035500	-0.000578	-0.000131	0.005414	0.001051	6323.297643	41233.010309	3874.936900	21016.972189
26.538000	-0.000667	0.000104	0.003371	0.001670	6317.828374	41199.216744	3869.241999	20991.270969
27.036000	0.001782	0.000191	0.005631	-0.001405	6360.723162	41478.407733	3880.690482	21119.344266
27.539500	-0.001420	-0.000235	0.003380	-0.001325	6335.172964	41433.607088	3875.671170	21116.009256
28.036500	-0.001197	-0.000505	0.001606	-0.000139	6327.712584	41304.950328	3869.335471	21066.517599
28.537000	-0.000957	0.000013	0.000194	-0.000210	6330.115416	41356.921161	3866.478019	21069.456720
29.037000	-0.000450	0.000491	0.003516	0.005717	6288.405493	40878.603155	3860.956151	20824.050683
29.537500	-0.001904	0.000207	0.005199	0.000368	6318.327498	41323.025477	3875.941495	21045.401869
30.037000	-0.000483	0.000693	0.001765	0.000272	6330.062006	41374.484708	3868.798642	21049.396731
30.535500	-0.000754	-0.000454	0.000404	0.001771	6316.374333	41141.273847	3862.719289	20987.070813
31.035500	-0.002192	-0.000168	-0.002010	0.004189	6286.766021	40954.480721	3852.541459	20887.001138
31.536000	-0.001715	0.000367	0.003861	0.000004	6322.603454	41369.317599	3873.851003	21060.564194
32.036000	-0.000784	-0.001128	0.002584	-0.000813	6336.136380	41309.444812	3872.865498	21094.634144
32.536500	-0.000022	0.000157	-0.003618	-0.000121	6336.681849	41361.786363	3858.219971	21065.769883
33.037000	-0.001390	0.000698	-0.001714	0.004111	6293.498170	41037.087625	3853.324720	20890.206828
33.537000	0.003119	0.000308	0.002292	-0.001909	6375.146329	41533.472594	3874.589784	21140.457767
34.037500	0.000085	0.000350	0.000042	0.001382	6325.867426	41246.281871	3862.776318	21003.228231
34.539500	-0.001532	0.000626	0.002060	0.002357	6305.873900	41184.726644	3864.987548	20962.753090
35.035000	-0.002239	-0.000323	0.002644	0.002549	6298.967043	41084.510708	3865.820608	20954.796074
35.535500	-0.002576	0.000136	0.000850	0.001872	6301.578231	41184.249010	3863.449652	20982.867557
36.038500	-0.001440	-0.000426	-0.004170	0.001331	6314.479370	41182.416806	3854.006092	21005.343650
36.536000	-0.004144	-0.000669	-0.001712	0.001374	6293.373266	41157.352308	3859.087080	21003.565159
37.036000	-0.003014	-0.000633	-0.001548	0.002952	6289.940070	41021.962877	3856.106723	20938.106710
37.536500	-0.000902	-0.001394	-0.007975	0.000510	6324.971848	41169.528250	3847.765429	21039.478006
38.036500	-0.001740	0.000254	0.000999	0.001696	6309.361396	41210.176088	3864.141026	20990.182744
38.537000	-0.002619	-0.000064	0.001936	0.001342	6305.318154	41213.286376	3866.882009	21004.867772
39.034500	-0.001557	-0.000132	0.000923	0.001487	6312.380055	41194.625872	3864.423074	20998.865907
39.534500	-0.000690	-0.000191	0.001666	0.001577	6318.364209	41181.488473	3865.808214	20995.118220
40.035000	0.000102	-0.000191	-0.000757	0.001492	6325.145717	41188.938521	3860.852318	20998.646768
40.535500	0.000560	0.000285	-0.003228	0.001721	6326.914588	41210.632097	3855.163959	20989.143636
41.035500	-0.003743	-0.000161	0.000390	0.003549	6279.806940	41011.111987	3858.932088	20913.418906
41.536000	-0.001642	0.000173	0.001814	0.001284	6313.287787	41239.282760	3866.745796	21007.292032
42.036500	0.000209	-0.000015	-0.000732	0.001637	6324.848376	41191.666299	3860.600102	20992.619484
42.536500	-0.002554	0.000367	-0.000559	0.001309	6306.072621	41254.145959	3861.659248	21006.256117
43.037000	-0.001519	0.000082	-0.002700	0.003163	6299.775662	41066.123710	3853.245674	20929.365036
43.536500	-0.001685	-0.000080	0.000000	0.000992	6315.204094	41242.722238	3863.515168	21019.433958
44.035000	-0.000091	0.000275	-0.001780	-0.000554	6339.506925	41410.498352	3863.017638	21083.814201
44.537500	-0.000211	0.000181	-0.000054	-0.000347	6336.962934	41383.885044	3866.242862	21075.186655
45.035500	-0.002844	0.000278	-0.004947	0.006067	6267.480470	40829.544838	3842.512905	20809.661644
45.538500	0.000627	0.000670	-0.000121	0.000427	6337.463688	41358.711158	3864.454403	21042.921364
46.035500	-0.000445	0.001185	0.002913	0.001177	6323.349373	41337.964976	3869.315330	21011.731062
46.536000	-0.001974	-0.000007	0.000597	-0.000450	6324.106410	41376.379607	3867.847460	21079.494867
47.036500	-0.004261	0.000180	0.000362	0.006775	6251.363927	40759.384543	3852.093677	20780.582339
47.536500	0.000108	0.001190	0.000710	0.003174	6312.201641	41162.458314	3860.398219	20928.909345
48.037000	-0.001072	-0.000043	0.002494	0.000639	6322.658693	41277.077631	3869.568528	21034.102236
48.537000	-0.001065	0.000916	0.002755	0.000439	6324.267284	41379.376937	3870.554946	21042.450901
49.034500	-0.002861	-0.001159	-0.002560	0.005853	6268.971864	40723.075457	3847.914638	20818.419801
49.537500	0.001892	-0.000283	-0.000444	-0.002198	6367.791782	41506.679329	3869.353269	21152.537094
50.035500	0.001945	0.000408	0.006519	-0.000549	6355.309972	41421.827114	3880.760576	21083.596841
50.536000	0.000093	-0.000055	0.008519	0.003311	6311.033279	41041.140932	3876.750749	20923.251418
51.035500	-0.017705	-0.040954	0.014273	0.540887	3897.440576	13036.227349	3217.305056	8171.192644
51.536500	-0.022054	-0.037615	-0.005599	-0.060633	6648.927010	43424.327364	3990.285165	23772.388499
52.036500	-0.021982	-0.096134	-0.010382	-0.304065	9417.742965	64884.148694	4757.435281	39413.076250
52.537000	-0.017889	-0.115066	-0.005009	-0.327540	9840.548086	65535.000000	4882.065349	41437.597405
53.034500	-0.018677	-0.061099	-0.004026	-0.251522	8726.273260	62438.778264	4574.363036	35259.454268
53.534500	-0.016129	-0.040702	0.002239	-0.218488	8335.810517	60734.036122	4476.835016	32893.879254
54.035000	-0.008748	-0.031382	0.004136	-0.174582	7902.699535	56314.058135	4335.405152	30015.842961
54.535500	-0.010640	-0.023204	-0.000667	-0.158977	7707.782846	55410.000377	4271.480476	29061.001146
55.038500	-0.011891	-0.023122	-0.010242	-0.170383	7819.947295	56814.888204	4277.092354	29755.476903
55.536000	-0.004548	-0.026127	0.006969	-0.189967	8130.409305	58909.323678	4395.065754	30991.404197
56.036000	0.006724	-0.017033	0.015914	-0.151184	7813.427010	55214.564701	4298.639776	28596.833295
56.536500	0.011129	-0.009597	0.018955	-0.091666	7235.757766	49312.990456	4133.309644	25313.816369
57.036500	0.020071	0.000146	0.035579	-0.047756	6905.475901	45808.613169	4060.817898	23164.432059
57.536500	0.034929	0.009015	0.042362	-0.011835	6718.982859	43223.004257	3988.269812	21560.694218
58.037000	0.049624	0.017852	0.056946	0.018505	6586.211429	41279.576324	3951.020505	20305.745944
58.535000	0.063910	0.026749	0.062887	0.048672	6456.234640	39449.723945	3896.323838	19141.927688
59.035000	0.077546	0.035331	0.082513	0.082698	6296.171414	37375.197249	3865.226233	17922.659521
59.534500	0.090582	0.041121	0.092539	0.116746	6138.908067	35209.327991	3815.591998	16794.579157
60.041000	0.103439	0.050161	0.112110	0.135743	6094.371980	34479.143254	3816.746647	16202.560698
60.536000	0.114413	0.056474	0.114573	0.164952	5965.754961	32862.200796	3764.551811	15341.345254
61.036000	0.131049	0.067200	0.139225	0.200189	5840.001310	31223.117763	3744.765874	14376.611782
61.536500	0.137582	0.072344	0.148675	0.201043	5877.826197	31503.365754	3760.796765	14354.187755
62.037000	0.148233	0.082611	0.156845	0.228971	5764.276879	30367.290442	3724.419078	13644.671294
62.537000	0.154722	0.089895	0.155882	0.239209	5740.229192	30181.706296	3704.518032	13395.788301
63.034500	0.162658	0.095217	0.164017	0.244905	5754.573059	30158.293329	3708.807273	13259.835144
63.537500	0.171141	0.099088	0.171442	0.246132	5801.542512	30324.195894	3719.817803	13230.779874
64.037500	0.173032	0.101792	0.174226	0.252434	5772.895640	30098.681157	3713.548892	13082.850024
64.538000	0.175909	0.104883	0.177444	0.259292	5747.284472	29864.555201	3707.115814	12924.281289
65.035500	0.184205	0.108480	0.179750	0.266276	5755.695124	29655.818503	3698.926655	12765.355074
65.536000	0.188319	0.111107	0.189949	0.273263	5737.306139	29389.455499	3704.539670	12608.899412
66.039000	0.191661	0.113635	0.193571	0.280585	5712.030701	29099.736200	3698.079773	12447.642551
66.536500	0.197711	0.115637	0.199213	0.286708	5711.568288	28853.165941	3697.243166	12314.840941
67.034500	0.199238	0.117365	0.193926	0.298396	5648.085196	28266.883799	3668.324567	12066.487305
67.537500	0.203508	0.119800	0.204446	0.300469	5661.682254	28287.934854	3682.572404	12023.127796
68.037500	0.207984	0.121613	0.206285	0.305096	5660.749224	28124.572603	3677.839202	11927.112657
68.535000	0.214833	0.124670	0.215909	0.309942	5673.206726	28021.242881	3685.970729	11827.630033
69.038000	0.213505	0.124940	0.216564	0.316003	5627.543187	27689.755166	3676.776838	11704.761408
69.536000	0.216233	0.126978	0.218945	0.317365	5635.927752	27728.242472	3678.502174	11677.398567
70.035500	0.221338	0.128370	0.220070	0.322141	5637.947026	27536.225273	3672.342501	11582.071671
70.536500	0.223531	0.130686	0.227522	0.327771	5616.891466	27349.706990	3675.409944	11471.055749
71.040000	0.223743	0.131374	0.231380	0.336762	5563.845020	26888.440144	3666.802904	11296.700273
71.537000	0.228249	0.131474	0.223001	0.336046	5595.270970	26933.368342	3654.140283	11310.459398
72.040500	0.230196	0.133297	0.232086	0.339957	5583.409186	26818.552881	3662.665127	11235.616088
72.537000	0.235293	0.134748	0.240887	0.342189	5600.730307	26775.738193	3673.636512	11193.206853
73.034000	0.235053	0.136813	0.240940	0.349020	5558.185727	26516.223896	3662.319440	11064.756105
73.535000	0.235765	0.138571	0.241652	0.347339	5572.507508	26703.175996	3666.294409	11096.177185
74.035500	0.242919	0.141116	0.245707	0.350987	5593.630511	26643.083755	3666.972856	11028.145513
74.536000	0.242399	0.141630	0.248265	0.353311	5576.484987	26544.722563	3667.363763	10985.093999
75.036000	0.241555	0.143471	0.248526	0.360707	5527.430398	26245.393215	3655.558112	10849.626343
75.536500	0.246564	0.143585	0.250579	0.358000	5573.330850	26396.892363	3663.412549	10898.933185
76.036500	0.250178	0.145575	0.251629	0.361457	5574.275985	26317.993242	3659.429541	10836.015220
76.537000	0.253492	0.146572	0.251302	0.363337	5582.903886	26270.590613	3655.796437	10801.999353
77.037500	0.255437	0.146916	0.262892	0.364520	5587.499416	26225.681971	3673.088650	10780.671648
77.534500	0.255600	0.148018	0.262311	0.367633	5569.758669	26118.402783	3666.903432	10724.837220
78.034500	0.255830	0.147647	0.265079	0.368819	5564.030302	26035.623886	3669.546452	10703.662833
78.538000	0.257244	0.147476	0.267925	0.370052	5565.113928	25961.221960	3672.249943	10681.710475
79.035500	0.256424	0.147601	0.267989	0.375305	5529.020659	25691.589750	3663.586408	10588.898261
79.535500	0.258052	0.147205	0.267889	0.373383	5550.063422	25771.556565	3666.616875	10622.737401
80.036500	0.258781	0.147459	0.271162	0.375328	5542.834126	25682.984500	3668.831856	10588.494338
80.536500	0.262304	0.146688	0.268041	0.376189	5558.675463	25597.928212	3662.206449	10573.399307
81.036500	0.261246	0.147293	0.268990	0.380043	5529.521759	25429.420843	3657.410882	10506.154065
81.537000	0.260862	0.147551	0.270548	0.378408	5536.910052	25527.391084	3662.682410	10534.596500
82.037000	0.262019	0.146551	0.271288	0.378605	5542.601807	25465.402297	3663.584824	10531.167188
82.537500	0.264646	0.148860	0.274538	0.381703	5539.810971	25424.584993	3663.836971	10477.365279
83.034500	0.265063	0.147358	0.272611	0.384564	5525.368089	25200.410671	3655.931376	10428.023061
83.535500	0.264715	0.147505	0.278165	0.382649	5534.616858	25306.053655	3668.301277	10461.012216
84.036000	0.268668	0.147508	0.276852	0.383724	5551.690146	25251.052405	3664.322778	10442.472231
84.535500	0.266891	0.148978	0.280081	0.385554	5530.307057	25232.622451	3666.651061	10411.015505
85.036000	0.265215	0.147971	0.277791	0.388698	5502.012467	25021.085537	3657.651530	10357.289668
85.536500	0.266157	0.147852	0.283842	0.385563	5525.924874	25174.563593	3672.931850	10410.865464
86.037000	0.263908	0.146384	0.282992	0.385862	5510.959251	25084.545477	3671.003718	10405.748778
86.537000	0.267469	0.146909	0.286132	0.386934	5525.582325	25056.704402	3674.477474	10387.389247
87.037500	0.266631	0.147813	0.283645	0.388537	5511.237223	25021.260825	3667.619973	10360.037596
87.535000	0.267457	0.146634	0.284043	0.387448	5522.483970	25016.688777	3670.106485	10378.616624
88.038000	0.265703	0.147345	0.286844	0.388548	5505.741076	24996.959991	3672.959874	10359.842760
88.535500	0.267665	0.147597	0.284998	0.389353	5512.514580	24968.958295	3668.516827	10346.156498
89.035500	0.268462	0.147839	0.282055	0.390551	5510.167431	24920.631177	3661.631010	10325.808578
89.536000	0.266606	0.148291	0.283314	0.390986	5496.776802	24921.476691	3662.994134	10318.429258
90.036500	0.268799	0.148511	0.287567	0.391769	5505.012005	24893.096220	3668.773261	10305.188247
90.536500	0.265023	0.149736	0.292905	0.393534	5472.826895	24865.842570	3674.769213	10275.397656
91.036000	0.267850	0.148268	0.291139	0.394678	5482.559520	24734.707936	3669.882137	10256.163983
91.537500	0.268953	0.147816	0.289169	0.392595	5501.083292	24816.501151	3670.070422	10291.227557
92.035000	0.265729	0.148224	0.291956	0.394442	5471.664511	24744.360740	3671.647978	10260.138026
92.537500	0.267689	0.147387	0.285417	0.394018	5485.450112	24723.648067	3661.456393	10267.251884
93.035000	0.266081	0.147093	0.280354	0.395552	5467.295026	24632.396325	3650.623028	10241.503227
93.538500	0.267905	0.148323	0.291865	0.396614	5471.685214	24640.750956	3667.858677	10223.724645
94.036000	0.268454	0.148262	0.292133	0.397213	5471.392567	24607.896875	3667.305770	10213.711313
94.536000	0.269705	0.149792	0.292222	0.399023	5468.169407	24593.945731	3664.441708	10183.550281
95.039000	0.269233	0.148186	0.294981	0.398458	5468.709491	24542.281529	3669.986866	10192.963380
95.537000	0.267457	0.148593	0.295149	0.399636	5451.742776	24504.017119	3668.294959	10173.362543
96.036500	0.270743	0.149355	0.297051	0.400501	5465.639447	24498.908439	3670.031278	10159.023859
