sample name	sample
index	866
start time	 04-08-2021  01:10:49 PM
880	0.303533
Peak Time (s)	101.535
Peak Height 	0.3035
calc peak height	100,103
Baseline Time (s)	8.537
Baseline Value 	-0.006519
subtract baseline	10,4
Abs	0.234693
Peak Time (s)	101.535
Peak Height 	0.2347
calc peak height	100,103
Baseline Time (s)	8.537
Baseline Value 	0.00236
subtract baseline	10,3
PK_550	0.118134
Peak Time (s)	101.535
Peak Height 	0.1181
calc peak height	100,103
Baseline Time (s)	11.536
Baseline Value 	1.1179E-4
subtract baseline	10,2
PK_880	0.211403
Peak Time (s)	101.535
Peak Height 	0.2114
calc peak height	100,103
Baseline Time (s)	10.037
Baseline Value 	0.001277
subtract baseline	10,1


Time (s)	A880-A510	A880-A775	A880-A975	A880	I510	I775	I975	I880	
0.037000	-0.001298	-0.000050	-0.001189	0.003204	6840.375473	42327.022258	3906.895744	22671.716458
0.538000	-0.000528	-0.000379	-0.005894	0.004366	6836.643257	42191.277069	3890.291290	22618.310621
1.035000	-0.004543	-0.000453	-0.000461	0.007308	6770.871023	41918.128604	3897.311151	22483.721049
1.536500	-0.002169	-0.000051	-0.001052	0.001755	6845.888962	42459.294351	3911.421433	22738.507634
2.036000	-0.000417	-0.000542	-0.001248	0.001132	6868.643284	42471.398772	3912.644661	22767.314139
2.536000	-0.000113	0.000123	-0.001333	0.001545	6867.587425	42494.458306	3911.217071	22748.201958
3.036500	-0.002380	-0.000734	0.000477	0.001055	6850.573526	42460.889449	3917.814386	22770.889070
3.536500	0.000581	0.000096	0.000409	0.000491	6884.403098	42588.601744	3919.237328	22796.954232
4.037000	0.001208	0.000058	0.001113	0.000349	6891.828101	42598.196576	3921.675228	22803.552511
4.537000	0.001640	0.000718	0.001709	0.000388	6895.625140	42655.280537	3923.283132	22801.745088
5.038500	0.002245	0.001301	0.000565	0.001040	6895.163369	42648.877512	3918.106349	22771.550963
5.535000	0.001315	0.000208	0.002209	0.000334	6892.997006	42613.364721	3924.883307	22804.231428
6.035500	0.003235	0.000784	-0.001130	0.000614	6908.870805	42640.541979	3914.464001	22791.262408
6.536000	-0.001407	0.000399	-0.000822	0.000298	6867.141020	42634.162978	3916.255318	22805.889955
7.036000	0.000871	0.000634	0.001435	0.000298	6889.063352	42655.796916	3922.750073	22805.907132
7.539000	-0.000100	0.000502	0.002193	0.000798	6874.895330	42597.705722	3923.496135	22782.756897
8.036500	0.001070	0.000767	0.002761	0.000683	6887.275853	42632.618655	3925.468971	22788.084840
8.536500	0.001380	-0.000043	0.000000	0.000000	6896.858375	42620.945268	3919.474740	22819.721600
9.037000	0.002001	0.000939	0.003800	0.000989	6893.306748	42620.334863	3927.591084	22773.937471
9.534500	-0.000498	-0.000839	-0.000718	-0.000632	6884.828554	42605.910462	3919.228755	22849.049305
10.037000	0.000000	0.000582	-0.000832	0.000413	6879.559884	42640.406004	3915.895498	22800.577027
10.535000	0.000288	-0.000170	0.001145	-0.000226	6888.498861	42630.078873	3923.426643	22830.198231
11.035500	-0.000095	0.000323	-0.000328	0.000257	6880.155947	42631.044944	3917.792301	22807.829463
11.535500	-0.000453	0.000000	0.000571	-0.000158	6880.689855	42639.415854	3921.574097	22827.030921
12.038500	0.000231	-0.000301	0.003390	-0.000351	6889.154461	42629.595269	3930.288723	22836.023766
12.536500	-0.000944	-0.000029	-0.000261	-0.000751	6881.684398	42691.324467	3920.885202	22854.581647
13.036500	0.002368	0.000052	0.002627	-0.000379	6910.094850	42664.580842	3928.156608	22837.293530
13.537000	0.000353	0.000191	-0.000658	0.001043	6876.888616	42546.731777	3914.588646	22771.410064
14.034500	-0.002714	0.000773	0.001581	0.002652	6832.144420	42452.664933	3916.395128	22697.131367
14.537500	0.000543	0.000585	-0.001448	0.002393	6865.748196	42459.172457	3908.468118	22709.072025
15.035000	0.000458	0.001232	-0.000488	0.000700	6881.208150	42673.886694	3916.060716	22787.307436
15.537500	0.000302	0.000669	-0.000240	0.000698	6879.719572	42622.252010	3916.777480	22787.378665
16.038000	-0.000028	0.000172	0.003597	-0.000244	6885.625265	42663.173483	3930.581064	22831.052943
16.539000	0.000736	0.000111	0.000899	-0.000294	6893.483432	42662.157057	3922.912949	22833.367375
17.036000	0.000635	-0.000497	0.000141	-0.002450	6913.375275	42804.767414	3926.952540	22933.623133
17.536500	-0.000043	-0.000013	0.002615	0.000714	6876.253470	42558.193017	3924.957687	22786.639044
18.036500	-0.000770	0.000647	0.000262	0.001523	6861.506233	42544.580199	3915.852670	22749.245938
18.537000	0.000783	0.000331	0.001042	0.001854	6873.234366	42485.289692	3917.141121	22733.969972
19.037000	0.002072	0.000996	0.000976	0.001982	6884.407199	42534.504657	3916.584015	22728.054465
19.537500	0.000402	0.000775	0.003176	0.001657	6871.464210	42543.911768	3923.853166	22743.036154
20.034500	-0.001796	0.000907	0.001624	0.001258	6854.213101	42592.683248	3920.528395	22761.471159
20.535500	0.001353	0.000632	0.003384	0.001296	6884.093653	42563.962657	3925.500747	22759.743505
21.035500	0.000782	0.000374	0.003107	0.001616	6875.514517	42510.977522	3923.772778	22744.950274
21.535500	0.000478	0.000905	-0.000480	0.001664	6872.124752	42555.304873	3913.319957	22742.727677
22.036500	-0.000654	-0.000120	0.001503	0.000912	6868.478852	42530.193298	3921.177543	22777.490809
22.536500	-0.001452	-0.000318	-0.001252	0.000686	6862.990710	42532.771643	3913.908392	22787.948875
23.037000	-0.001534	0.000596	0.001346	0.001396	6855.390504	42551.460071	3919.329955	22755.088017
23.537000	0.001014	-0.000396	0.001244	0.000852	6885.102870	42510.507085	3920.604359	22780.282258
24.037500	-0.000520	0.000599	0.002105	0.001490	6864.218707	42543.212355	3921.248017	22750.774031
24.535000	0.000487	0.000795	0.000765	0.001326	6875.466887	42576.222223	3917.861122	22758.352126
25.035500	-0.000908	0.000183	0.000582	0.001262	6862.677114	42525.868389	3917.518584	22761.289079
25.579000	0.000227	-0.000280	-0.001614	0.000844	6877.597676	42521.829090	3912.421140	22780.640096
26.044000	0.001535	0.000581	0.003524	0.001561	6883.288443	42535.032005	3925.137106	22747.499998
26.536000	0.001207	0.000221	0.002234	0.001496	6880.760904	42508.019249	3921.602792	22750.505445
27.036000	0.000455	0.000712	0.005110	0.001963	6869.027731	42510.080153	3928.563748	22728.897744
27.536500	0.002566	0.001669	-0.001410	0.001017	6898.489546	42684.889435	3912.508001	22772.614191
28.037000	0.002438	0.001711	-0.000296	0.000704	6900.277490	42717.577109	3916.599869	22787.103221
28.534500	0.000717	0.001224	-0.002132	0.002762	6863.880408	42483.818593	3905.468670	22692.071717
29.037000	-0.000024	0.000502	-0.002870	0.000645	6877.096823	42611.779016	3909.399091	22789.819048
29.534500	0.001369	0.000463	0.005407	-0.000064	6897.367381	42673.403586	3935.319671	22822.682587
30.035000	0.000695	0.000289	0.001693	0.000209	6888.224397	42632.207837	3923.753464	22810.017469
30.546500	-0.000056	0.000511	0.000600	0.003339	6850.951204	42365.932541	3911.616396	22665.528632
31.036000	-0.001047	0.000542	-0.003324	0.003230	6842.523258	42378.688200	3900.754559	22670.532274
31.536500	0.001254	0.001497	-0.000112	0.002078	6875.608344	42571.577738	3913.186292	22723.603436
32.036500	0.000992	0.001024	-0.000922	0.000397	6889.283319	42682.630538	3915.683700	22801.336803
32.537000	-0.001083	0.000631	0.001673	0.003335	6841.180633	42377.325299	3914.700587	22665.716938
33.037000	0.002006	0.000925	-0.000898	0.000765	6895.522075	42639.702782	3914.699537	22784.306503
33.534000	0.001986	0.001899	0.002067	0.001181	6891.303779	42690.967884	3922.028265	22765.055836
34.035000	-0.000312	0.000863	0.000246	0.002730	6854.318291	42453.717706	3912.343678	22693.533606
34.535500	-0.001182	0.000300	0.001824	0.002634	6846.930295	42411.110460	3917.147352	22697.985902
35.038500	0.000565	0.000452	0.001540	0.001718	6872.442991	42508.705863	3918.962114	22740.216126
35.535500	-0.000609	-0.000379	-0.000418	0.001666	6861.670664	42437.500542	3913.492456	22742.629824
36.036000	-0.000857	0.000973	0.004431	0.001991	6856.186919	42531.525913	3926.517668	22727.637909
36.536000	0.000565	-0.000373	0.000424	0.003009	6860.055650	42315.395820	3912.057430	22680.713695
37.037000	0.000422	0.001379	0.001077	0.002317	6865.314241	42538.858094	3915.912626	22712.590827
37.537000	0.000438	0.000410	-0.000457	0.001903	6869.450420	42487.997786	3912.700416	22731.693049
38.037000	-0.001253	0.000339	0.003959	0.001477	6857.313234	42520.484408	3926.635927	22751.338198
38.535000	-0.000643	0.001045	-0.000214	0.004250	6836.648198	42331.497480	3906.691761	22623.624932
39.035000	0.001041	0.000274	0.000740	0.002103	6873.317521	42457.259925	3915.559658	22722.479743
39.535500	0.000785	0.000711	0.003329	0.002666	6865.451399	42445.669723	3921.383111	22696.490080
40.035500	0.000112	0.000938	0.000192	0.002396	6861.595020	42491.266352	3913.147371	22708.966052
40.536000	-0.000038	0.000495	0.001902	0.002041	6863.557869	42483.111801	3919.076534	22725.330244
41.036000	-0.000404	-0.000310	0.000521	0.001885	6861.537459	42423.796519	3915.555371	22732.517348
41.536500	0.002405	0.000995	0.005601	0.002541	6882.225321	42483.068680	3928.310930	22702.245379
42.034000	0.000475	0.001054	0.006042	0.002771	6861.470016	42467.462708	3928.924618	22691.661417
42.537000	-0.000444	0.000743	-0.001301	0.002237	6857.783356	42487.837696	3909.332060	22716.269026
43.037500	-0.000538	0.001055	0.002819	0.002483	6854.534947	42494.007515	3920.443273	22704.953203
43.534500	0.001148	0.000738	0.000924	-0.000743	6901.805841	42761.269299	3924.281806	22854.198482
44.035000	0.001618	0.000681	0.005880	-0.000769	6906.601031	42758.356290	3938.756917	22855.384530
44.535500	0.000998	0.000407	0.003905	0.000380	6889.496417	42627.431954	3929.661436	22802.117423
45.035500	0.001288	0.001074	0.006021	0.000734	6888.883555	42656.171205	3934.784581	22785.728684
45.536000	0.000199	0.000110	-0.001391	0.000170	6883.820325	42619.473529	3914.991431	22811.851906
46.036500	0.001534	0.000949	0.002023	0.000846	6890.175141	42634.426780	3922.867953	22780.533941
46.536500	-0.002973	0.001310	0.002166	0.005943	6798.493065	42201.528724	3908.650842	22546.069888
47.036500	0.000582	0.000151	0.002055	0.002068	6869.248389	42449.224723	3919.438677	22724.082828
47.537000	0.000376	0.000408	0.000246	0.002755	6860.681507	42409.923836	3912.274410	22692.406154
48.037500	0.000287	0.000613	0.002130	0.000416	6882.297458	42643.032268	3924.415540	22800.433210
48.536500	0.000072	0.000496	-0.000178	0.005139	6834.991879	42200.621191	3904.265049	22582.873475
49.038000	0.000029	0.000119	0.001893	0.000162	6882.256152	42620.987877	3924.464599	22812.201083
49.544000	0.002079	0.000782	0.003963	-0.000892	6912.259929	42779.006835	3933.525738	22861.098799
50.036000	0.002345	0.000519	-0.001354	0.000882	6897.663486	42591.571223	3913.054968	22778.865431
50.536000	-0.004393	-0.001120	-0.000332	0.008445	6761.632383	41755.735812	3894.468590	22431.990550
51.036500	-0.035407	-0.017619	0.065268	0.300777	4628.217867	21890.916370	3396.271610	12758.205418
51.536500	-0.050735	-0.019121	0.008179	0.026516	6201.535997	38644.472658	3867.797575	21627.165546
52.037000	-0.026655	-0.015894	-0.010707	-0.127072	7972.261645	54266.857142	4303.545787	29663.487934
52.537500	-0.032892	-0.012809	-0.011003	-0.063718	7191.406368	47587.788512	4080.785957	26001.528881
53.037500	-0.016431	-0.009140	-0.015424	-0.094526	7708.039819	51294.731012	4169.192814	27715.632795
53.538000	-0.005024	-0.006407	-0.013308	-0.107673	7999.431600	53103.707148	4222.831385	28484.924152
54.035000	0.001661	-0.003480	-0.012677	-0.095794	7936.423619	52075.828481	4183.122696	27788.847418
54.536000	-0.001243	-0.002862	-0.008087	-0.048985	7369.862780	47096.046070	4042.903666	25223.781228
55.036000	0.001384	-0.002304	-0.000192	-0.042043	7323.685887	46448.558087	4045.923167	24866.412661
55.536500	-0.001530	-0.002844	0.003617	-0.020346	7068.847616	44265.936096	3990.382681	23785.445444
56.036500	0.001320	-0.002199	0.003644	-0.014835	7042.153267	43802.955847	3973.805959	23519.374472
56.536500	-0.005682	-0.003989	0.011584	0.017964	6661.756014	40657.972261	3901.246442	22003.850326
57.037000	0.007982	0.000869	0.011311	-0.005411	7014.621198	43206.208732	3968.541196	23072.176789
57.537500	0.012652	0.002418	0.008901	-0.009832	7105.917444	43766.471235	3974.570508	23280.755952
58.037500	0.017404	0.004586	0.021119	0.019363	6864.700341	41290.033644	3924.537998	21941.716471
58.535000	0.016478	0.005761	0.028592	0.036301	6696.802615	39915.277577	3897.483736	21205.158133
59.035500	0.020960	0.006833	0.033915	0.027836	6817.795218	40741.048029	3937.093773	21569.660348
59.535000	0.023742	0.010687	0.041013	0.032365	6801.252971	40681.979593	3944.612593	21373.741759
60.036000	0.027322	0.013295	0.040368	0.055376	6621.735711	38939.852210	3877.016495	20409.300762
60.536500	0.028446	0.014875	0.041845	0.068201	6517.433085	38014.025344	3845.874186	19893.539187
61.036500	0.034912	0.016901	0.046296	0.067745	6578.795122	38216.315749	3859.240197	19911.627513
61.537000	0.036953	0.018340	0.052200	0.067725	6597.253527	38335.858167	3875.581228	19912.431840
62.037500	0.039084	0.019760	0.049209	0.067666	6616.961274	38457.267798	3867.466692	19914.758454
62.535000	0.043890	0.021471	0.054038	0.067331	6663.630768	38626.041148	3881.795296	19928.051416
63.035000	0.045257	0.022699	0.056851	0.067673	6672.998363	38699.364538	3888.712684	19914.499041
63.535500	0.045860	0.022776	0.053487	0.067423	6680.810482	38726.446490	3880.002482	19924.411809
64.035500	0.050949	0.024666	0.061175	0.068116	6721.333022	38825.869280	3899.656493	19896.944135
64.536000	0.052419	0.026832	0.062965	0.069646	6720.770259	38878.738453	3900.391589	19836.377843
65.036500	0.055519	0.027026	0.063251	0.070665	6740.096474	38810.153591	3898.317554	19796.202700
65.536500	0.058199	0.028042	0.067316	0.073090	6742.473366	38693.255913	3902.967441	19700.922912
66.037000	0.058573	0.030307	0.070685	0.075606	6722.570654	38672.403236	3905.389108	19602.612650
66.537000	0.061834	0.031114	0.072232	0.084523	6670.505658	38007.368222	3884.595563	19258.814779
67.037500	0.066304	0.033230	0.066899	0.082158	6733.505337	38373.241285	3876.319940	19349.298089
67.538000	0.068127	0.033208	0.075240	0.085107	6723.064195	38130.298664	3891.398669	19236.558453
68.035000	0.069943	0.035126	0.081811	0.087558	6717.184886	38086.839954	3903.045350	19143.406089
68.535500	0.068549	0.036498	0.077404	0.094811	6637.956160	37611.117011	3870.366059	18870.794623
69.035500	0.072937	0.036809	0.077569	0.092148	6702.439427	37850.891554	3878.211854	18970.369594
69.536000	0.077232	0.039629	0.084069	0.096312	6703.649193	37742.336478	3884.729004	18814.951412
70.039000	0.078645	0.041326	0.090908	0.098488	6696.624398	37703.778950	3897.849477	18734.356568
70.536500	0.077815	0.042032	0.090021	0.106342	6617.464252	37132.682934	3873.371962	18446.703344
71.036500	0.082487	0.042610	0.088302	0.102000	6699.661239	37524.721572	3880.665987	18605.097284
71.537000	0.084682	0.044408	0.092782	0.105968	6683.358920	37351.253035	3882.094558	18460.300421
72.040000	0.089389	0.046056	0.095888	0.108388	6704.396348	37289.803625	3884.012911	18372.647153
72.535500	0.087819	0.046510	0.094836	0.116100	6619.684272	36716.863266	3859.748244	18096.521552
73.035500	0.092307	0.049011	0.102550	0.114058	6679.096700	37074.313490	3886.787633	18169.156219
73.535500	0.095602	0.050086	0.099384	0.116974	6682.569275	36929.053652	3869.861385	18065.536969
74.035500	0.098157	0.050609	0.102419	0.119356	6684.161956	36782.938979	3871.666301	17981.416404
74.536500	0.097808	0.052707	0.107280	0.128650	6596.630239	36223.108736	3859.458157	17657.522615
75.036500	0.104881	0.054266	0.109975	0.127036	6675.389980	36468.779062	3871.322645	17713.274167
75.539500	0.104106	0.054999	0.113232	0.130103	6640.364723	36287.914073	3871.848578	17607.521902
76.037000	0.107801	0.056913	0.112892	0.133803	6640.313437	36150.133011	3860.715056	17480.926075
76.537000	0.104773	0.056741	0.115028	0.140898	6549.495020	35595.491538	3847.191866	17241.170266
77.035000	0.110831	0.059253	0.121182	0.140670	6605.640809	35803.549863	3864.624647	17248.822356
77.535000	0.113672	0.060469	0.124595	0.143806	6602.992121	35657.581620	3865.388146	17144.035947
78.035500	0.115971	0.062451	0.122810	0.148611	6580.525505	35444.231107	3847.378567	16984.949854
78.535500	0.117634	0.062942	0.129055	0.151368	6570.754637	35273.929273	3856.876677	16894.459625
79.036000	0.121181	0.064171	0.129865	0.155346	6566.915107	35068.566079	3848.249807	16764.904588
79.536000	0.122517	0.065478	0.129888	0.159615	6540.877099	34848.591971	3836.779395	16627.155618
80.036000	0.124390	0.066667	0.136125	0.162511	6531.837477	34722.637538	3845.794848	16534.518833
80.536000	0.126763	0.068080	0.131985	0.170113	6485.958666	34269.807759	3814.416935	16294.189087
81.037500	0.129422	0.069871	0.139902	0.170818	6503.034079	34348.747181	3833.585879	16272.101002
81.537500	0.133303	0.069943	0.136253	0.173959	6509.520223	34126.062085	3815.530029	16174.190363
82.035000	0.132852	0.071621	0.140895	0.177635	6473.480315	33981.886843	3818.079646	16060.494343
82.535500	0.135320	0.073557	0.142336	0.186177	6421.052809	33510.047669	3799.456465	15800.010726
83.035500	0.138511	0.073675	0.148668	0.185390	6455.304921	33574.242747	3818.129308	15823.796168
83.535000	0.141810	0.077341	0.149321	0.189666	6446.857904	33530.950150	3808.585736	15695.050813
84.036000	0.143067	0.076813	0.152522	0.192375	6434.346943	33302.148446	3809.876820	15614.147370
84.536000	0.143776	0.079040	0.153367	0.200008	6375.250037	32923.811487	3792.193166	15388.887505
85.037000	0.147653	0.079828	0.163065	0.199557	6412.085965	33010.168785	3818.738710	15402.111308
85.537500	0.147826	0.079881	0.160733	0.202388	6389.423790	32817.015590	3805.156615	15319.462919
86.037000	0.150174	0.082050	0.159386	0.206671	6373.017071	32670.880959	3790.529284	15195.490304
86.535000	0.151098	0.082892	0.161479	0.213479	6323.565980	32262.234865	3778.424750	15000.898724
87.035000	0.155385	0.084244	0.170122	0.214141	6353.942988	32309.208201	3798.989662	14982.126998
87.535500	0.158828	0.086473	0.170497	0.218679	6344.744567	32152.344464	3788.216097	14854.315824
88.035500	0.160202	0.087609	0.174905	0.221488	6332.717858	32039.155211	3792.341549	14775.847770
88.536000	0.161344	0.088524	0.174764	0.228057	6287.583682	31659.960232	3775.128674	14594.356661
89.036500	0.162333	0.089329	0.179432	0.228044	6295.874667	31714.477750	3787.109321	14594.702890
89.536500	0.164743	0.088785	0.180029	0.230036	6299.343536	31545.727875	3783.526550	14540.214602
90.037000	0.165263	0.091763	0.178219	0.234268	6268.695670	31462.593952	3768.134135	14425.244213
90.540000	0.170725	0.093886	0.186938	0.241735	6252.246658	31111.112460	3771.307665	14225.113286
91.034500	0.171419	0.093822	0.187695	0.241469	6260.107148	31124.301257	3773.903794	14232.178081
91.537500	0.171927	0.094310	0.182159	0.244444	6239.934813	30962.122974	3752.471481	14153.349508
92.035000	0.176743	0.096787	0.187397	0.248467	6246.413398	30861.762494	3755.507352	14047.616193
92.535000	0.175937	0.097499	0.194329	0.254192	6193.452478	30538.832329	3758.529867	13898.815179
93.035500	0.180793	0.098462	0.195411	0.254399	6231.060660	30587.293151	3760.725242	13893.458121
93.535500	0.182773	0.099569	0.196786	0.257657	6220.683106	30449.608092	3756.002851	13809.686428
94.036500	0.183457	0.100796	0.197432	0.260496	6203.253929	30346.897912	3750.530800	13737.205712
94.536500	0.185689	0.103167	0.200159	0.267604	6164.122682	30047.212513	3739.681805	13557.789808
95.039500	0.187005	0.102968	0.200486	0.266980	6179.628586	30073.933359	3742.026544	13573.412814
95.537500	0.189655	0.103645	0.205446	0.270371	6173.699275	29903.518256	3745.909247	13488.722221
96.037500	0.190992	0.105071	0.210196	0.273211	6161.695195	29815.188953	3750.652519	13418.311892
96.535000	0.193429	0.106285	0.211696	0.278618	6138.088924	29554.819895	3740.971150	13285.508777
97.035500	0.195505	0.107937	0.211603	0.278958	6151.871906	29636.042824	3739.904723	13277.223069
97.535500	0.196553	0.108603	0.211747	0.281321	6141.428886	29531.062120	3734.448750	13219.747925
98.036000	0.197360	0.108198	0.212881	0.282911	6135.221109	29408.222352	3733.329803	13181.242643
98.536500	0.200748	0.110213	0.216885	0.286661	6132.357049	29301.806896	3733.952494	13090.995047
99.036500	0.201302	0.110777	0.217498	0.288307	6123.735571	29235.607348	3731.422862	13051.625039
99.539500	0.203958	0.113147	0.222553	0.292263	6113.491173	29138.992335	3734.114183	12957.624792
100.037000	0.205906	0.114168	0.222491	0.295002	6107.286608	29034.751309	3727.272002	12893.058107
100.537500	0.208505	0.114668	0.226949	0.296932	6112.538479	28948.197538	3733.445049	12847.776626
101.035000	0.209627	0.116146	0.225790	0.300183	6095.838620	28841.333434	3722.697116	12771.984333
101.535500	0.211403	0.118134	0.234693	0.303533	6083.546439	28759.575010	3736.248845	12694.480934
104.040000	0.218279	0.121817	0.237835	0.315425	6044.673500	28271.985869	3714.972506	12424.117484
106.145000	0.227699	0.126967	0.244544	0.326184	6034.369713	27944.080547	3705.268759	12185.800941
106.269000	0.223404	0.126386	0.246772	0.330971	5965.338843	27634.312318	3699.184742	12081.667916
106.370000	0.222972	0.124606	0.243855	0.328125	5983.548180	27695.506276	3699.016529	12143.442847
106.472500	0.226439	0.125926	0.248891	0.326930	6019.002845	27840.564129	3713.891722	12169.501303
106.571000	0.229094	0.126631	0.247228	0.327761	6032.974517	27833.271700	3707.911916	12151.366265
106.669500	0.227054	0.126245	0.247257	0.327056	6022.738124	27851.685303	3709.667170	12166.744293
106.760000	0.230058	0.128089	0.247405	0.328611	6033.853593	27868.439409	3706.303858	12132.854707
106.857500	0.228884	0.127456	0.247077	0.328463	6025.985346	27840.381334	3705.875975	12136.093338
106.956000	0.228716	0.127655	0.248333	0.328855	6021.692048	27829.190250	3707.939269	12127.556123
107.072500	0.229769	0.126666	0.250323	0.328812	6030.093758	27774.619887	3712.811988	12128.498041
107.536000	0.230892	0.127209	0.248799	0.329945	6030.017669	27740.582094	3706.448711	12103.887391
108.036500	0.232353	0.129322	0.250938	0.333545	6013.645585	27655.026236	3702.963388	12026.124848
108.536500	0.232989	0.131298	0.253874	0.337797	5986.159663	27524.746015	3699.839227	11935.123938
