sample name	sample
index	365
start time	 03-04-2021  11:38:14 AM


Wavelength (nm)	Absorbance
494.344910	-0.224676
494.563924	-0.224676
494.782919	-0.224676
495.001897	0.312455
495.220856	-0.027305
495.439797	0.005271
495.658719	0.026349
495.877624	-0.064107
496.096510	-0.087297
496.315378	-0.102099
496.534227	-0.088169
496.753059	-0.124931
496.971872	-0.118884
497.190667	0.053206
497.409444	0.077801
497.628203	0.082797
497.846943	0.087124
498.065665	0.088349
498.284369	0.090199
498.503055	0.090209
498.721723	0.091159
498.940372	0.091832
499.159003	0.092257
499.377616	0.091930
499.596210	0.092088
499.814787	0.092293
500.033345	0.092153
500.251885	0.092471
500.470406	0.093067
500.688910	0.090986
500.907395	0.090781
501.125862	0.090844
501.344311	0.090832
501.562742	0.091456
501.781154	0.092508
501.999548	0.093265
502.217924	0.093456
502.436282	0.093426
502.654621	0.095756
502.872942	0.096246
503.091245	0.095885
503.309530	0.095281
503.527797	0.095219
503.746045	0.094507
503.964275	0.093880
504.182487	0.092981
504.400681	0.092065
504.618856	0.092101
504.837013	0.093228
505.055152	0.093538
505.273273	0.094474
505.491376	0.094691
505.709460	0.094691
505.927526	0.095596
506.145574	0.095998
506.363604	0.096347
506.581615	0.096076
506.799608	0.095296
507.017583	0.095062
507.235540	0.094012
507.453478	0.093379
507.671399	0.094004
507.889301	0.092853
508.107185	0.093040
508.325050	0.093316
508.542898	0.092966
508.760727	0.092195
508.978538	0.091959
509.196330	0.093224
509.414105	0.093453
509.631861	0.092945
509.849599	0.094150
510.067319	0.094300
510.285021	0.094911
510.502704	0.095170
510.720369	0.095274
510.938016	0.096166
511.155645	0.095964
511.373255	0.096445
511.590848	0.097503
511.808422	0.097300
512.025977	0.098074
512.243515	0.098502
512.461034	0.098396
512.678536	0.098613
512.896018	0.098829
513.113483	0.099606
513.330930	0.099885
513.548358	0.098587
513.765768	0.098942
513.983160	0.098775
514.200533	0.097974
514.417889	0.098186
514.635226	0.098807
514.852545	0.099481
515.069845	0.099551
515.287128	0.099535
515.504392	0.100710
515.721638	0.100904
515.938866	0.099805
516.156075	0.099912
516.373267	0.101452
516.590440	0.102115
516.807594	0.101658
517.024731	0.100833
517.241850	0.100504
517.458950	0.100484
517.676032	0.100783
517.893095	0.100824
518.110141	0.101431
518.327168	0.100605
518.544177	0.100481
518.761168	0.100378
518.978141	0.101068
519.195095	0.100921
519.412031	0.100461
519.628949	0.099937
519.845849	0.101415
520.062731	0.102118
520.279594	0.102303
520.496439	0.102502
520.713266	0.102865
520.930074	0.103030
521.146865	0.103035
521.363637	0.103744
521.580391	0.104030
521.797127	0.103354
522.013844	0.103463
522.230543	0.103511
522.447224	0.103361
522.663887	0.103378
522.880532	0.103939
523.097158	0.104878
523.313766	0.105247
523.530356	0.105668
523.746928	0.106327
523.963481	0.106670
524.180017	0.107046
524.396534	0.107608
524.613032	0.108103
524.829513	0.107565
525.045975	0.108152
525.262420	0.107972
525.478845	0.108310
525.695253	0.108555
525.911643	0.108723
526.128014	0.108830
526.344367	0.109184
526.560702	0.109346
526.777018	0.110196
526.993316	0.110304
527.209597	0.111151
527.425858	0.111870
527.642102	0.112055
527.858328	0.111591
528.074535	0.111967
528.290724	0.112110
528.506894	0.112474
528.723047	0.112810
528.939181	0.112752
529.155297	0.112764
529.371395	0.112477
529.587475	0.112598
529.803536	0.113053
530.019579	0.113395
530.235604	0.113920
530.451611	0.114142
530.667600	0.114275
530.883570	0.115084
531.099522	0.115129
531.315456	0.115413
531.531372	0.115783
531.747269	0.116369
531.963148	0.117122
532.179009	0.117095
532.394852	0.117852
532.610676	0.118275
532.826482	0.118039
533.042271	0.118672
533.258040	0.118926
533.473792	0.119724
533.689525	0.119964
533.905240	0.119932
534.120937	0.119620
534.336616	0.119671
534.552277	0.119458
534.767919	0.120021
534.983543	0.119821
535.199149	0.120087
535.414736	0.119852
535.630306	0.119702
535.845857	0.119481
536.061390	0.120175
536.276904	0.119933
536.492401	0.120043
536.707879	0.120475
536.923339	0.121238
537.138781	0.121478
537.354204	0.122200
537.569610	0.122831
537.784997	0.123403
538.000366	0.123161
538.215716	0.123600
538.431049	0.124303
538.646363	0.124075
538.861659	0.124060
539.076937	0.124054
539.292196	0.123899
539.507438	0.124202
539.722661	0.124209
539.937866	0.124994
540.153052	0.125404
540.368221	0.125367
540.583371	0.125907
540.798503	0.126278
541.013617	0.126783
541.228712	0.126708
541.443789	0.126707
541.658848	0.126723
541.873889	0.127009
542.088912	0.127226
542.303916	0.127450
542.518902	0.127126
542.733870	0.127341
542.948820	0.127721
543.163752	0.128154
543.378665	0.128383
543.593560	0.128864
543.808437	0.129117
544.023295	0.129463
544.238136	0.129993
544.452958	0.130185
544.667762	0.130438
544.882548	0.130227
545.097315	0.130294
545.312064	0.130785
545.526795	0.130945
545.741508	0.131172
545.956203	0.131331
546.170879	0.131252
546.385537	0.131698
546.600177	0.131247
546.814799	0.131541
547.029402	0.132031
547.243988	0.132057
547.458555	0.132138
547.673103	0.131942
547.887634	0.131878
548.102146	0.131897
548.316640	0.132184
548.531116	0.132757
548.745574	0.133281
548.960013	0.133367
549.174435	0.133268
549.388838	0.132932
549.603222	0.132956
549.817589	0.132951
550.031937	0.133316
550.246267	0.133391
550.460579	0.133130
550.674873	0.133262
550.889148	0.132894
551.103405	0.133157
551.317644	0.134215
551.531865	0.134496
551.746068	0.134620
551.960252	0.134611
552.174418	0.134891
552.388566	0.135523
552.602696	0.135267
552.816807	0.135617
553.030900	0.135558
553.244975	0.135291
553.459032	0.135506
553.673070	0.136034
553.887091	0.135994
554.101093	0.136204
554.315077	0.136139
554.529042	0.136370
554.742990	0.136606
554.956919	0.137148
555.170830	0.137430
555.384722	0.137625
555.598597	0.137495
555.812453	0.137667
556.026291	0.137562
556.240111	0.137797
556.453913	0.138023
556.667696	0.138619
556.881461	0.138908
557.095208	0.138937
557.308937	0.139166
557.522647	0.139458
557.736339	0.139706
557.950013	0.140020
558.163669	0.140124
558.377307	0.140324
558.590926	0.140551
558.804527	0.140610
559.018110	0.141267
559.231675	0.141407
559.445221	0.141199
559.658749	0.141344
559.872259	0.141182
560.085751	0.141647
560.299225	0.141350
560.512680	0.141388
560.726117	0.141030
560.939536	0.140570
561.152937	0.141021
561.366319	0.141606
561.579683	0.141831
561.793029	0.141948
562.006357	0.142128
562.219667	0.142836
562.432958	0.142444
562.646231	0.142867
562.859486	0.143053
563.072723	0.142638
563.285941	0.142424
563.499141	0.142296
563.712323	0.142502
563.925487	0.142490
564.138632	0.142346
564.351760	0.142738
564.564869	0.142881
564.777960	0.143016
564.991032	0.143121
565.204087	0.143807
565.417123	0.144228
565.630141	0.144223
565.843140	0.144058
566.056122	0.143973
566.269085	0.144075
566.482030	0.144110
566.694957	0.144268
566.907866	0.144887
567.120756	0.144795
567.333628	0.144829
567.546482	0.145263
567.759318	0.145632
567.972135	0.145790
568.184935	0.145802
568.397716	0.145900
568.610478	0.145756
568.823223	0.145318
569.035949	0.145363
569.248657	0.145643
569.461347	0.145722
569.674019	0.145750
569.886672	0.146082
570.099308	0.146264
570.311925	0.146381
570.524523	0.146441
570.737104	0.146782
570.949666	0.146816
571.162210	0.146725
571.374736	0.146797
571.587244	0.146630
571.799733	0.146493
572.012205	0.146627
572.224658	0.146765
572.437092	0.147226
572.649509	0.147304
572.861907	0.147322
573.074287	0.147558
573.286649	0.147647
573.498993	0.148054
573.711318	0.148586
573.923625	0.148171
574.135914	0.147884
574.348185	0.148002
574.560438	0.148270
574.772672	0.148352
574.984888	0.148554
575.197086	0.148816
575.409266	0.148696
575.621427	0.148786
575.833570	0.149106
576.045695	0.149538
576.257802	0.149340
576.469890	0.149023
576.681961	0.149238
576.894013	0.149258
577.106046	0.149253
577.318062	0.149568
577.530059	0.149296
577.742039	0.149714
577.954000	0.149811
578.165942	0.150602
578.377867	0.150833
578.589773	0.150809
578.801661	0.150899
579.013531	0.151134
579.225382	0.151135
579.437216	0.151422
579.649031	0.151377
579.860828	0.151485
580.072606	0.151062
580.284367	0.151044
580.496109	0.151287
580.707833	0.151381
580.919539	0.151214
581.131227	0.151233
581.342896	0.151250
581.554547	0.151471
581.766180	0.151724
581.977795	0.152112
582.189391	0.152473
582.400969	0.152589
582.612529	0.152491
582.824071	0.152493
583.035595	0.152757
583.247100	0.152825
583.458587	0.153259
583.670056	0.153136
583.881506	0.153039
584.092939	0.153153
584.304353	0.153235
584.515749	0.153416
584.727127	0.153707
584.938486	0.153883
585.149828	0.154075
585.361151	0.153611
585.572456	0.153984
585.783742	0.154323
585.995011	0.154170
586.206261	0.154456
586.417493	0.154442
586.628706	0.154551
586.839902	0.154613
587.051079	0.154666
587.262238	0.155002
587.473379	0.154771
587.684502	0.154663
587.895606	0.154760
588.106692	0.154660
588.317760	0.154892
588.528810	0.155042
588.739841	0.155057
588.950855	0.155352
589.161850	0.155365
589.372827	0.155589
589.583785	0.155493
589.794726	0.155905
590.005648	0.156163
590.216552	0.156172
590.427437	0.156495
590.638305	0.156795
590.849154	0.156923
591.059985	0.156981
591.270798	0.157128
591.481592	0.157564
591.692369	0.157869
591.903127	0.158237
592.113867	0.158808
592.324588	0.158993
592.535292	0.159395
592.745977	0.159682
592.956644	0.160124
593.167293	0.160520
593.377923	0.160744
593.588536	0.160403
593.799130	0.160217
594.009706	0.160182
594.220263	0.160137
594.430803	0.159828
594.641324	0.159652
594.851827	0.159738
595.062312	0.159637
595.272778	0.159581
595.483227	0.159864
595.693657	0.160228
595.904069	0.159928
596.114462	0.159956
596.324838	0.160184
596.535195	0.160606
596.745534	0.160559
596.955855	0.160994
597.166157	0.161239
597.376441	0.161475
597.586707	0.161225
597.796955	0.161521
598.007185	0.161786
598.217396	0.161848
598.427589	0.161659
598.637764	0.161747
598.847921	0.161449
599.058060	0.161515
599.268180	0.161388
599.478282	0.161630
599.688366	0.161810
599.898431	0.161784
600.108479	0.161955
600.318508	0.162277
600.528519	0.162352
600.738511	0.162575
600.948486	0.162621
601.158442	0.162831
601.368380	0.163011
601.578300	0.162986
601.788202	0.163256
601.998085	0.163240
602.207950	0.163332
602.417797	0.163605
602.627626	0.163897
602.837436	0.163801
603.047228	0.164047
603.257002	0.164137
603.466758	0.164346
603.676496	0.164426
603.886215	0.164739
604.095916	0.164528
604.305599	0.164459
604.515264	0.164573
604.724910	0.164654
604.934538	0.164732
605.144148	0.164440
605.353740	0.164807
605.563314	0.164599
605.772869	0.164785
605.982406	0.164942
606.191925	0.164968
606.401425	0.164960
606.610908	0.165243
606.820372	0.165487
607.029818	0.166100
607.239246	0.166146
607.448655	0.166212
607.658047	0.166093
607.867420	0.166323
608.076775	0.166321
608.286111	0.166420
608.495430	0.166518
608.704730	0.166562
608.914012	0.166395
609.123275	0.166371
609.332521	0.166916
609.541748	0.167130
609.750957	0.167200
609.960148	0.167707
610.169321	0.167731
610.378475	0.167841
610.587611	0.167945
610.796729	0.167866
611.005829	0.167974
611.214910	0.167868
611.423974	0.167614
611.633019	0.167656
611.842045	0.167749
612.051054	0.167590
612.260044	0.167994
612.469017	0.167898
612.677970	0.168222
612.886906	0.168279
613.095824	0.168235
613.304723	0.168797
613.513604	0.168465
613.722467	0.168615
613.931311	0.169114
614.140138	0.168950
614.348946	0.169075
614.557736	0.168996
614.766507	0.168919
614.975261	0.169040
615.183996	0.168945
615.392713	0.169665
615.601412	0.169623
615.810092	0.169692
616.018754	0.169684
616.227399	0.169975
616.436024	0.170266
616.644632	0.170555
616.853222	0.170736
617.061793	0.170844
617.270346	0.171095
617.478880	0.171036
617.687397	0.171087
617.895895	0.171142
618.104375	0.170871
618.312837	0.170864
618.521281	0.171106
618.729706	0.171177
618.938113	0.171109
619.146502	0.171022
619.354873	0.171183
619.563226	0.171278
619.771560	0.171465
619.979876	0.171542
620.188174	0.171510
620.396453	0.171428
620.604715	0.171201
620.812958	0.171302
621.021183	0.171217
621.229390	0.171457
621.437578	0.171631
621.645748	0.171634
621.853900	0.171714
622.062034	0.171735
622.270150	0.171813
622.478247	0.172165
622.686326	0.171921
622.894387	0.172038
623.102430	0.172062
623.310454	0.171548
623.518461	0.171668
623.726449	0.172007
623.934418	0.172299
624.142370	0.172454
624.350303	0.172692
624.558218	0.173407
624.766115	0.173560
624.973994	0.173815
625.181855	0.174462
625.389697	0.174622
625.597521	0.174557
625.805327	0.174768
626.013114	0.174937
626.220883	0.174713
626.428634	0.174381
626.636367	0.174450
626.844082	0.174443
627.051778	0.174477
627.259457	0.174559
627.467117	0.174824
627.674758	0.174611
627.882382	0.174552
628.089987	0.175095
628.297574	0.175184
628.505143	0.175129
628.712694	0.175040
628.920226	0.175200
629.127740	0.175266
629.335236	0.175099
629.542714	0.175245
629.750174	0.175529
629.957615	0.175295
630.165038	0.175587
630.372443	0.175802
630.579829	0.176110
630.787198	0.176327
630.994548	0.176483
631.201880	0.176837
631.409194	0.176969
631.616489	0.176842
631.823766	0.177160
632.031025	0.177540
632.238266	0.177650
632.445489	0.177455
632.652693	0.177375
632.859879	0.177346
633.067047	0.177414
633.274197	0.177552
633.481329	0.177869
633.688442	0.177716
633.895537	0.177286
634.102614	0.177489
634.309672	0.177765
634.516713	0.178041
634.723735	0.178468
634.930739	0.178543
635.137724	0.178550
635.344692	0.178584
635.551641	0.178741
635.758572	0.178942
635.965485	0.178807
636.172379	0.179037
636.379256	0.178881
636.586114	0.178689
636.792954	0.178807
636.999775	0.179266
637.206579	0.179428
637.413364	0.179545
637.620131	0.179935
637.826880	0.180302
638.033610	0.180208
638.240323	0.180235
638.447017	0.180574
638.653692	0.180877
638.860350	0.180921
639.066990	0.180922
639.273611	0.181158
639.480214	0.181216
639.686798	0.181203
639.893365	0.181442
640.099913	0.181682
640.306443	0.181705
640.512955	0.181660
640.719449	0.181641
640.925924	0.181782
641.132381	0.181829
641.338820	0.181913
641.545241	0.182148
641.751644	0.182311
641.958028	0.182564
642.164394	0.182755
642.370742	0.182581
642.577071	0.182766
642.783383	0.182960
642.989676	0.183052
643.195951	0.183121
643.402207	0.183163
643.608446	0.183145
643.814666	0.183344
644.020868	0.183508
644.227052	0.184067
644.433218	0.184059
644.639365	0.184302
644.845494	0.184466
645.051605	0.184611
645.257698	0.184750
645.463772	0.184806
645.669828	0.184600
645.875866	0.184570
646.081886	0.184644
646.287888	0.184958
646.493871	0.184826
646.699836	0.184854
646.905783	0.185020
647.111712	0.184882
647.317622	0.185208
647.523514	0.185365
647.729388	0.185399
647.935244	0.185345
648.141082	0.185597
648.346901	0.185636
648.552702	0.185767
648.758485	0.185820
648.964250	0.186304
649.169996	0.186302
649.375724	0.186542
649.581434	0.186866
649.787126	0.187174
649.992800	0.187017
650.198455	0.187199
650.404092	0.187372
650.609711	0.187584
650.815311	0.187567
651.020894	0.187850
651.226458	0.187964
651.432004	0.188270
651.637532	0.188288
651.843041	0.188559
652.048532	0.188728
652.254006	0.188816
652.459460	0.188894
652.664897	0.189044
652.870315	0.189132
653.075716	0.189335
653.281097	0.189372
653.486461	0.189572
653.691807	0.189566
653.897134	0.189696
654.102443	0.190147
654.307734	0.190477
654.513006	0.190534
654.718261	0.190692
654.923497	0.190971
655.128715	0.191151
655.333915	0.191565
655.539096	0.191909
655.744259	0.192263
655.949404	0.192156
656.154531	0.192194
656.359640	0.192633
656.564730	0.192752
656.769802	0.192735
656.974856	0.192729
657.179892	0.192772
657.384909	0.192888
657.589908	0.193185
657.794889	0.193386
657.999852	0.193510
658.204797	0.193630
658.409723	0.193725
658.614631	0.193954
658.819521	0.194000
659.024393	0.193929
659.229246	0.193992
659.434081	0.193892
659.638898	0.194025
659.843697	0.194049
660.048478	0.193953
660.253240	0.194344
660.457984	0.194554
660.662710	0.194894
660.867417	0.195080
661.072107	0.195252
661.276778	0.195408
661.481431	0.195619
661.686066	0.195830
661.890682	0.196169
662.095281	0.196265
662.299861	0.196233
662.504422	0.196179
662.708966	0.196568
662.913491	0.196815
663.117999	0.196597
663.322488	0.196815
663.526958	0.197131
663.731411	0.197310
663.935845	0.197331
664.140261	0.197424
664.344659	0.197569
664.549038	0.197631
664.753400	0.197606
664.957743	0.198300
665.162068	0.198570
665.366375	0.198657
665.570663	0.198625
665.774933	0.199135
665.979185	0.199347
666.183419	0.199676
666.387635	0.199742
666.591832	0.199933
666.796011	0.199949
667.000172	0.200014
667.204315	0.200041
667.408439	0.200252
667.612545	0.200108
667.816634	0.200337
668.020703	0.200446
668.224755	0.200621
668.428788	0.200750
668.632803	0.200905
668.836800	0.200888
669.040779	0.201212
669.244739	0.201393
669.448681	0.201585
669.652605	0.201706
669.856511	0.201781
670.060399	0.201986
670.264268	0.202481
670.468119	0.202540
670.671952	0.202969
670.875767	0.203105
671.079563	0.203349
671.283341	0.203564
671.487101	0.203837
671.690843	0.204217
671.894567	0.204301
672.098272	0.204245
672.301959	0.204479
672.505628	0.204382
672.709278	0.204488
672.912911	0.204672
673.116525	0.204675
673.320121	0.204712
673.523699	0.204620
673.727258	0.204852
673.930799	0.205161
674.134322	0.205396
674.337827	0.205665
674.541314	0.205950
674.744782	0.205884
674.948232	0.206095
675.151664	0.206271
675.355078	0.206747
675.558474	0.206770
675.761851	0.206782
675.965210	0.206985
676.168551	0.207151
676.371873	0.207262
676.575178	0.207661
676.778464	0.207706
676.981732	0.207666
677.184981	0.207630
677.388213	0.207887
677.591426	0.208066
677.794621	0.208252
677.997798	0.208398
678.200956	0.208539
678.404097	0.208486
678.607219	0.208607
678.810323	0.208991
679.013408	0.209034
679.216476	0.209315
679.419525	0.209439
679.622556	0.209502
679.825569	0.209598
680.028563	0.209612
680.231540	0.210000
680.434498	0.210305
680.637438	0.210554
680.840359	0.210781
681.043263	0.210680
681.246148	0.210982
681.449015	0.210963
681.651864	0.211027
681.854694	0.211273
682.057506	0.211432
682.260301	0.211640
682.463076	0.211583
682.665834	0.211599
682.868573	0.212068
683.071295	0.212077
683.273998	0.212313
683.476682	0.212598
683.679349	0.212684
683.881997	0.212813
684.084627	0.212807
684.287239	0.212674
684.489833	0.212864
684.692408	0.212549
684.894965	0.212634
685.097504	0.212880
685.300025	0.213118
685.502527	0.212987
685.705012	0.212786
685.907478	0.212791
686.109925	0.213179
686.312355	0.213421
686.514766	0.213670
686.717159	0.213922
686.919534	0.213855
687.121891	0.213764
687.324230	0.214362
687.526550	0.214559
687.728852	0.214841
687.931136	0.215168
688.133401	0.215084
688.335649	0.215134
688.537878	0.214940
688.740089	0.215002
688.942281	0.215210
689.144456	0.215177
689.346612	0.215519
689.548750	0.215559
689.750870	0.215516
689.952971	0.215574
690.155055	0.215837
690.357120	0.215855
690.559167	0.216079
690.761195	0.216176
690.963206	0.216329
691.165198	0.216402
691.367172	0.216462
691.569128	0.216448
691.771065	0.216906
691.972984	0.217054
692.174885	0.217507
692.376768	0.217681
692.578633	0.217872
692.780479	0.217965
692.982308	0.218109
693.184118	0.218389
693.385909	0.218502
693.587683	0.218662
693.789438	0.218623
693.991175	0.218486
694.192894	0.218612
694.394595	0.218668
694.596277	0.218609
694.797941	0.218404
694.999587	0.218653
695.201215	0.218993
695.402824	0.218821
695.604416	0.218989
695.805989	0.219056
696.007543	0.218963
696.209080	0.219052
696.410598	0.219234
696.612099	0.219454
696.813580	0.219164
697.015044	0.219188
697.216490	0.219322
697.417917	0.219357
697.619326	0.219796
697.820717	0.219844
698.022089	0.219782
698.223444	0.219958
698.424780	0.220036
698.626098	0.220308
698.827397	0.220405
699.028679	0.220544
699.229942	0.220749
699.431187	0.220624
699.632414	0.221053
699.833622	0.221290
700.034813	0.221194
700.235985	0.221518
700.437139	0.221605
700.638274	0.221657
700.839392	0.222074
701.040491	0.222340
701.241572	0.222527
701.442635	0.222409
701.643679	0.222482
701.844706	0.222780
702.045714	0.222814
702.246704	0.222699
702.447675	0.222960
702.648629	0.222667
702.849564	0.222784
703.050481	0.223037
703.251380	0.223318
703.452260	0.223574
703.653122	0.223611
703.853966	0.223581
704.054792	0.223865
704.255600	0.223629
704.456389	0.223663
704.657160	0.223401
704.857913	0.223165
705.058648	0.223202
705.259365	0.222930
705.460063	0.222741
705.660743	0.222697
705.861405	0.222608
706.062048	0.222788
706.262674	0.222818
706.463281	0.222725
706.663870	0.222720
706.864441	0.222347
707.064993	0.222195
707.265527	0.222248
707.466043	0.222262
707.666541	0.222339
707.867021	0.222425
708.067482	0.222303
708.267925	0.222499
708.468350	0.222623
708.668757	0.222664
708.869145	0.222905
709.069516	0.222949
709.269868	0.223070
709.470201	0.223182
709.670517	0.223286
709.870814	0.223372
710.071093	0.223387
710.271354	0.223392
710.471597	0.223712
710.671821	0.223858
710.872028	0.223656
711.072216	0.223698
711.272385	0.223615
711.472537	0.223297
711.672670	0.223371
711.872785	0.223305
712.072882	0.223255
712.272961	0.223185
712.473021	0.223117
712.673063	0.223539
712.873087	0.223455
713.073093	0.223673
713.273081	0.223636
713.473050	0.223749
713.673001	0.223792
713.872934	0.224157
714.072849	0.224247
714.272745	0.224212
714.472623	0.223948
714.672483	0.224052
714.872325	0.223784
715.072148	0.224057
715.271954	0.224016
715.471741	0.224077
715.671509	0.223680
715.871260	0.223630
716.070992	0.223552
716.270707	0.223614
716.470403	0.223461
716.670080	0.223446
716.869740	0.223334
717.069381	0.223271
717.269004	0.222993
717.468609	0.223142
717.668195	0.222958
717.867764	0.222901
718.067314	0.222615
718.266846	0.222528
718.466360	0.222410
718.665855	0.222227
718.865332	0.222124
719.064791	0.222270
719.264232	0.222011
719.463655	0.221794
719.663059	0.221689
719.862445	0.221950
720.061813	0.221829
720.261163	0.221932
720.460494	0.221869
720.659807	0.221817
720.859102	0.221525
721.058379	0.221441
721.257638	0.221405
721.456878	0.221309
721.656100	0.221132
721.855304	0.221087
722.054490	0.221091
722.253657	0.221009
722.452806	0.221060
722.651937	0.221182
722.851050	0.221101
723.050145	0.221135
723.249221	0.221090
723.448279	0.220990
723.647319	0.220882
723.846340	0.220502
724.045344	0.220618
724.244329	0.220308
724.443296	0.220082
724.642245	0.220107
724.841175	0.219994
725.040088	0.219842
725.238982	0.219727
725.437857	0.219812
725.636715	0.219845
725.835554	0.219611
726.034376	0.219476
726.233179	0.219284
726.431963	0.219188
726.630730	0.219250
726.829478	0.219273
727.028208	0.219505
727.226920	0.219392
727.425614	0.219374
727.624289	0.219203
727.822946	0.219162
728.021585	0.219262
728.220206	0.219214
728.418808	0.218820
728.617392	0.218807
728.815958	0.218451
729.014506	0.218368
729.213036	0.218323
729.411547	0.218553
729.610040	0.218601
729.808515	0.218844
730.006972	0.218628
730.205410	0.218804
730.403831	0.218840
730.602233	0.218835
730.800616	0.218739
730.998982	0.218731
731.197329	0.218517
731.395658	0.218382
731.593969	0.217884
731.792262	0.217618
731.990536	0.217121
732.188793	0.216725
732.387031	0.216614
732.585250	0.216444
732.783452	0.215848
732.981635	0.215374
733.179800	0.214975
733.377947	0.214811
733.576076	0.214719
733.774186	0.214754
733.972278	0.214650
734.170352	0.214179
734.368408	0.213950
734.566446	0.214022
734.764465	0.213930
734.962466	0.213842
735.160449	0.213602
735.358413	0.213417
735.556360	0.213242
735.754288	0.212966
735.952198	0.213013
736.150090	0.212937
736.347963	0.212560
736.545818	0.212644
736.743655	0.212877
736.941474	0.212898
737.139275	0.213096
737.337057	0.212921
737.534821	0.212992
737.732567	0.212798
737.930295	0.212591
738.128005	0.212827
738.325696	0.212647
738.523369	0.212175
738.721024	0.211785
738.918660	0.211392
739.116279	0.211365
739.313879	0.211230
739.511461	0.211200
739.709024	0.211047
739.906570	0.210898
740.104097	0.210909
740.301606	0.210904
740.499097	0.211116
740.696569	0.211095
740.894024	0.211116
741.091460	0.211004
741.288878	0.210884
741.486277	0.210743
741.683659	0.210530
741.881022	0.210226
742.078367	0.210030
742.275694	0.209661
742.473002	0.209343
742.670293	0.209230
742.867565	0.209000
743.064819	0.208929
743.262054	0.208882
743.459272	0.208619
743.656471	0.208117
743.853652	0.207848
744.050815	0.207695
744.247959	0.207356
744.445085	0.207041
744.642194	0.206924
744.839283	0.206581
745.036355	0.206277
745.233408	0.206302
745.430444	0.206351
745.627461	0.206195
745.824459	0.206081
746.021440	0.206255
746.218402	0.205987
746.415346	0.205643
746.612272	0.205354
746.809180	0.205065
747.006069	0.204866
747.202940	0.204698
747.399793	0.204608
747.596628	0.204869
747.793444	0.204699
747.990243	0.204643
748.187023	0.204583
748.383784	0.204566
748.580528	0.204603
748.777253	0.204463
748.973960	0.204305
749.170649	0.204109
749.367320	0.203575
749.563973	0.203350
749.760607	0.203263
749.957223	0.203151
750.153821	0.203001
750.350400	0.202891
750.546962	0.202576
750.743505	0.202502
750.940030	0.202369
751.136536	0.202160
751.333025	0.202056
751.529495	0.201623
751.725947	0.201347
751.922381	0.201123
752.118796	0.200759
752.315194	0.200672
752.511573	0.200503
752.707934	0.200165
752.904276	0.200151
753.100601	0.199955
753.296907	0.200029
753.493195	0.199931
753.689465	0.199781
753.885716	0.199731
754.081949	0.199682
754.278164	0.199678
754.474361	0.199641
754.670540	0.199359
754.866700	0.199226
755.062843	0.199003
755.258967	0.198975
755.455072	0.198976
755.651160	0.198842
755.847229	0.198723
756.043280	0.198367
756.239313	0.198257
756.435328	0.198242
756.631324	0.198091
756.827302	0.198187
757.023262	0.197878
757.219204	0.197909
757.415127	0.197935
757.611033	0.197539
757.806920	0.197433
758.002788	0.197528
758.198639	0.197482
758.394471	0.197352
758.590286	0.197172
758.786081	0.197188
758.981859	0.196956
759.177619	0.196801
759.373360	0.196925
759.569083	0.197119
759.764788	0.197003
759.960474	0.196650
760.156143	0.196780
760.351793	0.196625
760.547425	0.196449
760.743038	0.196124
760.938634	0.195896
761.134211	0.195726
761.329770	0.195262
761.525311	0.195073
761.720833	0.194939
761.916338	0.194728
762.111824	0.194726
762.307292	0.194705
762.502741	0.194810
762.698173	0.194946
762.893586	0.194749
763.088981	0.194599
763.284358	0.194604
763.479716	0.194807
763.675057	0.194733
763.870379	0.194605
764.065683	0.194414
764.260968	0.194383
764.456236	0.194333
764.651485	0.194539
764.846716	0.194593
765.041929	0.194427
765.237123	0.194070
765.432299	0.194160
765.627457	0.193950
765.822597	0.194266
766.017719	0.194209
766.212822	0.194134
766.407907	0.193992
766.602974	0.194224
766.798023	0.194306
766.993054	0.194561
767.188066	0.194437
767.383060	0.194493
767.578036	0.194142
767.772993	0.194056
767.967933	0.193735
768.162854	0.193633
768.357757	0.193337
768.552642	0.193061
768.747508	0.192882
768.942356	0.192727
769.137186	0.192504
769.331998	0.192349
769.526792	0.192218
769.721567	0.192299
769.916324	0.192278
770.111063	0.192134
770.305784	0.192248
770.500486	0.192204
770.695171	0.191912
770.889837	0.191882
771.084484	0.191850
771.279114	0.191867
771.473725	0.191757
771.668318	0.191654
771.862893	0.191895
772.057450	0.191793
772.251988	0.191784
772.446509	0.191958
772.641011	0.192037
772.835494	0.191971
773.029960	0.191781
773.224407	0.191578
773.418836	0.191457
773.613247	0.191046
773.807640	0.191084
774.002014	0.190747
774.196370	0.190915
774.390708	0.190718
774.585028	0.190695
774.779330	0.190891
774.973613	0.191074
775.167878	0.191162
775.362125	0.191231
775.556354	0.191074
775.750564	0.191317
775.944756	0.190971
776.138930	0.191198
776.333086	0.191388
776.527223	0.191150
776.721343	0.191074
776.915444	0.190977
777.109526	0.191039
777.303591	0.190954
777.497637	0.190845
777.691666	0.191106
777.885676	0.190706
778.079667	0.190548
778.273641	0.190565
778.467596	0.190403
778.661533	0.190404
778.855452	0.190512
779.049352	0.190644
779.243235	0.190866
779.437099	0.190650
779.630945	0.190871
779.824773	0.190798
780.018582	0.190807
780.212373	0.190931
780.406146	0.190747
780.599901	0.190592
780.793638	0.190410
780.987356	0.190238
781.181056	0.190356
781.374738	0.190311
781.568402	0.190448
781.762047	0.190370
781.955674	0.190377
782.149283	0.190551
782.342874	0.190600
782.536447	0.190669
782.730001	0.190600
782.923537	0.190396
783.117055	0.190800
783.310555	0.190613
783.504036	0.190789
783.697499	0.190902
783.890944	0.190973
784.084371	0.190953
784.277780	0.191069
784.471170	0.191286
784.664542	0.191164
784.857896	0.190937
785.051231	0.190921
785.244549	0.190915
785.437848	0.191047
785.631129	0.191021
785.824392	0.191225
786.017636	0.191247
786.210863	0.191115
786.404071	0.191318
786.597260	0.191347
786.790432	0.191787
786.983585	0.192046
787.176721	0.192066
787.369838	0.192246
787.562936	0.192261
787.756017	0.192391
787.949079	0.192693
788.142123	0.192773
788.335149	0.192965
788.528156	0.193017
788.721146	0.193019
788.914117	0.193111
789.107070	0.193022
789.300005	0.192872
789.492921	0.192917
789.685819	0.192863
789.878699	0.192910
790.071561	0.192843
790.264405	0.192798
790.457230	0.192703
790.650037	0.192420
790.842826	0.192381
791.035597	0.192799
791.228349	0.192868
791.421084	0.192826
791.613800	0.193065
791.806497	0.193092
791.999177	0.193173
792.191838	0.193051
792.384481	0.193233
792.577106	0.193525
792.769713	0.193453
792.962301	0.193469
793.154871	0.193764
793.347423	0.193924
793.539957	0.194168
793.732473	0.194516
793.924970	0.194973
794.117449	0.195481
794.309910	0.195702
794.502353	0.195779
794.694777	0.195780
794.887183	0.195881
795.079571	0.195901
795.271941	0.196212
795.464293	0.196399
795.656626	0.196362
795.848941	0.196286
796.041238	0.196543
796.233516	0.196965
796.425777	0.197467
796.618019	0.197382
796.810243	0.197538
797.002449	0.197629
797.194636	0.197441
797.386805	0.197809
797.578956	0.197954
797.771089	0.197923
797.963204	0.197969
798.155300	0.197760
798.347378	0.198113
798.539438	0.198294
798.731480	0.198152
798.923503	0.198560
799.115509	0.198619
799.307496	0.198740
799.499465	0.198927
799.691415	0.199035
799.883348	0.199415
800.075262	0.199603
800.267158	0.199857
800.459035	0.200349
800.650895	0.200201
800.842736	0.200431
801.034559	0.200728
801.226364	0.200934
801.418150	0.201324
801.609919	0.201372
801.801669	0.201419
801.993401	0.201618
802.185114	0.201807
802.376810	0.201900
802.568487	0.202005
802.760146	0.202099
802.951787	0.202230
803.143409	0.202179
803.335014	0.202523
803.526600	0.203083
803.718168	0.203281
803.909717	0.203201
804.101249	0.203585
804.292762	0.203778
804.484257	0.204049
804.675734	0.204432
804.867192	0.204627
805.058632	0.204942
805.250054	0.204827
805.441458	0.204827
805.632844	0.205461
805.824211	0.205771
806.015561	0.206142
806.206891	0.206310
806.398204	0.206313
806.589499	0.206367
806.780775	0.206411
806.972033	0.206837
807.163273	0.207026
807.354495	0.207016
807.545698	0.207273
807.736883	0.207450
807.928050	0.207846
808.119199	0.208158
808.310329	0.208473
808.501441	0.208861
808.692535	0.208875
808.883611	0.209294
809.074669	0.209678
809.265708	0.209861
809.456729	0.209962
809.647732	0.210006
809.838717	0.210080
810.029683	0.210512
810.220632	0.210407
810.411562	0.210796
810.602474	0.211087
810.793367	0.210912
810.984242	0.211101
811.175100	0.211249
811.365938	0.211621
811.556759	0.212145
811.747562	0.212335
811.938346	0.212838
812.129112	0.213068
812.319860	0.213346
812.510589	0.213632
812.701300	0.213846
812.891994	0.214394
813.082668	0.214625
813.273325	0.214800
813.463964	0.215052
813.654584	0.215332
813.845186	0.215931
814.035769	0.216265
814.226335	0.216774
814.416882	0.217406
814.607411	0.217727
814.797922	0.217919
814.988415	0.218157
815.178889	0.218650
815.369345	0.219018
815.559783	0.219015
815.750203	0.219237
815.940605	0.219676
816.130988	0.219922
816.321353	0.220078
816.511700	0.220381
816.702028	0.221038
816.892339	0.221078
817.082631	0.221323
817.272905	0.221806
817.463161	0.222011
817.653398	0.222195
817.843617	0.222344
818.033819	0.222608
818.224001	0.223029
818.414166	0.222875
818.604312	0.223378
818.794440	0.223773
818.984550	0.223802
819.174642	0.224163
819.364716	0.224342
819.554771	0.224457
819.744808	0.224802
819.934827	0.224915
820.124827	0.225276
820.314810	0.225392
820.504774	0.225676
820.694720	0.225872
820.884647	0.226071
821.074557	0.226473
821.264448	0.226767
821.454321	0.226870
821.644176	0.227224
821.834012	0.227454
822.023831	0.227939
822.213631	0.228062
822.403413	0.228273
822.593176	0.228693
822.782922	0.229052
822.972649	0.229690
823.162358	0.230283
823.352049	0.230900
823.541721	0.231399
823.731376	0.231582
823.921012	0.232080
824.110629	0.232623
824.300229	0.232790
824.489811	0.232845
824.679374	0.233077
824.868919	0.233047
825.058445	0.233182
825.247954	0.233387
825.437444	0.233722
825.626916	0.233680
825.816370	0.234028
826.005806	0.234258
826.195223	0.234340
826.384622	0.234527
826.574003	0.235092
826.763366	0.235563
826.952711	0.236037
827.142037	0.236294
827.331345	0.236786
827.520635	0.237144
827.709906	0.237874
827.899160	0.238568
828.088395	0.238996
828.277612	0.239331
828.466810	0.239519
828.655991	0.239871
828.845153	0.240192
829.034297	0.240675
829.223423	0.241082
829.412531	0.241156
829.601620	0.241698
829.790691	0.242021
829.979744	0.242477
830.168779	0.242833
830.357795	0.243310
830.546793	0.243824
830.735773	0.244241
830.924735	0.244666
831.113679	0.245093
831.302604	0.245300
831.491511	0.245971
831.680400	0.246282
831.869271	0.246777
832.058123	0.247035
832.246957	0.247327
832.435773	0.247644
832.624571	0.248110
832.813351	0.248549
833.002112	0.249156
833.190855	0.249615
833.379580	0.250046
833.568287	0.250034
833.756975	0.250389
833.945645	0.250842
834.134297	0.251102
834.322931	0.251380
834.511547	0.251913
834.700144	0.252445
834.888723	0.252696
835.077284	0.253303
835.265826	0.253951
835.454351	0.254642
835.642857	0.255105
835.831345	0.255687
836.019815	0.256185
836.208266	0.256499
836.396699	0.256583
836.585114	0.256926
836.773511	0.257135
836.961890	0.257626
837.150250	0.257766
837.338592	0.258237
837.526916	0.258631
837.715222	0.258868
837.903510	0.259459
838.091779	0.260000
838.280030	0.260428
838.468263	0.260904
838.656477	0.261442
838.844674	0.261634
839.032852	0.261677
839.221012	0.261930
839.409153	0.262426
839.597277	0.262524
839.785382	0.262493
839.973469	0.262769
840.161538	0.263074
840.349589	0.263263
840.537621	0.263639
840.725635	0.264080
840.913631	0.264486
841.101609	0.264857
841.289568	0.265267
841.477509	0.265914
841.665432	0.266297
841.853337	0.266858
842.041224	0.267329
842.229092	0.267916
842.416942	0.268680
842.604774	0.269175
842.792588	0.269483
842.980383	0.269941
843.168160	0.270126
843.355919	0.270300
843.543660	0.270706
843.731382	0.270762
843.919087	0.271270
844.106773	0.271634
844.294441	0.272528
844.482090	0.273139
844.669722	0.273652
844.857335	0.274423
845.044930	0.275095
845.232507	0.275310
845.420065	0.276172
845.607605	0.276740
845.795127	0.276988
845.982631	0.277180
846.170117	0.277524
846.357584	0.277564
846.545033	0.277904
846.732464	0.278115
846.919877	0.278636
847.107272	0.278979
847.294648	0.278707
847.482006	0.279125
847.669346	0.279237
847.856667	0.279425
848.043971	0.279739
848.231256	0.279916
848.418523	0.280288
848.605771	0.280451
848.793002	0.280617
848.980214	0.281553
849.167408	0.281714
849.354584	0.282057
849.541742	0.282465
849.728881	0.283160
849.916002	0.283395
850.103105	0.283577
850.290190	0.283926
850.477256	0.284306
850.664304	0.284501
850.851334	0.284903
851.038346	0.285477
851.225340	0.285928
851.412315	0.286119
851.599272	0.287115
851.786211	0.287433
851.973132	0.287888
852.160034	0.288504
852.346918	0.289004
852.533784	0.289384
852.720632	0.289332
852.907462	0.289568
853.094273	0.290119
853.281066	0.289676
853.467841	0.290490
853.654598	0.290849
853.841336	0.290954
854.028056	0.291004
854.214758	0.291524
854.401442	0.292252
854.588107	0.292539
854.774755	0.292804
854.961384	0.293659
855.147995	0.293916
855.334587	0.294548
855.521162	0.295005
855.707718	0.295619
855.894256	0.295986
856.080775	0.296098
856.267277	0.296961
856.453760	0.297327
856.640225	0.297643
856.826672	0.297954
857.013101	0.298346
857.199511	0.298733
857.385903	0.299127
857.572277	0.299391
857.758633	0.300155
857.944970	0.299861
858.131290	0.300169
858.317591	0.300649
858.503873	0.300709
858.690138	0.300706
858.876384	0.300969
859.062612	0.301185
859.248822	0.301397
859.435014	0.301345
859.621188	0.302067
859.807343	0.302352
859.993480	0.302406
860.179599	0.303221
860.365699	0.303513
860.551781	0.303900
860.737846	0.304129
860.923891	0.304645
861.109919	0.305169
861.295929	0.305416
861.481920	0.305935
861.667893	0.306631
861.853848	0.306916
862.039784	0.307469
862.225702	0.308099
862.411603	0.308510
862.597484	0.309206
862.783348	0.309515
862.969193	0.310013
863.155021	0.310176
863.340830	0.310537
863.526620	0.310818
863.712393	0.311046
863.898147	0.311182
864.083883	0.311653
864.269601	0.311736
864.455301	0.312005
864.640982	0.312369
864.826645	0.313036
865.012290	0.313418
865.197917	0.313579
865.383526	0.313832
865.569116	0.313959
865.754688	0.314640
865.940242	0.314708
866.125777	0.315116
866.311295	0.315296
866.496794	0.315670
866.682275	0.315717
866.867737	0.316271
867.053182	0.316531
867.238608	0.317142
867.424016	0.316970
867.609406	0.317551
867.794778	0.317932
867.980131	0.318360
868.165466	0.318462
868.350783	0.318880
868.536082	0.319423
868.721362	0.320192
868.906625	0.320502
869.091869	0.320844
869.277094	0.321092
869.462302	0.321496
869.647491	0.321617
869.832662	0.322200
870.017815	0.322355
870.202950	0.322638
870.388066	0.322502
870.573165	0.322367
870.758245	0.322714
870.943306	0.323005
871.128350	0.323373
871.313375	0.323423
871.498382	0.323357
871.683371	0.323850
871.868342	0.323715
872.053294	0.324251
872.238229	0.324360
872.423144	0.324676
872.608042	0.325158
872.792922	0.325193
872.977783	0.325682
873.162626	0.325998
873.347451	0.325920
873.532258	0.326125
873.717046	0.326180
873.901816	0.327071
874.086568	0.327163
874.271302	0.326998
874.456017	0.327154
874.640715	0.327374
874.825394	0.327449
875.010055	0.327830
875.194697	0.328083
875.379322	0.328477
875.563928	0.328493
875.748516	0.328883
875.933085	0.329230
876.117637	0.329451
876.302170	0.329768
876.486685	0.330371
876.671182	0.330752
876.855661	0.330949
877.040121	0.331216
877.224563	0.331127
877.408987	0.330966
877.593393	0.331217
877.777780	0.331705
877.962150	0.331514
878.146501	0.331420
878.330833	0.331333
878.515148	0.331695
878.699444	0.331697
878.883722	0.332453
879.067982	0.332655
879.252224	0.332839
879.436447	0.332387
879.620653	0.332550
879.804840	0.333025
879.989008	0.332808
880.173159	0.332727
880.357291	0.332818
880.541405	0.332456
880.725501	0.332979
880.909579	0.332721
881.093638	0.333051
881.277680	0.333455
881.461703	0.333606
881.645707	0.334065
881.829694	0.334680
882.013662	0.334946
882.197612	0.335117
882.381544	0.335181
882.565458	0.335406
882.749353	0.335684
882.933230	0.335618
883.117089	0.335499
883.300930	0.335715
883.484753	0.335314
883.668557	0.335407
883.852343	0.335894
884.036111	0.336274
884.219861	0.336702
884.403592	0.336861
884.587305	0.337360
884.771000	0.337305
884.954677	0.337103
885.138335	0.337053
885.321976	0.336738
885.505598	0.336535
885.689201	0.336053
885.872787	0.336158
886.056354	0.336239
886.239904	0.335733
886.423434	0.336167
886.606947	0.336402
886.790442	0.336684
886.973918	0.337059
887.157376	0.337013
887.340816	0.337283
887.524237	0.336906
887.707641	0.336925
887.891026	0.337725
888.074393	0.337234
888.257741	0.336985
888.441072	0.337339
888.624384	0.337339
888.807678	0.337489
888.990954	0.337575
889.174211	0.337806
889.357451	0.337780
889.540672	0.337312
889.723875	0.337879
889.907059	0.338672
890.090226	0.338129
890.273374	0.338538
890.456504	0.338385
890.639616	0.338334
890.822709	0.338371
891.005785	0.338582
891.188842	0.338612
891.371881	0.338728
891.554901	0.338766
891.737904	0.339419
891.920888	0.338950
892.103854	0.339146
892.286802	0.339232
892.469731	0.339005
892.652643	0.338548
892.835536	0.338645
893.018410	0.338593
893.201267	0.338261
893.384106	0.337692
893.566926	0.338016
893.749728	0.337825
893.932511	0.337605
894.115277	0.337678
894.298024	0.338014
894.480753	0.337963
894.663464	0.337367
894.846157	0.337270
895.028831	0.337509
895.211487	0.337254
895.394125	0.337118
895.576745	0.336593
895.759346	0.336756
895.941930	0.336493
896.124495	0.336294
896.307041	0.336479
896.489570	0.335866
896.672080	0.335287
896.854573	0.334618
897.037046	0.334673
897.219502	0.334334
897.401940	0.333941
897.584359	0.333896
897.766760	0.333578
897.949143	0.333639
898.131507	0.333783
898.313854	0.333993
898.496182	0.334210
898.678492	0.333844
898.860783	0.334260
899.043057	0.334176
899.225312	0.333940
899.407549	0.333961
899.589768	0.333568
899.771968	0.333193
899.954151	0.332957
900.136315	0.332856
900.318461	0.332644
900.500588	0.332898
900.682698	0.332508
900.864789	0.332137
901.046862	0.331819
901.228917	0.331902
901.410953	0.332329
901.592971	0.332093
901.774972	0.332120
901.956953	0.332398
902.138917	0.331641
902.320862	0.331509
902.502790	0.331188
902.684699	0.330851
902.866589	0.330481
903.048462	0.330313
903.230316	0.329547
903.412152	0.329159
903.593970	0.328701
903.775770	0.328192
903.957551	0.327319
904.139314	0.327193
904.321059	0.326963
904.502786	0.325895
904.684494	0.325241
904.866185	0.325187
905.047857	0.324458
905.229510	0.323918
905.411146	0.323587
905.592763	0.323679
905.774363	0.323227
905.955943	0.322691
906.137506	0.323036
906.319051	0.322853
906.500577	0.322649
906.682085	0.322092
906.863575	0.321752
907.045046	0.321314
907.226500	0.321505
907.407935	0.321428
907.589352	0.321030
907.770750	0.320284
907.952131	0.319460
908.133493	0.319175
908.314837	0.318993
908.496163	0.318595
908.677470	0.318663
908.858760	0.317478
909.040031	0.316990
909.221284	0.316797
909.402518	0.315929
909.583735	0.315652
909.764933	0.314947
909.946113	0.314418
910.127275	0.313914
910.308418	0.312866
910.489544	0.312898
910.670651	0.311795
910.851740	0.311320
911.032810	0.310918
911.213863	0.310290
911.394897	0.309701
911.575913	0.309240
911.756911	0.308859
911.937890	0.308374
912.118851	0.307382
912.299794	0.307355
912.480719	0.306981
912.661626	0.306823
912.842514	0.306265
913.023384	0.305921
913.204236	0.305529
913.385070	0.305089
913.565886	0.305143
913.746683	0.304958
913.927462	0.304135
914.108223	0.303571
914.288965	0.303177
914.469690	0.303041
914.650396	0.302549
914.831084	0.302685
915.011754	0.301941
915.192405	0.301399
915.373038	0.300519
915.553653	0.300526
915.734250	0.299708
915.914829	0.298925
916.095389	0.298616
916.275931	0.297537
916.456455	0.296528
916.636961	0.296060
916.817448	0.294986
916.997917	0.295379
917.178368	0.294879
917.358801	0.294893
917.539216	0.294719
917.719612	0.294051
917.899990	0.293730
918.080350	0.293010
918.260692	0.292646
918.441015	0.293047
918.621320	0.292307
918.801607	0.291986
918.981876	0.291006
919.162127	0.290092
919.342359	0.289136
919.522573	0.288630
919.702769	0.288093
919.882947	0.287412
920.063106	0.286469
920.243247	0.285071
920.423370	0.283834
920.603475	0.283098
920.783562	0.282122
920.963630	0.281145
921.143680	0.280894
921.323712	0.279835
921.503725	0.279275
921.683721	0.278406
921.863698	0.278188
922.043657	0.277487
922.223598	0.276789
922.403520	0.275987
922.583424	0.275306
922.763311	0.274488
922.943178	0.274156
923.123028	0.273244
923.302859	0.272673
923.482673	0.271820
923.662467	0.271483
923.842244	0.270830
924.022003	0.271051
924.201743	0.270643
924.381465	0.269577
924.561169	0.268936
924.740854	0.267833
924.920522	0.267165
925.100171	0.266353
925.279802	0.264889
925.459414	0.263806
925.639009	0.262564
925.818585	0.261914
925.998143	0.261302
926.177683	0.260209
926.357205	0.260082
926.536708	0.258596
926.716193	0.258077
926.895660	0.258036
927.075109	0.257710
927.254539	0.256908
927.433951	0.255970
927.613345	0.255989
927.792721	0.255921
927.972079	0.255027
928.151418	0.254797
928.330739	0.254266
928.510042	0.252659
928.689327	0.251594
928.868593	0.250842
929.047841	0.250743
929.227071	0.249793
929.406283	0.248401
929.585476	0.247524
929.764652	0.246799
929.943809	0.246234
930.122948	0.245456
930.302068	0.244872
930.481171	0.244219
930.660255	0.243083
930.839321	0.242167
931.018369	0.241333
931.197398	0.240185
931.376409	0.239474
931.555402	0.238295
931.734377	0.237593
931.913334	0.237182
932.092272	0.235911
932.271192	0.234569
932.450094	0.233640
932.628978	0.233078
932.807844	0.231876
932.986691	0.230593
933.165520	0.230050
933.344331	0.229822
933.523123	0.228136
933.701898	0.227745
933.880654	0.226448
934.059392	0.225438
934.238111	0.224524
934.416813	0.223519
934.595496	0.222109
934.774161	0.221150
934.952808	0.220196
935.131437	0.220125
935.310047	0.219394
935.488639	0.219650
935.667213	0.219008
935.845769	0.218147
936.024306	0.218380
936.202825	0.217971
936.381326	0.216912
936.559809	0.216447
936.738274	0.214335
936.916720	0.213406
937.095148	0.211914
937.273558	0.210760
937.451950	0.209857
937.630323	0.207622
937.808678	0.207202
937.987015	0.205247
938.165334	0.203846
938.343635	0.203831
938.521917	0.203401
938.700181	0.202649
938.878427	0.202154
939.056655	0.201240
939.234864	0.201086
939.413055	0.199669
939.591228	0.199184
939.769383	0.198621
939.947519	0.197832
940.125638	0.196035
940.303738	0.195219
940.481820	0.193761
940.659883	0.192045
940.837929	0.191331
941.015956	0.189842
941.193965	0.188801
941.371955	0.186648
941.549928	0.184994
941.727882	0.183520
941.905818	0.181444
942.083736	0.180931
942.261636	0.181118
942.439517	0.179864
942.617380	0.179619
942.795225	0.178373
942.973052	0.177882
943.150860	0.177499
943.328651	0.176968
943.506423	0.176028
943.684176	0.175175
943.861912	0.173385
944.039629	0.172442
944.217328	0.172036
944.395009	0.171604
944.572672	0.170705
944.750317	0.168806
944.927943	0.167965
945.105551	0.168020
945.283141	0.165591
945.460712	0.164611
945.638265	0.163435
945.815801	0.161394
945.993317	0.160225
946.170816	0.158477
946.348297	0.156411
946.525759	0.154933
946.703203	0.152793
946.880629	0.151749
947.058036	0.151173
947.235425	0.150970
947.412797	0.150599
947.590149	0.150261
947.767484	0.150631
947.944800	0.151281
948.122099	0.151284
948.299379	0.151708
948.476640	0.150707
948.653884	0.149265
948.831109	0.147404
949.008316	0.145339
949.185505	0.145336
949.362676	0.142902
949.539828	0.142283
949.716962	0.141281
949.894078	0.138949
950.071176	0.138583
950.248256	0.137454
950.425317	0.137758
950.602360	0.137774
950.779385	0.135121
950.956391	0.135218
951.133380	0.134441
951.310350	0.133389
951.487302	0.133548
951.664235	0.132627
951.841151	0.131750
952.018048	0.130540
952.194927	0.128849
952.371788	0.128357
952.548631	0.127333
952.725455	0.125669
952.902261	0.124172
953.079049	0.122109
953.255819	0.121926
953.432570	0.120233
953.609303	0.118528
953.786018	0.118786
953.962715	0.116591
954.139394	0.115027
954.316054	0.116218
954.492696	0.115263
954.669320	0.116993
954.845926	0.115184
955.022513	0.115228
955.199083	0.115965
955.375634	0.115179
955.552166	0.115695
955.728681	0.114643
955.905177	0.112802
956.081655	0.113000
956.258115	0.110008
956.434557	0.109405
956.610980	0.108166
956.787385	0.105256
956.963772	0.105197
957.140141	0.105943
957.316492	0.106440
957.492824	0.106103
957.669138	0.103105
957.845434	0.102771
958.021712	0.102626
958.197971	0.103404
958.374212	0.102136
958.550435	0.100130
958.726640	0.096997
958.902826	0.095309
959.078995	0.093858
959.255145	0.095197
959.431277	0.097694
959.607390	0.097199
959.783486	0.096698
959.959563	0.097075
960.135622	0.096380
960.311662	0.097136
960.487685	0.097148
960.663689	0.096670
960.839675	0.096718
961.015643	0.093548
961.191593	0.093970
961.367524	0.092471
961.543437	0.092044
961.719332	0.092021
961.895209	0.092140
962.071067	0.091772
962.246907	0.088815
962.422730	0.087539
962.598533	0.087567
962.774319	0.085313
962.950086	0.086747
963.125835	0.086276
963.301566	0.088036
963.477279	0.087667
963.652973	0.087782
963.828650	0.090797
964.004308	0.089968
964.179947	0.090671
964.355569	0.090767
964.531172	0.090498
964.706757	0.091926
964.882324	0.090332
965.057873	0.088748
965.233403	0.088295
965.408916	0.084747
965.584410	0.084528
965.759885	0.084480
965.935343	0.084976
966.110782	0.083075
966.286203	0.083301
966.461606	0.081680
966.636991	0.083670
966.812357	0.083867
966.987705	0.084828
967.163035	0.086895
967.338347	0.085697
967.513641	0.084187
967.688916	0.085089
967.864173	0.084099
968.039412	0.083987
968.214632	0.080267
968.389835	0.079700
968.565019	0.080409
968.740185	0.079392
968.915333	0.080116
969.090462	0.084232
969.265573	0.083677
969.440667	0.082159
969.615741	0.082803
969.790798	0.085922
969.965836	0.087381
970.140856	0.085987
970.315858	0.085046
970.490842	0.084733
970.665808	0.081179
970.840755	0.081838
971.015684	0.084590
971.190595	0.087084
971.365487	0.085542
971.540362	0.084083
971.715218	0.087223
971.890056	0.087743
972.064875	0.085737
972.239677	0.085884
972.414460	0.084576
972.589225	0.084678
972.763972	0.081693
972.938700	0.081687
973.113411	0.082661
973.288103	0.081590
973.462777	0.080940
973.637432	0.082669
973.812070	0.084245
973.986689	0.085805
974.161290	0.083200
974.335873	0.084275
974.510437	0.084623
974.684984	0.085207
974.859512	0.085463
975.034022	0.086020
975.208513	0.084624
975.382987	0.084202
975.557442	0.083681
975.731879	0.085929
975.906298	0.084697
976.080698	0.084123
976.255080	0.082158
976.429445	0.083666
976.603790	0.085235
976.778118	0.085699
976.952427	0.085068
977.126719	0.084369
977.300992	0.084655
977.475246	0.084332
977.649483	0.084737
977.823701	0.087536
977.997901	0.087286
978.172083	0.085761
978.346247	0.088212
978.520392	0.088491
978.694519	0.088935
978.868628	0.087647
979.042719	0.088240
979.216791	0.089525
979.390845	0.088937
979.564882	0.087817
979.738899	0.087812
979.912899	0.087026
980.086880	0.085586
980.260843	0.087255
980.434788	0.085944
980.608715	0.087606
980.782623	0.084470
980.956514	0.083837
981.130386	0.082932
981.304240	0.082149
981.478075	0.081500
981.651892	0.084221
981.825692	0.081951
981.999472	0.082308
982.173235	0.080487
982.346980	0.082222
982.520706	0.080588
982.694414	0.081083
982.868104	0.080872
983.041775	0.079648
983.215428	0.078872
983.389064	0.079810
983.562680	0.081805
983.736279	0.081870
983.909860	0.083030
984.083422	0.082660
984.256966	0.081013
984.430491	0.081970
984.603999	0.082859
984.777488	0.081510
984.950959	0.080688
985.124412	0.079691
985.297847	0.081863
985.471263	0.082347
985.644661	0.082029
985.818041	0.085391
985.991403	0.085832
986.164747	0.085084
986.338072	0.084489
986.511379	0.085556
986.684668	0.086645
986.857938	0.084164
987.031191	0.082733
987.204425	0.084740
987.377641	0.084384
987.550839	0.083820
987.724018	0.084608
987.897179	0.084811
988.070322	0.083626
988.243447	0.082112
988.416554	0.083229
988.589642	0.082649
988.762712	0.082822
988.935764	0.081126
989.108798	0.081342
989.281813	0.081823
989.454811	0.083740
989.627790	0.084118
989.800751	0.084051
989.973693	0.084582
990.146617	0.085546
990.319524	0.085333
990.492412	0.085695
990.665281	0.086376
990.838133	0.086889
991.010966	0.084463
991.183781	0.085112
991.356578	0.084366
991.529356	0.084766
991.702117	0.084071
991.874859	0.083957
992.047583	0.084107
992.220288	0.084212
992.392976	0.083314
992.565645	0.083855
992.738296	0.083919
992.910929	0.084554
993.083543	0.084553
993.256139	0.085047
993.428718	0.084403
993.601277	0.084144
993.773819	0.085524
993.946342	0.086234
994.118848	0.087718
994.291335	0.087190
994.463803	0.087390
994.636254	0.086746
994.808686	0.085678
994.981100	0.086596
995.153496	0.086390
995.325874	0.085194
995.498233	0.083488
995.670574	0.082793
995.842897	0.081554
996.015202	0.080862
996.187488	0.079888
996.359757	0.081211
996.532007	0.081395
996.704239	0.080581
996.876452	0.079802
997.048648	0.079508
997.220825	0.079400
997.392984	0.080515
997.565124	0.081808
997.737247	0.082370
997.909351	0.083628
998.081437	0.080252
998.253505	0.080838
998.425554	0.081338
998.597586	0.083514
998.769599	0.084330
998.941594	0.084594
999.113571	0.083414
999.285529	0.084470
999.457469	0.083670
999.629391	0.087017
999.801295	0.086076
999.973181	0.086462
1000.145048	0.086219
1000.316897	0.085454
1000.488728	0.086264
1000.660541	0.087999
1000.832335	0.085517
1001.004111	0.084565
1001.175869	0.082699
1001.347609	0.085478
1001.519331	0.082931
1001.691034	0.083607
1001.862719	0.083517
1002.034386	0.080134
1002.206035	0.079817
1002.377665	0.081483
1002.549277	0.082011
1002.720871	0.082185
1002.892447	0.081181
1003.064004	0.081590
1003.235544	0.081715
1003.407065	0.080818
1003.578568	0.084084
1003.750052	0.082693
1003.921519	0.082317
1004.092967	0.080754
1004.264397	0.081876
1004.435809	0.079856
1004.607202	0.082351
1004.778577	0.080243
1004.949934	0.081412
1005.121273	0.080229
1005.292594	0.080017
1005.463896	0.079187
1005.635180	0.082050
1005.806446	0.081935
1005.977694	0.082426
1006.148923	0.081776
1006.320135	0.081076
1006.491328	0.081420
1006.662503	0.081273
1006.833659	0.082284
1007.004798	0.082956
1007.175918	0.080373
1007.347020	0.080950
1007.518103	0.082438
1007.689169	0.082456
1007.860216	0.084511
1008.031245	0.082643
1008.202256	0.080935
1008.373248	0.080555
1008.544223	0.080688
1008.715179	0.081636
1008.886117	0.081512
1009.057036	0.082232
1009.227938	0.080973
1009.398821	0.080854
1009.569686	0.082683
1009.740533	0.083709
1009.911361	0.083921
1010.082172	0.084436
1010.252964	0.084466
1010.423738	0.086264
1010.594493	0.085832
1010.765231	0.086604
1010.935950	0.084840
1011.106651	0.085178
1011.277334	0.086031
1011.447998	0.086681
1011.618645	0.085453
1011.789273	0.084556
1011.959882	0.082697
1012.130474	0.082030
1012.301048	0.080944
1012.471603	0.081570
1012.642140	0.079252
1012.812658	0.080157
1012.983159	0.077760
1013.153641	0.077914
1013.324105	0.080128
1013.494551	0.079869
1013.664979	0.079825
1013.835388	0.080812
1014.005779	0.082886
1014.176152	0.084253
1014.346507	0.083245
1014.516843	0.084138
1014.687162	0.084766
1014.857462	0.082419
1015.027744	0.080829
1015.198007	0.081925
1015.368252	0.080772
1015.538480	0.080008
1015.708689	0.078702
1015.878879	0.078608
1016.049052	0.078454
1016.219206	0.077514
1016.389342	0.078969
1016.559460	0.080760
1016.729559	0.079300
1016.899641	0.081540
1017.069704	0.080169
1017.239749	0.080990
1017.409775	0.080886
1017.579784	0.079998
1017.749774	0.080900
1017.919746	0.079394
1018.089700	0.078893
1018.259635	0.080062
1018.429553	0.079566
1018.599452	0.079839
1018.769333	0.079425
1018.939195	0.080571
1019.109040	0.081580
1019.278866	0.081068
1019.448674	0.083522
1019.618464	0.082858
1019.788235	0.080785
1019.957989	0.080303
1020.127724	0.080303
1020.297441	0.081906
1020.467139	0.080236
1020.636820	0.081264
1020.806482	0.082061
1020.976126	0.079476
1021.145752	0.079604
1021.315359	0.080349
1021.484948	0.079984
1021.654519	0.080919
1021.824072	0.079720
1021.993607	0.080437
1022.163123	0.080946
1022.332621	0.081090
1022.502101	0.081741
1022.671563	0.082785
1022.841007	0.083685
1023.010432	0.082392
1023.179839	0.081894
1023.349228	0.081349
1023.518598	0.080795
1023.687951	0.079632
1023.857285	0.078702
1024.026601	0.078900
1024.195899	0.077944
1024.365178	0.075774
1024.534439	0.077465
1024.703682	0.077430
1024.872907	0.076697
1025.042114	0.077253
1025.211302	0.077516
1025.380472	0.077465
1025.549624	0.078374
1025.718758	0.080014
1025.887873	0.082662
1026.056970	0.080249
1026.226049	0.080370
1026.395110	0.082086
1026.564153	0.082119
1026.733177	0.081928
1026.902183	0.083202
1027.071171	0.082161
1027.240141	0.080365
1027.409092	0.079999
1027.578026	0.081686
1027.746940	0.082107
1027.915837	0.081081
1028.084716	0.080476
1028.253576	0.079859
1028.422418	0.078150
1028.591242	0.077509
1028.760048	0.078069
1028.928835	0.078478
1029.097604	0.077690
1029.266355	0.077434
1029.435088	0.076702
1029.603803	0.078191
1029.772499	0.078874
1029.941177	0.079584
1030.109837	0.081989
1030.278478	0.081229
1030.447102	0.079431
1030.615707	0.080708
1030.784294	0.079303
1030.952863	0.079423
1031.121413	0.077039
1031.289945	0.076238
1031.458460	0.076591
1031.626955	0.075225
1031.795433	0.077011
1031.963892	0.076920
1032.132334	0.076571
1032.300756	0.076662
1032.469161	0.076976
1032.637548	0.078413
1032.805916	0.077408
1032.974266	0.076376
1033.142598	0.076094
1033.310911	0.074941
1033.479207	0.076554
1033.647484	0.075343
1033.815743	0.077711
1033.983983	0.079267
1034.152206	0.078388
1034.320410	0.081176
1034.488596	0.081888
1034.656764	0.082463
1034.824914	0.081863
1034.993045	0.081581
1035.161158	0.082812
1035.329253	0.081221
1035.497330	0.079321
1035.665388	0.078982
1035.833428	0.078380
1036.001450	0.077712
1036.169454	0.077538
1036.337440	0.078215
1036.505407	0.078697
1036.673356	0.077587
1036.841287	0.076979
1037.009200	0.077659
1037.177094	0.077831
1037.344970	0.077294
1037.512828	0.076127
1037.680668	0.075848
1037.848489	0.075585
1038.016293	0.076892
1038.184078	0.078953
1038.351845	0.080312
1038.519593	0.082269
1038.687324	0.082062
1038.855036	0.080616
1039.022730	0.081955
1039.190406	0.081256
1039.358063	0.081669
1039.525702	0.080047
1039.693323	0.080605
1039.860926	0.078856
1040.028511	0.078706
1040.196077	0.080056
1040.363625	0.082424
1040.531155	0.082455
1040.698667	0.082425
1040.866161	0.081389
1041.033636	0.082224
1041.201093	0.079727
1041.368532	0.082088
1041.535952	0.081119
1041.703355	0.079228
1041.870739	0.077352
1042.038105	0.079984
1042.205452	0.078958
1042.372782	0.079646
1042.540093	0.076099
1042.707386	0.077984
1042.874661	0.075598
1043.041918	0.076521
1043.209156	0.077998
1043.376376	0.080099
1043.543578	0.077572
1043.710762	0.080684
1043.877927	0.081082
1044.045074	0.082223
1044.212203	0.081484
1044.379314	0.083051
1044.546407	0.082264
1044.713481	0.081109
1044.880537	0.077814
1045.047575	0.078304
1045.214595	0.076182
1045.381596	0.076130
1045.548579	0.077343
1045.715544	0.076594
1045.882491	0.075375
1046.049420	0.074683
1046.216330	0.076123
1046.383222	0.077225
1046.550096	0.076156
1046.716951	0.075327
1046.883789	0.073445
1047.050608	0.074670
1047.217409	0.076305
1047.384192	0.076213
1047.550956	0.075910
1047.717703	0.074487
1047.884431	0.074853
1048.051140	0.076425
1048.217832	0.078552
1048.384505	0.079380
1048.551161	0.077870
1048.717798	0.074788
1048.884416	0.075532
1049.051017	0.075723
1049.217599	0.077612
1049.384163	0.075552
1049.550709	0.075857
1049.717237	0.075375
1049.883746	0.076636
1050.050237	0.077955
1050.216710	0.080384
1050.383165	0.080001
1050.549601	0.080163
1050.716019	0.078679
1050.882420	0.082147
1051.048801	0.079101
1051.215165	0.077314
1051.381510	0.075809
1051.547837	0.074468
1051.714146	0.072520
1051.880437	0.072893
1052.046709	0.072351
1052.212964	0.072084
1052.379200	0.071408
1052.545417	0.073311
1052.711617	0.075068
1052.877798	0.076415
1053.043961	0.075281
1053.210106	0.075678
1053.376233	0.075630
1053.542341	0.076476
1053.708432	0.077001
1053.874504	0.078463
1054.040557	0.078244
1054.206593	0.078520
1054.372610	0.077700
1054.538609	0.078336
1054.704590	0.080629
1054.870553	0.080432
1055.036497	0.080283
1055.202424	0.082028
1055.368331	0.080845
1055.534221	0.081416
1055.700093	0.081358
1055.865946	0.082654
1056.031781	0.083135
1056.197598	0.081219
1056.363397	0.081325
1056.529177	0.080045
1056.694939	0.077126
1056.860683	0.077329
1057.026409	0.078567
1057.192116	0.078748
1057.357806	0.076037
1057.523477	0.076873
1057.689130	0.075702
1057.854764	0.076948
1058.020381	0.077738
1058.185979	0.079949
1058.351559	0.080243
1058.517120	0.080249
1058.682664	0.080569
1058.848189	0.082249
1059.013696	0.081759
1059.179185	0.083813
1059.344656	0.082612
1059.510108	0.081301
1059.675542	0.080680
1059.840958	0.078914
1060.006356	0.077588
1060.171735	0.077005
1060.337096	0.078107
1060.502439	0.078115
1060.667764	0.077028
1060.833071	0.075200
1060.998359	0.076927
1061.163629	0.078550
1061.328881	0.079888
1061.494115	0.078384
1061.659330	0.076954
1061.824527	0.077264
1061.989706	0.076510
1062.154867	0.076045
1062.320010	0.077893
1062.485134	0.078537
1062.650240	0.077401
1062.815328	0.077373
1062.980398	0.079011
1063.145449	0.080725
1063.310482	0.079610
1063.475497	0.080906
1063.640494	0.082709
1063.805473	0.080582
1063.970433	0.079914
1064.135375	0.080263
1064.300299	0.079773
1064.465204	0.079041
1064.630092	0.079459
1064.794961	0.077972
1064.959812	0.077687
1065.124645	0.078317
1065.289459	0.080899
1065.454256	0.082308
1065.619034	0.080744
1065.783793	0.081682
1065.948535	0.082304
1066.113258	0.080349
1066.277964	0.080456
1066.442651	0.078791
1066.607319	0.077592
1066.771970	0.077464
1066.936602	0.076381
1067.101216	0.076669
1067.265812	0.075987
1067.430389	0.077416
1067.594949	0.078439
1067.759490	0.080364
1067.924013	0.080524
1068.088518	0.080571
1068.253004	0.080883
1068.417472	0.080352
1068.581922	0.081174
1068.746354	0.081729
1068.910768	0.078760
1069.075163	0.077613
1069.239540	0.076974
1069.403899	0.079330
1069.568240	0.078822
1069.732562	0.077912
1069.896866	0.079037
1070.061152	0.077660
1070.225420	0.076583
1070.389670	0.078700
1070.553901	0.079090
1070.718114	0.078898
1070.882309	0.078909
1071.046486	0.080630
1071.210644	0.080502
1071.374784	0.079924
1071.538906	0.081157
1071.703010	0.081534
1071.867096	0.080548
1072.031163	0.081478
1072.195212	0.080564
1072.359243	0.080406
1072.523256	0.080408
1072.687250	0.081857
1072.851226	0.079690
1073.015184	0.081293
1073.179124	0.081149
1073.343045	0.080552
1073.506949	0.077917
1073.670834	0.080819
1073.834701	0.079882
1073.998549	0.079050
1074.162380	0.078273
1074.326192	0.080804
1074.489986	0.076597
1074.653761	0.078566
1074.817519	0.079839
1074.981258	0.083134
1075.144979	0.081536
1075.308682	0.082458
1075.472367	0.081459
1075.636033	0.081315
1075.799681	0.079686
1075.963311	0.081517
1076.126923	0.082172
1076.290516	0.081633
1076.454092	0.081832
1076.617649	0.082399
1076.781187	0.080154
1076.944708	0.080553
1077.108210	0.078190
1077.271695	0.080235
1077.435160	0.081058
1077.598608	0.076501
1077.762038	0.076629
1077.925449	0.075702
1078.088842	0.075293
1078.252217	0.077007
1078.415573	0.077056
1078.578912	0.081496
1078.742232	0.080805
1078.905534	0.080052
1079.068817	0.082061
1079.232083	0.083112
1079.395330	0.085308
1079.558559	0.087231
1079.721770	0.086797
1079.884962	0.085868
1080.048136	0.084685
1080.211293	0.085444
1080.374430	0.086803
1080.537550	0.087020
1080.700651	0.088151
1080.863735	0.084537
1081.026800	0.082094
1081.189846	0.082296
1081.352875	0.083731
1081.515885	0.083137
1081.678877	0.084252
1081.841851	0.081830
1082.004807	0.083220
1082.167744	0.083363
1082.330663	0.086688
1082.493564	0.085864
1082.656447	0.085760
1082.819312	0.085909
1082.982158	0.086756
1083.144986	0.083616
1083.307796	0.086978
1083.470587	0.087354
1083.633361	0.084288
1083.796116	0.083914
1083.958853	0.084815
1084.121571	0.084066
1084.284272	0.085459
1084.446954	0.084490
1084.609618	0.084337
1084.772264	0.085278
1084.934892	0.085576
1085.097501	0.087589
1085.260092	0.087915
1085.422665	0.090529
1085.585220	0.094584
1085.747756	0.094216
1085.910274	0.093747
1086.072774	0.095533
1086.235256	0.093852
1086.397720	0.092172
1086.560165	0.090497
1086.722592	0.088137
1086.885001	0.087300
1087.047392	0.085657
1087.209764	0.087859
1087.372119	0.087831
1087.534455	0.088477
1087.696772	0.089618
1087.859072	0.091098
1088.021353	0.092014
1088.183616	0.094425
1088.345861	0.092608
1088.508088	0.090439
1088.670296	0.087970
1088.832486	0.089716
1088.994658	0.089109
1089.156812	0.086808
1089.318948	0.086129
1089.481065	0.086651
1089.643164	0.086059
1089.805245	0.089197
1089.967308	0.092252
1090.129352	0.092355
1090.291378	0.092050
1090.453386	0.091802
1090.615376	0.092314
1090.777347	0.092222
1090.939301	0.093447
1091.101236	0.093812
1091.263153	0.094012
1091.425051	0.092971
1091.586932	0.090589
1091.748794	0.090842
1091.910638	0.090940
1092.072463	0.092003
1092.234271	0.091524
1092.396060	0.089568
1092.557831	0.088992
1092.719584	0.087950
1092.881319	0.085927
1093.043035	0.089129
1093.204733	0.089313
1093.366413	0.089056
1093.528075	0.088331
1093.689718	0.087833
1093.851343	0.087083
1094.012950	0.088379
1094.174539	0.087022
1094.336110	0.090317
1094.497662	0.088460
1094.659196	0.089465
1094.820712	0.091340
1094.982210	0.092005
1095.143689	0.094025
1095.305151	0.096395
1095.466594	0.093513
1095.628018	0.093573
1095.789425	0.093073
1095.950813	0.091898
1096.112183	0.089043
1096.273535	0.089522
1096.434869	0.089064
1096.596184	0.088431
1096.757482	0.088092
1096.918761	0.088905
1097.080021	0.088624
1097.241264	0.086184
1097.402488	0.087398
1097.563694	0.088363
1097.724882	0.088111
1097.886052	0.090109
1098.047203	0.090058
1098.208336	0.091723
1098.369451	0.093109
1098.530548	0.094774
1098.691627	0.095696
1098.852687	0.097397
1099.013729	0.097757
1099.174753	0.097432
1099.335758	0.096852
1099.496746	0.096520
1099.657715	0.096003
1099.818666	0.098010
1099.979599	0.094682
1100.140513	0.092174
1100.301409	0.092692
1100.462287	0.095534
1100.623147	0.098601
1100.783989	0.095010
1100.944812	0.093204
1101.105617	0.092274
1101.266404	0.089654
1101.427173	0.090859
1101.587923	0.096999
1101.748656	0.096544
1101.909370	0.090424
1102.070066	0.087789
1102.230743	0.090215
1102.391403	0.093280
1102.552044	0.094345
1102.712667	0.092009
1102.873271	0.094068
1103.033858	0.093752
1103.194426	0.092370
1103.354976	0.096446
1103.515508	0.096785
1103.676021	0.097397
1103.836517	0.096601
1103.996994	0.093219
1104.157453	0.093320
1104.317893	0.094153
1104.478316	0.091300
1104.638720	0.092993
1104.799106	0.093289
1104.959474	0.093141
1105.119823	0.093264
1105.280155	0.094938
1105.440468	0.097160
1105.600763	0.100319
1105.761039	0.100355
1105.921298	0.097463
1106.081538	0.097611
1106.241760	0.095877
1106.401964	0.094939
1106.562149	0.092327
1106.722316	0.089497
1106.882465	0.089396
1107.042596	0.088920
1107.202709	0.085778
1107.362803	0.090508
1107.522879	0.087634
1107.682937	0.086581
1107.842977	0.086769
1108.002999	0.091194
1108.163002	0.092002
1108.322987	0.092434
1108.482954	0.090183
1108.642902	0.092956
1108.802833	0.091484
1108.962745	0.091768
1109.122639	0.096573
1109.282515	0.096307
1109.442372	0.095926
1109.602211	0.096173
1109.762032	0.094531
1109.921835	0.095554
1110.081620	0.097205
1110.241386	0.097694
1110.401134	0.098495
1110.560864	0.096884
1110.720576	0.099271
1110.880269	0.098209
1111.039945	0.096682
1111.199602	0.095727
1111.359240	0.097484
1111.518861	0.095473
1111.678463	0.095534
1111.838047	0.098200
1111.997613	0.099102
1112.157161	0.096108
1112.316690	0.094482
1112.476202	0.095645
1112.635695	0.095734
1112.795169	0.095415
1112.954626	0.095911
1113.114064	0.094832
1113.273484	0.094297
1113.432886	0.094439
1113.592270	0.096990
1113.751635	0.097726
1113.910983	0.098174
1114.070312	0.100061
1114.229622	0.102992
1114.388915	0.103274
1114.548189	0.104792
1114.707445	0.104665
1114.866683	0.104004
1115.025903	0.103465
1115.185104	0.104119
1115.344287	0.106600
1115.503452	0.110385
1115.662599	0.110340
1115.821727	0.112058
1115.980838	0.108150
1116.139930	0.109785
1116.299004	0.104708
1116.458059	0.105270
1116.617097	0.108026
1116.776116	0.102961
1116.935117	0.105160
1117.094099	0.105137
1117.253064	0.105669
1117.412010	0.108567
1117.570938	0.102788
1117.729848	0.106007
1117.888740	0.107768
1118.047613	0.107231
1118.206468	0.111422
1118.365305	0.100832
1118.524124	0.101186
1118.682924	0.101871
1118.841707	0.104758
1119.000471	0.109945
1119.159216	0.111828
1119.317944	0.111227
1119.476653	0.109493
1119.635344	0.109909
1119.794017	0.119396
1119.952672	0.118831
1120.111308	0.114259
1120.269927	0.115639
1120.428527	0.112252
1120.587108	0.111361
1120.745672	0.106765
1120.904217	0.107466
1121.062744	0.109676
1121.221253	0.102823
1121.379744	0.098654
1121.538216	0.100226
1121.696671	0.097548
1121.855107	0.097366
1122.013524	0.098943
1122.171924	0.107390
1122.330305	0.106500
1122.488668	0.108419
1122.647013	0.110419
1122.805340	0.117946
1122.963648	0.115492
1123.121938	0.111588
1123.280210	0.117553
1123.438464	0.119511
1123.596700	0.117533
1123.754917	0.119605
1123.913116	0.117087
1124.071297	0.122090
1124.229459	0.112683
1124.387604	0.113138
1124.545730	0.115324
1124.703838	0.112877
1124.861928	0.112066
1125.019999	0.113169
1125.178052	0.110832
1125.336088	0.108195
1125.494104	0.102784
1125.652103	0.107721
1125.810083	0.109685
1125.968045	0.111578
1126.125989	0.112651
1126.283915	0.117300
1126.441823	0.110335
1126.599712	0.111401
1126.757583	0.112473
1126.915436	0.114276
1127.073270	0.112686
1127.231087	0.111755
1127.388885	0.106917
1127.546665	0.103759
1127.704426	0.102045
1127.862170	0.104682
1128.019895	0.105707
1128.177602	0.101147
1128.335291	0.096326
1128.492961	0.097113
1128.650614	0.103661
1128.808248	0.107272
1128.965864	0.109720
1129.123461	0.105768
1129.281041	0.103400
1129.438602	0.098403
1129.596145	0.096002
1129.753670	0.097970
1129.911176	0.093768
1130.068665	0.088947
1130.226135	0.091505
1130.383587	0.090338
1130.541020	0.091911
1130.698436	0.093017
1130.855833	0.096032
1131.013212	0.099070
1131.170573	0.108894
1131.327915	0.115300
1131.485239	0.113965
1131.642545	0.117706
1131.799833	0.121009
1131.957103	0.117308
1132.114354	0.114220
1132.271588	0.111846
1132.428803	0.120420
1132.585999	0.114191
1132.743178	0.113467
1132.900338	0.110744
1133.057480	0.106479
1133.214604	0.108064
1133.371710	0.112439
1133.528797	0.115442
1133.685866	0.120778
1133.842917	0.117915
1133.999950	0.117531
1134.156964	0.117404
1134.313960	0.117731
1134.470938	0.110675
1134.627898	0.106008
1134.784840	0.104365
1134.941763	0.110974
1135.098668	0.110475
1135.255555	0.110563
1135.412424	0.109902
1135.569274	0.114598
1135.726107	0.118049
1135.882921	0.124224
1136.039716	0.123300
1136.196494	0.117875
1136.353253	0.113120
1136.509995	0.112319
1136.666717	0.109162
1136.823422	0.111225
1136.980109	0.110875
1137.136777	0.109677
1137.293427	0.108490
1137.450059	0.109696
1137.606672	0.111837
1137.763267	0.109757
1137.919844	0.105554
1138.076403	0.109263
1138.232944	0.114040
1138.389466	0.106786
1138.545971	0.112382
1138.702457	0.110910
1138.858924	0.114220
1139.015374	0.113313
1139.171805	0.117518
1139.328218	0.118022
1139.484613	0.113632
1139.640990	0.109169
1139.797348	0.110314
1139.953688	0.107226
1140.110010	0.111932
1140.266314	0.104794
1140.422600	0.105891
1140.578867	0.103304
1140.735116	0.105646
1140.891347	0.112918
1141.047559	0.113685
1141.203754	0.111531
1141.359930	0.113281
1141.516088	0.110752
1141.672228	0.112743
1141.828349	0.114739
1141.984452	0.114542
1142.140537	0.112400
1142.296604	0.101555
1142.452653	0.094266
1142.608683	0.096864
1142.764695	0.093467
1142.920689	0.095111
1143.076665	0.094674
1143.232622	0.091175
1143.388562	0.091170
1143.544483	0.095483
1143.700385	0.104184
1143.856270	0.110839
1144.012136	0.107991
1144.167985	0.111738
1144.323814	0.103210
1144.479626	0.102846
1144.635420	0.101077
1144.791195	0.106617
1144.946952	0.097136
1145.102691	0.094109
1145.258411	0.097307
1145.414113	0.102332
1145.569798	0.097014
1145.725463	0.101816
1145.881111	0.106406
1146.036741	0.113824
1146.192352	0.110266
1146.347945	0.115926
1146.503519	0.120873
1146.659076	0.118942
1146.814614	0.116334
1146.970134	0.119405
1147.125636	0.122825
1147.281120	0.123797
1147.436585	0.119594
1147.592032	0.117049
1147.747461	0.124438
1147.902872	0.121161
1148.058265	0.108571
1148.213639	0.112643
1148.368995	0.109151
1148.524333	0.105900
1148.679653	0.107270
1148.834954	0.111952
1148.990237	0.108901
1149.145502	0.094005
1149.300749	0.088511
1149.455977	0.094187
1149.611188	0.091877
1149.766380	0.093461
1149.921553	0.094732
1150.076709	0.089192
1150.231846	0.089013
1150.386966	0.086146
1150.542066	0.091050
1150.697149	0.090996
1150.852214	0.104073
1151.007260	0.104919
1151.162288	0.105492
1151.317298	0.099411
1151.472289	0.097015
1151.627263	0.098141
1151.782218	0.101638
1151.937155	0.109174
1152.092073	0.119960
1152.246974	0.112414
1152.401856	0.118179
1152.556720	0.123909
1152.711566	0.133376
1152.866393	0.132262
1153.021203	0.123954
1153.175994	0.124151
1153.330767	0.124587
1153.485521	0.113700
1153.640258	0.109982
1153.794976	0.099272
1153.949676	0.094885
1154.104358	0.089374
1154.259021	0.087835
1154.413667	0.088545
1154.568294	0.088238
1154.722903	0.084367
1154.877493	0.090040
1155.032066	0.090281
1155.186620	0.094885
1155.341156	0.094896
1155.495674	0.101125
1155.650173	0.104772
1155.804654	0.114802
1155.959118	0.117454
1156.113562	0.119027
1156.267989	0.118807
1156.422397	0.120729
1156.576788	0.119400
1156.731160	0.120051
1156.885513	0.117322
1157.039849	0.118997
1157.194166	0.107606
1157.348465	0.112822
1157.502746	0.110072
1157.657009	0.107028
1157.811253	0.096421
1157.965479	0.091957
1158.119687	0.097684
1158.273877	0.101058
1158.428048	0.103663
1158.582201	0.110364
1158.736337	0.112161
1158.890453	0.114820
1159.044552	0.115132
1159.198632	0.122019
1159.352694	0.130020
1159.506738	0.130608
1159.660764	0.126485
1159.814771	0.119505
1159.968761	0.120698
1160.122732	0.120243
1160.276685	0.124140
1160.430619	0.126467
1160.584535	0.129706
1160.738434	0.124525
1160.892313	0.114429
1161.046175	0.117013
1161.200019	0.125627
1161.353844	0.120923
1161.507651	0.119029
1161.661440	0.115698
1161.815210	0.113831
1161.968962	0.121408
1162.122697	0.119501
1162.276412	0.125241
1162.430110	0.119626
1162.583789	0.117433
1162.737451	0.113765
1162.891094	0.102323
1163.044718	0.103761
1163.198325	0.101140
1163.351913	0.096340
1163.505483	0.099000
1163.659035	0.089041
1163.812569	0.088377
1163.966084	0.093945
1164.119581	0.102344
1164.273060	0.101409
1164.426521	0.090972
1164.579964	0.088032
1164.733388	0.087765
1164.886794	0.085967
1165.040182	0.093790
1165.193551	0.104645
1165.346903	0.089439
1165.500236	0.092743
1165.653551	0.096913
1165.806848	0.100117
1165.960126	0.104649
1166.113386	0.096357
1166.266628	0.098922
1166.419852	0.098040
1166.573058	0.086034
1166.726245	0.093936
1166.879414	0.087320
1167.032565	0.083626
1167.185698	0.093007
1167.338812	0.092277
1167.491909	0.094919
1167.644987	0.092864
1167.798046	0.094539
1167.951088	0.090564
1168.104111	0.090336
1168.257117	0.088798
1168.410103	0.099880
1168.563072	0.090140
1168.716023	0.092286
1168.868955	0.101292
1169.021869	0.101457
1169.174765	0.095889
1169.327642	0.107106
1169.480501	0.101444
1169.633343	0.088269
1169.786165	0.080242
1169.938970	0.099266
1170.091757	0.102012
1170.244525	0.099431
1170.397275	0.099026
1170.550007	0.107112
1170.702720	0.097686
1170.855415	0.112304
1171.008092	0.129926
1171.160751	0.138647
1171.313392	0.128944
1171.466014	0.191235
1171.618619	0.134793
1171.771205	0.134793
1171.923772	0.134793
