sample name	sample
index	1218
start time	 04-29-2021  10:08:16 AM
880	0.385764
Peak Time (s)	92.035
Peak Height 	0.3858
calc peak height	90,93
Baseline Time (s)	9.537
Baseline Value 	-0.003534
subtract baseline	10,4
Abs	0.292258
Peak Time (s)	92.535
Peak Height 	0.2923
calc peak height	90,93
Baseline Time (s)	11.536
Baseline Value 	0.001656
subtract baseline	10,3
PK_550	0.160491
Peak Time (s)	92.535
Peak Height 	0.1605
calc peak height	90,93
Baseline Time (s)	10.037
Baseline Value 	6.8417E-4
subtract baseline	10,2
PK_880	0.275777
Peak Time (s)	92.535
Peak Height 	0.2758
calc peak height	90,93
Baseline Time (s)	11.536
Baseline Value 	6.8153E-4
subtract baseline	10,1


Time (s)	A880-A510	A880-A775	A880-A975	A880	I510	I775	I975	I880	
0.034000	0.000162	-0.001143	-0.003880	0.000679	6181.647564	44373.655821	3810.217550	22799.045170
0.537000	-0.004419	-0.002004	-0.005055	0.005647	6107.753913	43819.454611	3795.375855	22571.249267
1.038000	-0.003681	-0.000580	-0.000016	0.003626	6128.937293	44146.077397	3812.451088	22663.586176
1.535500	0.001204	-0.000701	0.001268	-0.000244	6197.057516	44504.586840	3825.093277	22841.667915
2.035500	0.000509	-0.000553	-0.001311	-0.000422	6192.998068	44535.960686	3819.186802	22849.913227
2.535500	-0.002462	-0.000154	-0.011046	0.006414	6116.874812	43921.857940	3779.287797	22536.296690
3.036500	0.000786	-0.000701	-0.002396	-0.001663	6204.928134	44641.034921	3819.568328	22907.334404
3.536500	-0.000021	-0.000245	-0.005672	0.001005	6177.665786	44428.502876	3805.074420	22784.004343
4.035500	-0.000251	0.000369	0.001649	0.001411	6172.698359	44448.399296	3821.953175	22765.311399
4.537000	-0.000631	-0.000658	0.000933	0.000551	6176.450437	44432.419951	3822.309758	22804.955170
5.036500	-0.001462	-0.000791	0.000942	-0.000079	6174.881570	44480.098193	3823.884990	22834.059352
5.537000	-0.002411	-0.000862	-0.007745	0.000326	6164.322292	44434.435444	3801.707286	22815.355456
6.035000	-0.000596	-0.000133	0.002336	0.000538	6176.821395	44484.003366	3825.798387	22805.541473
6.535000	-0.001302	-0.000304	0.001009	0.000007	6175.457179	44518.580721	3823.835552	22830.051649
7.035500	0.001613	0.000366	0.001420	0.001369	6187.607112	44452.136542	3821.493447	22767.245371
7.535500	0.000123	0.000024	0.005473	0.001092	6178.111598	44445.988805	3832.196831	22780.030782
8.036000	0.000739	0.000321	-0.004060	0.001357	6180.856682	44449.036434	3808.132842	22767.825296
8.536500	0.001235	0.000393	0.002396	0.001148	6186.379263	44476.034925	3824.442476	22777.450614
9.039000	-0.001389	0.000034	-0.002544	0.000132	6173.798092	44539.051125	3814.809495	22824.297282
9.537000	-0.000182	-0.000260	0.001655	0.000000	6184.269373	44523.490253	3825.447295	22830.389333
10.037500	0.000219	0.000000	-0.001454	-0.000176	6188.784664	44565.394900	3818.230663	22838.512214
10.534500	0.000473	-0.000537	0.003103	-0.000336	6192.040434	44529.257842	3829.861267	22845.934732
11.035000	-0.000943	-0.000353	-0.002191	-0.000335	6180.928621	44546.678878	3816.814573	22845.852192
11.535500	0.000000	0.000517	0.000000	0.000372	6182.780746	44562.397240	3820.454889	22813.211367
12.035500	0.000664	0.000074	0.000376	0.000082	6190.256196	44547.730790	3822.092021	22826.614754
12.536000	0.000214	0.000269	-0.001375	0.000586	6182.782673	44518.003733	3816.557157	22803.342606
13.036500	0.001004	-0.000800	0.000371	-0.001924	6208.706992	44656.658159	3827.026056	22919.446344
13.537000	0.000998	-0.000026	0.002094	-0.001219	6203.107087	44663.292246	3829.547201	22886.779741
14.036500	0.000063	0.000085	0.006016	0.002251	6168.604177	44340.786120	3830.668937	22726.701528
14.537000	-0.001331	0.000616	-0.002065	0.002074	6159.129563	44408.596331	3811.241304	22734.831061
15.036500	0.003059	0.000254	-0.004853	-0.001347	6220.382802	44702.694995	3812.783331	22892.713929
15.537500	0.000862	-0.000278	-0.001891	-0.001668	6205.567875	44682.275750	3820.821008	22907.578541
16.038000	-0.002030	-0.000012	0.002163	0.001125	6161.075218	44439.378339	3823.925787	22778.509633
16.535500	0.001272	0.000245	0.000741	-0.001574	6208.057814	44723.633072	3827.076699	22903.206714
17.035000	0.003157	0.000698	0.002122	-0.003116	6235.181769	44916.702202	3834.325865	22974.829441
17.536000	0.000426	0.000364	0.001366	0.000168	6187.718973	44567.358299	3824.319775	22822.649379
18.036500	-0.000931	-0.000450	0.003820	0.000089	6177.716578	44496.733499	3830.583436	22826.278874
18.539000	-0.002576	-0.000836	-0.005073	-0.000145	6166.702396	44482.070198	3809.318354	22837.080440
19.037500	0.001467	-0.000296	-0.000613	0.000603	6192.466186	44462.162939	3818.382953	22802.545711
19.537000	-0.001387	0.000079	-0.001105	0.000586	6170.276949	44499.797370	3817.219905	22803.339360
20.037500	0.000250	-0.000986	0.004181	0.000439	6184.214530	44411.771531	3830.612958	22810.142665
20.535000	0.001283	-0.001009	-0.001358	0.000110	6194.896094	44441.029248	3817.766115	22825.307962
21.035500	-0.000495	-0.000177	0.000314	0.000215	6180.134232	44510.793629	3821.611258	22820.453552
21.536000	-0.000319	0.000442	0.002963	0.000779	6177.106037	44516.166000	3826.754904	22794.460972
22.036000	0.001284	-0.000378	0.001560	0.000188	6194.285159	44494.100515	3824.748416	22821.694469
22.536500	-0.001070	-0.000175	0.004904	0.000271	6175.207172	44505.581567	3832.822534	22817.861806
23.039000	-0.002469	0.000157	0.003086	0.000455	6162.862173	44519.765751	3827.856345	22809.360327
23.537000	0.001341	0.000054	0.000574	0.000769	6190.177883	44479.821171	3820.888555	22794.881530
24.037500	-0.001824	-0.000722	0.000739	-0.000104	6172.246469	44489.114664	3823.442459	22835.175614
24.537500	0.000439	-0.000016	0.000913	0.000570	6184.670521	44492.228011	3822.214119	22804.085779
25.035000	-0.001192	0.000311	-0.003778	0.000580	6171.845223	44522.664881	3810.708470	22803.638480
25.535000	0.000705	0.000273	0.009118	0.000767	6185.210308	44501.053446	3842.104647	22795.007628
26.035500	-0.000675	0.000209	0.004663	0.000674	6175.144077	44503.871991	3831.225217	22799.299320
26.536000	0.000920	0.000419	0.001294	0.000919	6185.701626	44500.488379	3822.291270	22787.995052
27.035500	-0.000621	-0.000351	-0.002466	-0.001457	6192.244787	44654.875687	3818.889795	22897.793015
27.536000	0.000374	-0.000309	0.006047	-0.002343	6207.045632	44744.521345	3842.200665	22938.921771
28.036000	0.002941	0.000691	-0.001670	-0.001146	6217.858079	44725.467766	3820.081625	22883.406230
28.536000	0.001060	0.000587	0.003181	0.000375	6191.066198	44568.866073	3828.292042	22813.069031
29.037500	0.000908	0.000905	0.001549	-0.000701	6198.321088	44703.111252	3826.916594	22862.778529
29.537500	0.002864	0.000533	0.002222	-0.001283	6218.330029	44723.488473	3830.023249	22889.749001
30.035000	-0.001192	0.000309	0.003044	-0.001024	6184.372687	44676.803201	3831.418838	22877.724931
30.535500	-0.001425	0.000254	0.003564	0.002738	6153.239779	44310.438936	3823.402109	22704.328070
31.035500	-0.000623	0.000195	0.003228	0.001857	6166.317998	44388.934617	3824.745179	22744.772256
31.536000	0.004220	-0.000030	0.001981	-0.001729	6232.609417	44712.128291	3830.530091	22910.411865
32.036500	0.000180	0.000220	0.000930	-0.001222	6196.692190	44687.343926	3826.674809	22886.918715
32.538500	-0.000389	-0.000105	0.003110	-0.000377	6185.602611	44574.700405	3829.979371	22847.833149
33.037000	0.001835	0.000445	0.006181	-0.001065	6208.486383	44693.943644	3839.336380	22879.657429
33.537000	0.001377	0.000129	0.007376	0.000658	6191.330928	44497.695433	3838.016824	22800.012469
34.037000	-0.003010	-0.000288	-0.004167	0.001050	6154.041727	44420.112429	3808.618046	22781.963858
34.537500	-0.000224	-0.000171	0.002454	0.001204	6174.523161	44416.509949	3824.447880	22774.851260
35.035500	-0.000789	0.000566	0.003063	0.001464	6168.096801	44462.312317	3825.308827	22762.896197
35.535500	-0.000835	-0.000058	0.001256	0.001497	6167.475243	44399.252556	3820.777285	22761.371168
36.035500	0.001494	0.000588	-0.000878	0.001995	6181.769306	44413.457944	3814.329403	22738.451718
36.536000	-0.001021	0.000658	0.001870	0.001777	6163.847823	44441.058563	3821.597349	22748.480089
37.036000	0.000514	0.000116	-0.001219	0.001321	6179.379221	44432.873562	3815.141962	22769.478438
37.536500	0.000321	0.000065	0.001909	0.001233	6178.552371	44436.272262	3823.032306	22773.494564
38.037000	-0.001223	0.000387	0.002016	0.001395	6165.250776	44451.739914	3822.899312	22766.069671
38.537000	0.002428	0.000763	0.006172	0.002220	6187.322371	44408.618761	3831.131299	22728.089209
39.037500	-0.000249	0.000589	-0.002180	0.001578	6171.415468	44453.558403	3812.169351	22757.645501
39.538000	0.000949	0.000245	-0.000750	0.001966	6177.734315	44383.399537	3814.711376	22739.779055
40.035000	-0.001614	-0.000663	0.000123	0.000835	6166.569883	44404.707783	3819.620090	22791.865467
40.538500	0.001011	0.000132	0.002988	0.001440	6182.340863	44422.991600	3825.182977	22764.004577
41.036000	-0.000604	0.000314	-0.000260	0.001260	6171.121785	44457.581552	3817.637270	22772.261195
41.536000	-0.000570	0.000623	0.003259	0.001643	6168.403233	44450.603810	3825.351724	22754.658644
42.039000	-0.000322	0.001136	0.001079	0.001697	6169.919875	44494.607227	3819.851649	22752.176032
42.536500	0.001159	0.000863	0.000176	0.001732	6181.206890	44465.017335	3817.550564	22750.552821
43.037000	0.000139	0.000362	-0.000277	0.001429	6175.608171	44446.070965	3817.182482	22764.492454
43.537500	0.001650	0.000202	0.002428	-0.003203	6223.919310	44877.141176	3835.305896	22978.887200
44.034000	0.001016	0.000190	0.000402	-0.000388	6196.708841	44604.118542	3823.313838	22848.341182
44.535000	0.002346	-0.000040	0.003426	-0.001103	6212.815947	44650.795648	3832.564827	22881.404453
45.035500	0.000860	-0.000096	0.004056	-0.001813	6206.696710	44713.868482	3835.898308	22914.303453
45.535500	0.000986	0.001055	-0.002323	-0.000989	6201.202243	44745.452150	3818.095277	22876.147562
46.035500	-0.001232	0.000222	0.006576	0.003894	6145.776879	44197.033049	3827.984226	22651.331237
46.536500	0.000597	0.000580	0.001018	-0.000734	6196.139211	44675.053469	3825.685688	22864.336827
47.037000	-0.000727	0.000167	0.006538	0.001245	6170.281446	44444.943778	3834.463127	22772.941470
47.536500	-0.001924	-0.000480	0.003628	0.001292	6160.596104	44378.515017	3827.129442	22770.800482
48.037000	-0.002750	-0.000494	0.000075	0.002864	6142.001085	44226.940375	3814.533162	22698.525456
48.537500	0.001308	-0.000258	0.007798	-0.000464	6199.603781	44568.296776	3841.880816	22851.828968
49.038000	0.003885	0.001378	0.002527	-0.000640	6221.321118	44742.935842	3829.184989	22859.964848
49.535000	0.003625	0.000684	0.006323	-0.002116	6230.965944	44818.586263	3842.324931	22928.376737
50.035500	-0.002040	0.000325	0.002339	0.003649	6141.426959	44230.173180	3818.153201	22662.553507
50.536000	0.001356	-0.002610	0.003446	0.013562	6091.414884	43022.408577	3796.781961	22213.595534
51.036000	0.029553	-0.022284	0.042460	0.437761	4112.816465	17273.738876	3183.218538	10090.753709
51.539500	-0.000422	-0.021240	-0.003564	-0.054023	6632.562882	47821.950961	3952.944351	25487.689437
52.036500	-0.013915	-0.031426	-0.018875	-0.154480	7485.809001	58223.852226	4212.747834	31400.148793
52.537000	-0.010353	-0.047135	-0.012304	-0.207632	8141.721617	63214.404118	4427.880432	35127.623539
53.037000	0.001900	-0.025051	-0.000578	-0.153353	7647.537144	58897.687370	4271.595808	31325.915943
53.534500	0.007567	-0.022071	0.003874	-0.117095	7316.731994	54759.667134	4164.386506	29038.608465
54.035500	0.004370	-0.020217	0.006013	-0.095981	7069.973634	52505.733016	4104.070524	27792.057652
54.535000	0.005418	-0.012646	0.007850	-0.078770	6913.390839	51414.481329	4057.094405	26819.806696
55.035000	0.012378	-0.005642	0.013177	-0.086253	7053.028907	53063.494939	4096.118417	27237.776932
55.538500	0.018394	-0.000140	0.015142	-0.079120	7042.062948	52875.158552	4080.236889	26839.202837
56.039000	0.028298	0.005076	0.028346	-0.070483	7054.505775	52482.278959	4094.262721	26365.255020
56.536500	0.040944	0.012016	0.034823	-0.055190	7028.552751	51535.773973	4067.317921	25548.804394
57.037000	0.051534	0.018992	0.045740	-0.035077	6936.492551	50083.648441	4039.791296	24517.913096
57.537000	0.062848	0.026277	0.059197	-0.011359	6819.564831	48327.856969	4009.753440	23362.013804
58.037500	0.076089	0.033902	0.075578	0.027217	6590.879787	45196.109972	3947.163571	21611.779391
58.537000	0.087509	0.041568	0.091418	0.067762	6343.936591	42104.839424	3881.152017	19932.273743
59.035500	0.099338	0.047726	0.101479	0.098139	6195.097433	39972.869823	3829.612717	18772.829689
59.535500	0.108365	0.052132	0.112286	0.125842	6051.515286	38031.385020	3788.549614	17783.888985
60.035500	0.123690	0.060228	0.130219	0.142397	6042.274473	37351.785564	3791.839819	17222.309080
60.536500	0.130291	0.064764	0.140483	0.183181	5795.639536	34584.917671	3721.371776	15926.836997
61.036500	0.137634	0.069383	0.150050	0.201118	5723.064301	33624.979933	3702.895996	15394.482925
61.539000	0.147125	0.077278	0.156448	0.214619	5696.053293	33229.633508	3687.494561	15008.051145
62.036500	0.153385	0.081568	0.159158	0.217668	5717.661239	33316.772489	3686.766005	14922.430578
62.537000	0.152028	0.083537	0.163376	0.220583	5688.938624	33250.284035	3689.569130	14841.117889
63.038000	0.159650	0.088851	0.168164	0.219804	5745.688134	33680.545884	3701.646242	14862.799102
63.543500	0.161780	0.090486	0.172482	0.218326	5770.391866	33902.671516	3714.385568	14904.022648
64.038000	0.163660	0.092243	0.169850	0.220167	5770.664156	33896.710731	3704.538775	14852.702420
64.535500	0.166272	0.096145	0.174397	0.219054	5796.390890	34257.848561	3717.014610	14883.699123
65.036000	0.169328	0.096559	0.175995	0.219726	5812.974541	34239.197707	3719.072344	14864.982594
65.539500	0.172337	0.096953	0.183592	0.223722	5806.094809	33979.506785	3727.111070	14754.187430
66.036500	0.175338	0.099980	0.183008	0.229424	5787.364905	33788.103505	3713.121612	14597.877930
66.537500	0.179374	0.100599	0.184668	0.231960	5797.751895	33651.575022	3711.188523	14529.004483
67.037000	0.181113	0.102491	0.192214	0.237257	5773.160222	33410.584777	3716.157725	14386.430607
67.606000	0.180665	0.103153	0.189716	0.245060	5716.907415	32911.393972	3693.593004	14179.579817
68.037000	0.187053	0.104724	0.196424	0.249417	5730.653785	32718.799473	3698.696456	14065.670890
68.569500	0.189254	0.105852	0.200917	0.253509	5717.848744	32515.336488	3699.570399	13959.739821
69.038000	0.190828	0.108001	0.199333	0.259606	5687.450540	32246.411802	3682.982780	13803.742647
69.585500	0.193999	0.109213	0.202641	0.264588	5675.372792	31991.938801	3679.408875	13677.892251
70.036000	0.192331	0.110180	0.207850	0.270516	5625.235022	31660.309014	3677.876626	13529.995939
70.536500	0.197733	0.113014	0.206840	0.275206	5629.893992	31537.268158	3665.821754	13414.414737
71.037000	0.199766	0.115034	0.211555	0.280579	5608.097009	31316.296301	3664.442690	13283.545179
71.534000	0.201777	0.117053	0.206238	0.285639	5588.339211	31117.295719	3642.931933	13161.751330
72.037500	0.203596	0.118198	0.214129	0.295642	5535.982359	30545.518675	3638.616612	12925.103602
72.537500	0.207473	0.120450	0.216039	0.296494	5555.221763	30635.117018	3640.775925	12905.207463
73.034000	0.207921	0.121469	0.221885	0.300320	5533.750678	30455.783826	3644.912807	12816.311476
73.535000	0.213836	0.122905	0.221865	0.305362	5539.277952	30227.054687	3634.582153	12700.335707
74.036000	0.212391	0.124758	0.224249	0.315284	5468.097517	29722.162247	3619.419197	12476.025397
74.536000	0.217694	0.127349	0.231510	0.314617	5505.252921	29924.932814	3635.372919	12490.948666
75.038500	0.219578	0.127940	0.236339	0.317192	5500.922220	29801.258775	3639.962316	12433.470032
75.536500	0.219145	0.128520	0.232973	0.319392	5484.499790	29700.780209	3628.672820	12384.645445
76.036500	0.222385	0.130311	0.235775	0.329110	5444.512838	29214.189128	3614.845499	12171.872558
76.537500	0.229054	0.132272	0.239293	0.326436	5502.380165	29497.605507	3627.216226	12229.957711
77.034500	0.226888	0.133741	0.242461	0.329990	5466.809093	29369.736913	3626.438611	12152.847584
77.535000	0.230197	0.134014	0.248505	0.330991	5481.098216	29325.247842	3636.634396	12131.241631
78.035000	0.230653	0.134703	0.245342	0.338834	5435.617142	28891.868618	3614.535496	11963.705109
78.541000	0.233595	0.136279	0.249337	0.337185	5463.790632	29086.358510	3625.799154	11998.670708
79.036000	0.235822	0.138170	0.249631	0.339431	5463.675906	29064.853387	3621.885190	11951.057259
79.541500	0.238367	0.137692	0.250707	0.340928	5470.150884	28945.659696	3621.044005	11919.468899
80.039500	0.238096	0.138305	0.256330	0.349038	5418.808140	28498.195074	3616.090295	11750.186827
80.539500	0.241870	0.140456	0.252356	0.345864	5461.302571	28815.256922	3614.502290	11816.061686
81.037000	0.242033	0.141783	0.257546	0.348824	5444.116088	28717.647402	3618.935490	11754.618663
81.537000	0.244567	0.142115	0.259740	0.350218	5451.111336	28654.317064	3620.531826	11725.831022
82.037500	0.244591	0.143617	0.259447	0.358013	5403.808870	28282.392120	3604.533400	11566.503565
82.535000	0.251330	0.145269	0.267691	0.355047	5463.009781	28554.735812	3626.787293	11626.775877
83.035000	0.251739	0.144378	0.268770	0.356387	5457.275634	28422.817354	3626.263168	11599.502825
83.535500	0.255644	0.146706	0.271471	0.358880	5465.980365	28413.090300	3626.680378	11548.953050
84.035500	0.253117	0.146455	0.268820	0.367024	5400.879443	27922.701841	3605.241299	11385.846775
84.539000	0.255177	0.146664	0.267145	0.360834	5451.067610	28295.669852	3614.144365	11509.545473
85.036500	0.256082	0.147880	0.277774	0.362445	5446.731376	28272.432667	3632.202401	11477.172492
85.536500	0.259537	0.148871	0.277577	0.363985	5458.500173	28240.272488	3628.694682	11446.353020
86.037000	0.260026	0.150945	0.271561	0.366283	5447.383321	28227.142193	3612.098577	11400.562636
86.537000	0.264445	0.151271	0.269656	0.366785	5471.518658	28216.832933	3607.353429	11390.589134
87.034000	0.262229	0.151090	0.278214	0.367412	5453.983697	28169.624635	3623.091600	11378.155397
87.534500	0.264593	0.153112	0.279756	0.369232	5457.326524	28181.418909	3622.533065	11342.151531
88.035000	0.263989	0.152254	0.277686	0.368979	5455.170389	28146.104679	3618.907243	11347.158755
88.535000	0.267732	0.152710	0.282518	0.369967	5472.170997	28115.057330	3626.600282	11327.662928
89.038500	0.268013	0.155285	0.281953	0.372373	5459.046779	28124.918986	3620.646935	11280.374827
89.535500	0.267504	0.155623	0.279839	0.373370	5449.789166	28086.499209	3614.457362	11260.865283
90.036000	0.269681	0.155816	0.282822	0.374488	5456.294926	28032.702326	3618.163281	11239.028193
90.536500	0.270799	0.156799	0.284865	0.375977	5454.010229	28003.316507	3619.267200	11210.043822
91.034000	0.270318	0.156409	0.283107	0.375680	5452.881790	27997.882667	3616.357539	11215.810250
91.539500	0.271980	0.158218	0.292110	0.377679	5450.809401	27986.902467	3630.387123	11177.025041
92.035000	0.271371	0.157718	0.277716	0.385764	5397.952882	27493.886919	3586.151762	11021.956487
92.535000	0.275777	0.160491	0.292258	0.380948	5454.060330	27929.252559	3624.109484	11113.989067
93.035500	0.275773	0.160052	0.291132	0.381566	5450.233398	27868.129043	3620.620116	11102.122020
93.535500	0.277541	0.160487	0.287145	0.382327	5456.426550	27849.303633	3611.190757	11087.529606
94.038500	0.275661	0.159941	0.286260	0.389184	5403.195316	27425.924987	3596.034033	10957.219544
94.535500	0.279769	0.162154	0.295817	0.384572	5456.315084	27815.983801	3623.977179	11044.633518
95.039000	0.279306	0.162007	0.291385	0.384820	5451.947772	27793.226576	3614.648797	11039.914829
95.537000	0.278637	0.162193	0.294535	0.385338	5444.662891	27774.134910	3619.881714	11030.048414
96.037500	0.275846	0.162335	0.294038	0.393359	5379.242247	27325.103828	3603.053516	10878.883545
