sample name	sample
index	556
start time	 03-15-2021  12:25:45 PM


Wavelength (nm)	Absorbance
494.344910	0.215209
494.563924	0.215209
494.782919	0.215209
495.001897	NaN
495.220856	-0.139906
495.439797	-0.089519
495.658719	-0.022315
495.877624	0.090227
496.096510	-0.032765
496.315378	0.160844
496.534227	0.107753
496.753059	0.244207
496.971872	0.345679
497.190667	0.051237
497.409444	0.048394
497.628203	0.046395
497.846943	0.046370
498.065665	0.047485
498.284369	0.046635
498.503055	0.046444
498.721723	0.045978
498.940372	0.045411
499.159003	0.045877
499.377616	0.045641
499.596210	0.046555
499.814787	0.045834
500.033345	0.044024
500.251885	0.044869
500.470406	0.045291
500.688910	0.045402
500.907395	0.046343
501.125862	0.047733
501.344311	0.047472
501.562742	0.046197
501.781154	0.046334
501.999548	0.047341
502.217924	0.046352
502.436282	0.046423
502.654621	0.046148
502.872942	0.045533
503.091245	0.044167
503.309530	0.044041
503.527797	0.043966
503.746045	0.043519
503.964275	0.043879
504.182487	0.043677
504.400681	0.044415
504.618856	0.044841
504.837013	0.045366
505.055152	0.045062
505.273273	0.045378
505.491376	0.045421
505.709460	0.044739
505.927526	0.044674
506.145574	0.044366
506.363604	0.043963
506.581615	0.042641
506.799608	0.042448
507.017583	0.043241
507.235540	0.043476
507.453478	0.044239
507.671399	0.044344
507.889301	0.043487
508.107185	0.043914
508.325050	0.043344
508.542898	0.044924
508.760727	0.045337
508.978538	0.045079
509.196330	0.044808
509.414105	0.043749
509.631861	0.044611
509.849599	0.045363
510.067319	0.045433
510.285021	0.046596
510.502704	0.046705
510.720369	0.046635
510.938016	0.046719
511.155645	0.047182
511.373255	0.047368
511.590848	0.047449
511.808422	0.047354
512.025977	0.047070
512.243515	0.046423
512.461034	0.045750
512.678536	0.045263
512.896018	0.045322
513.113483	0.044764
513.330930	0.045419
513.548358	0.046267
513.765768	0.046431
513.983160	0.046502
514.200533	0.045437
514.417889	0.045862
514.635226	0.045358
514.852545	0.044954
515.069845	0.045674
515.287128	0.045584
515.504392	0.044610
515.721638	0.044929
515.938866	0.045797
516.156075	0.047332
516.373267	0.047387
516.590440	0.048044
516.807594	0.048169
517.024731	0.047811
517.241850	0.048163
517.458950	0.048243
517.676032	0.048027
517.893095	0.048210
518.110141	0.048070
518.327168	0.048306
518.544177	0.048847
518.761168	0.049302
518.978141	0.048360
519.195095	0.047861
519.412031	0.047893
519.628949	0.047772
519.845849	0.047432
520.062731	0.047428
520.279594	0.047059
520.496439	0.046841
520.713266	0.046705
520.930074	0.046920
521.146865	0.046855
521.363637	0.046686
521.580391	0.046477
521.797127	0.046779
522.013844	0.046145
522.230543	0.046673
522.447224	0.046698
522.663887	0.046950
522.880532	0.047716
523.097158	0.047643
523.313766	0.047457
523.530356	0.047894
523.746928	0.047356
523.963481	0.048109
524.180017	0.047749
524.396534	0.047255
524.613032	0.047123
524.829513	0.046933
525.045975	0.047302
525.262420	0.047705
525.478845	0.047976
525.695253	0.047998
525.911643	0.047445
526.128014	0.047795
526.344367	0.048404
526.560702	0.048225
526.777018	0.048370
526.993316	0.047925
527.209597	0.048438
527.425858	0.047959
527.642102	0.048026
527.858328	0.047982
528.074535	0.047734
528.290724	0.047835
528.506894	0.048119
528.723047	0.048029
528.939181	0.048472
529.155297	0.048233
529.371395	0.048464
529.587475	0.048482
529.803536	0.048764
530.019579	0.048563
530.235604	0.048917
530.451611	0.048794
530.667600	0.048465
530.883570	0.048972
531.099522	0.048820
531.315456	0.049012
531.531372	0.049295
531.747269	0.049907
531.963148	0.050420
532.179009	0.050104
532.394852	0.050343
532.610676	0.050797
532.826482	0.050444
533.042271	0.050607
533.258040	0.050722
533.473792	0.051340
533.689525	0.050971
533.905240	0.050727
534.120937	0.050511
534.336616	0.051013
534.552277	0.051016
534.767919	0.050963
534.983543	0.051212
535.199149	0.050512
535.414736	0.050204
535.630306	0.050409
535.845857	0.050861
536.061390	0.051350
536.276904	0.050817
536.492401	0.051254
536.707879	0.051659
536.923339	0.051883
537.138781	0.052624
537.354204	0.052495
537.569610	0.053050
537.784997	0.052849
538.000366	0.052455
538.215716	0.052746
538.431049	0.052716
538.646363	0.052862
538.861659	0.052697
539.076937	0.052697
539.292196	0.053058
539.507438	0.052588
539.722661	0.052963
539.937866	0.053365
540.153052	0.053431
540.368221	0.053341
540.583371	0.053620
540.798503	0.053865
541.013617	0.053854
541.228712	0.053833
541.443789	0.054081
541.658848	0.053965
541.873889	0.053737
542.088912	0.053650
542.303916	0.054081
542.518902	0.053824
542.733870	0.053418
542.948820	0.053404
543.163752	0.053273
543.378665	0.053003
543.593560	0.053372
543.808437	0.053783
544.023295	0.053888
544.238136	0.053799
544.452958	0.054006
544.667762	0.054575
544.882548	0.054688
545.097315	0.054566
545.312064	0.054493
545.526795	0.054012
545.741508	0.053264
545.956203	0.053287
546.170879	0.052870
546.385537	0.052741
546.600177	0.052721
546.814799	0.052789
547.029402	0.053071
547.243988	0.053504
547.458555	0.053523
547.673103	0.054209
547.887634	0.054186
548.102146	0.054238
548.316640	0.054002
548.531116	0.053808
548.745574	0.054219
548.960013	0.054007
549.174435	0.053672
549.388838	0.053747
549.603222	0.053797
549.817589	0.053880
550.031937	0.054147
550.246267	0.054590
550.460579	0.054414
550.674873	0.054359
550.889148	0.054659
551.103405	0.054888
551.317644	0.054965
551.531865	0.054654
551.746068	0.054943
551.960252	0.054916
552.174418	0.054640
552.388566	0.054583
552.602696	0.054265
552.816807	0.054298
553.030900	0.054573
553.244975	0.054913
553.459032	0.055248
553.673070	0.055010
553.887091	0.055680
554.101093	0.055770
554.315077	0.056379
554.529042	0.056540
554.742990	0.056536
554.956919	0.056637
555.170830	0.056382
555.384722	0.056713
555.598597	0.056623
555.812453	0.056425
556.026291	0.056470
556.240111	0.056097
556.453913	0.056085
556.667696	0.055776
556.881461	0.055633
557.095208	0.055694
557.308937	0.055302
557.522647	0.055595
557.736339	0.055330
557.950013	0.055467
558.163669	0.055487
558.377307	0.055532
558.590926	0.055841
558.804527	0.055768
559.018110	0.055484
559.231675	0.055871
559.445221	0.055735
559.658749	0.055532
559.872259	0.055589
560.085751	0.056197
560.299225	0.056055
560.512680	0.055936
560.726117	0.055872
560.939536	0.055893
561.152937	0.055770
561.366319	0.056027
561.579683	0.056563
561.793029	0.056322
562.006357	0.055567
562.219667	0.055639
562.432958	0.055914
562.646231	0.055934
562.859486	0.056060
563.072723	0.056120
563.285941	0.056217
563.499141	0.055939
563.712323	0.055871
563.925487	0.056408
564.138632	0.056790
564.351760	0.057102
564.564869	0.057140
564.777960	0.057643
564.991032	0.057594
565.204087	0.057662
565.417123	0.057469
565.630141	0.057983
565.843140	0.058055
566.056122	0.057936
566.269085	0.057841
566.482030	0.057972
566.694957	0.057938
566.907866	0.058132
567.120756	0.058182
567.333628	0.058354
567.546482	0.058426
567.759318	0.058191
567.972135	0.058025
568.184935	0.057986
568.397716	0.057901
568.610478	0.058049
568.823223	0.057890
569.035949	0.057883
569.248657	0.058002
569.461347	0.057891
569.674019	0.058119
569.886672	0.058356
570.099308	0.058164
570.311925	0.058114
570.524523	0.057735
570.737104	0.057605
570.949666	0.057413
571.162210	0.057652
571.374736	0.057226
571.587244	0.057022
571.799733	0.057005
572.012205	0.057246
572.224658	0.057601
572.437092	0.057588
572.649509	0.057773
572.861907	0.057982
573.074287	0.057888
573.286649	0.058048
573.498993	0.058190
573.711318	0.057951
573.923625	0.058099
574.135914	0.057925
574.348185	0.058289
574.560438	0.058238
574.772672	0.057916
574.984888	0.058043
575.197086	0.058522
575.409266	0.058512
575.621427	0.058883
575.833570	0.058534
576.045695	0.058721
576.257802	0.058614
576.469890	0.058918
576.681961	0.059068
576.894013	0.058909
577.106046	0.058751
577.318062	0.058839
577.530059	0.058718
577.742039	0.058839
577.954000	0.058599
578.165942	0.058681
578.377867	0.058556
578.589773	0.058366
578.801661	0.058532
579.013531	0.058264
579.225382	0.058375
579.437216	0.058498
579.649031	0.058816
579.860828	0.058982
580.072606	0.059025
580.284367	0.059416
580.496109	0.059697
580.707833	0.059697
580.919539	0.060103
581.131227	0.060036
581.342896	0.060284
581.554547	0.059884
581.766180	0.060062
581.977795	0.059957
582.189391	0.059849
582.400969	0.059891
582.612529	0.059802
582.824071	0.059878
583.035595	0.060203
583.247100	0.060212
583.458587	0.060440
583.670056	0.060608
583.881506	0.060791
584.092939	0.060679
584.304353	0.060966
584.515749	0.061381
584.727127	0.061448
584.938486	0.060821
585.149828	0.060473
585.361151	0.060351
585.572456	0.060067
585.783742	0.060245
585.995011	0.060412
586.206261	0.060604
586.417493	0.060298
586.628706	0.060049
586.839902	0.060450
587.051079	0.060854
587.262238	0.060899
587.473379	0.061200
587.684502	0.060879
587.895606	0.060608
588.106692	0.060510
588.317760	0.060642
588.528810	0.060992
588.739841	0.060874
588.950855	0.060724
589.161850	0.060805
589.372827	0.060702
589.583785	0.061077
589.794726	0.061225
590.005648	0.061128
590.216552	0.061106
590.427437	0.061036
590.638305	0.061224
590.849154	0.061238
591.059985	0.061397
591.270798	0.061422
591.481592	0.061143
591.692369	0.061114
591.903127	0.060715
592.113867	0.060802
592.324588	0.060662
592.535292	0.060775
592.745977	0.060803
592.956644	0.061028
593.167293	0.060608
593.377923	0.060533
593.588536	0.060673
593.799130	0.060979
594.009706	0.061262
594.220263	0.061247
594.430803	0.061125
594.641324	0.061274
594.851827	0.061158
595.062312	0.061354
595.272778	0.061610
595.483227	0.061579
595.693657	0.061578
595.904069	0.061299
596.114462	0.061417
596.324838	0.061661
596.535195	0.061518
596.745534	0.061494
596.955855	0.061596
597.166157	0.061475
597.376441	0.061529
597.586707	0.061683
597.796955	0.061875
598.007185	0.061830
598.217396	0.061681
598.427589	0.061697
598.637764	0.061489
598.847921	0.061865
599.058060	0.062116
599.268180	0.062310
599.478282	0.062327
599.688366	0.062156
599.898431	0.062475
600.108479	0.062310
600.318508	0.062242
600.528519	0.062381
600.738511	0.062262
600.948486	0.062052
601.158442	0.061814
601.368380	0.061934
601.578300	0.061816
601.788202	0.061516
601.998085	0.061702
602.207950	0.061819
602.417797	0.061898
602.627626	0.061700
602.837436	0.061688
603.047228	0.061464
603.257002	0.061488
603.466758	0.061513
603.676496	0.061615
603.886215	0.061560
604.095916	0.061570
604.305599	0.061546
604.515264	0.061542
604.724910	0.061581
604.934538	0.061743
605.144148	0.061717
605.353740	0.061730
605.563314	0.061586
605.772869	0.061805
605.982406	0.061926
606.191925	0.062104
606.401425	0.062400
606.610908	0.062701
606.820372	0.062693
607.029818	0.062771
607.239246	0.062902
607.448655	0.062750
607.658047	0.062988
607.867420	0.062748
608.076775	0.062890
608.286111	0.062677
608.495430	0.062766
608.704730	0.063082
608.914012	0.062950
609.123275	0.063214
609.332521	0.063613
609.541748	0.063399
609.750957	0.063793
609.960148	0.063698
610.169321	0.064010
610.378475	0.063837
610.587611	0.063498
610.796729	0.063827
611.005829	0.063541
611.214910	0.063505
611.423974	0.063622
611.633019	0.063555
611.842045	0.063584
612.051054	0.063663
612.260044	0.063693
612.469017	0.063830
612.677970	0.063509
612.886906	0.063608
613.095824	0.063807
613.304723	0.063822
613.513604	0.063940
613.722467	0.063786
613.931311	0.063672
614.140138	0.063741
614.348946	0.063835
614.557736	0.064067
614.766507	0.064110
614.975261	0.064113
615.183996	0.063899
615.392713	0.063977
615.601412	0.064242
615.810092	0.064276
616.018754	0.064414
616.227399	0.064350
616.436024	0.064094
616.644632	0.064363
616.853222	0.064259
617.061793	0.064633
617.270346	0.064632
617.478880	0.064453
617.687397	0.064219
617.895895	0.064289
618.104375	0.064335
618.312837	0.064649
618.521281	0.064446
618.729706	0.064501
618.938113	0.064459
619.146502	0.064537
619.354873	0.064722
619.563226	0.065198
619.771560	0.065111
619.979876	0.065265
620.188174	0.065354
620.396453	0.065287
620.604715	0.065287
620.812958	0.065274
621.021183	0.065235
621.229390	0.065029
621.437578	0.064991
621.645748	0.064809
621.853900	0.064960
622.062034	0.064843
622.270150	0.065076
622.478247	0.065274
622.686326	0.065262
622.894387	0.065181
623.102430	0.065479
623.310454	0.065354
623.518461	0.065577
623.726449	0.065517
623.934418	0.065475
624.142370	0.065654
624.350303	0.065505
624.558218	0.065536
624.766115	0.065603
624.973994	0.065754
625.181855	0.065814
625.389697	0.065904
625.597521	0.065775
625.805327	0.065831
626.013114	0.065584
626.220883	0.065722
626.428634	0.065660
626.636367	0.065771
626.844082	0.065512
627.051778	0.065749
627.259457	0.065741
627.467117	0.065766
627.674758	0.065829
627.882382	0.065855
628.089987	0.065965
628.297574	0.066110
628.505143	0.066031
628.712694	0.066126
628.920226	0.066019
629.127740	0.065932
629.335236	0.066108
629.542714	0.066106
629.750174	0.066183
629.957615	0.066149
630.165038	0.066031
630.372443	0.065889
630.579829	0.065896
630.787198	0.065980
630.994548	0.066008
631.201880	0.065933
631.409194	0.065912
631.616489	0.065911
631.823766	0.065739
632.031025	0.065851
632.238266	0.066184
632.445489	0.066509
632.652693	0.066336
632.859879	0.066262
633.067047	0.066479
633.274197	0.066718
633.481329	0.066989
633.688442	0.067129
633.895537	0.067021
634.102614	0.066760
634.309672	0.066574
634.516713	0.066658
634.723735	0.066842
634.930739	0.066854
635.137724	0.066642
635.344692	0.066762
635.551641	0.066938
635.758572	0.067317
635.965485	0.067697
636.172379	0.067594
636.379256	0.067700
636.586114	0.067861
636.792954	0.067940
636.999775	0.068166
637.206579	0.068097
637.413364	0.067907
637.620131	0.067893
637.826880	0.067805
638.033610	0.067867
638.240323	0.067934
638.447017	0.067913
638.653692	0.067727
638.860350	0.067672
639.066990	0.067423
639.273611	0.067589
639.480214	0.067758
639.686798	0.067849
639.893365	0.067772
640.099913	0.067929
640.306443	0.067978
640.512955	0.068145
640.719449	0.068217
640.925924	0.068384
641.132381	0.068463
641.338820	0.068342
641.545241	0.068334
641.751644	0.068614
641.958028	0.068585
642.164394	0.068613
642.370742	0.068787
642.577071	0.068772
642.783383	0.068789
642.989676	0.069008
643.195951	0.069072
643.402207	0.069107
643.608446	0.069185
643.814666	0.069289
644.020868	0.069290
644.227052	0.069222
644.433218	0.069412
644.639365	0.069416
644.845494	0.069361
645.051605	0.069301
645.257698	0.069526
645.463772	0.069369
645.669828	0.069373
645.875866	0.069361
646.081886	0.069346
646.287888	0.069412
646.493871	0.069658
646.699836	0.069409
646.905783	0.069538
647.111712	0.069313
647.317622	0.069496
647.523514	0.069539
647.729388	0.069728
647.935244	0.069701
648.141082	0.069614
648.346901	0.069419
648.552702	0.069703
648.758485	0.069588
648.964250	0.069903
649.169996	0.070061
649.375724	0.069976
649.581434	0.069984
649.787126	0.070055
649.992800	0.070115
650.198455	0.070327
650.404092	0.070258
650.609711	0.070453
650.815311	0.070218
651.020894	0.070235
651.226458	0.070370
651.432004	0.070438
651.637532	0.070759
651.843041	0.070654
652.048532	0.070596
652.254006	0.070610
652.459460	0.070601
652.664897	0.070848
652.870315	0.070920
653.075716	0.070961
653.281097	0.070931
653.486461	0.070854
653.691807	0.071053
653.897134	0.071124
654.102443	0.071164
654.307734	0.071306
654.513006	0.071132
654.718261	0.071161
654.923497	0.071045
655.128715	0.071111
655.333915	0.071156
655.539096	0.071361
655.744259	0.071618
655.949404	0.071866
656.154531	0.071636
656.359640	0.071823
656.564730	0.071712
656.769802	0.071689
656.974856	0.071898
657.179892	0.071967
657.384909	0.071867
657.589908	0.071756
657.794889	0.071821
657.999852	0.071983
658.204797	0.072078
658.409723	0.072215
658.614631	0.072457
658.819521	0.072466
659.024393	0.072413
659.229246	0.072370
659.434081	0.072421
659.638898	0.072231
659.843697	0.072382
660.048478	0.072208
660.253240	0.072043
660.457984	0.072098
660.662710	0.072121
660.867417	0.072114
661.072107	0.072534
661.276778	0.072340
661.481431	0.072294
661.686066	0.072344
661.890682	0.072577
662.095281	0.072820
662.299861	0.072950
662.504422	0.072886
662.708966	0.073095
662.913491	0.072988
663.117999	0.073167
663.322488	0.073438
663.526958	0.073413
663.731411	0.073165
663.935845	0.073258
664.140261	0.073154
664.344659	0.073354
664.549038	0.073455
664.753400	0.073451
664.957743	0.073592
665.162068	0.073669
665.366375	0.073714
665.570663	0.074039
665.774933	0.074172
665.979185	0.074299
666.183419	0.074136
666.387635	0.074009
666.591832	0.073952
666.796011	0.074041
667.000172	0.074164
667.204315	0.074283
667.408439	0.074220
667.612545	0.074337
667.816634	0.074341
668.020703	0.074422
668.224755	0.074570
668.428788	0.074686
668.632803	0.074500
668.836800	0.074422
669.040779	0.074156
669.244739	0.074172
669.448681	0.073824
669.652605	0.073707
669.856511	0.073893
670.060399	0.073940
670.264268	0.073922
670.468119	0.074176
670.671952	0.074139
670.875767	0.074601
671.079563	0.074821
671.283341	0.074975
671.487101	0.075256
671.690843	0.075443
671.894567	0.075394
672.098272	0.075473
672.301959	0.075535
672.505628	0.075610
672.709278	0.075604
672.912911	0.075512
673.116525	0.075627
673.320121	0.075622
673.523699	0.075510
673.727258	0.075679
673.930799	0.075772
674.134322	0.075879
674.337827	0.076034
674.541314	0.075990
674.744782	0.076322
674.948232	0.076325
675.151664	0.076540
675.355078	0.076588
675.558474	0.076609
675.761851	0.076689
675.965210	0.076694
676.168551	0.076613
676.371873	0.076754
676.575178	0.076599
676.778464	0.076712
676.981732	0.076498
677.184981	0.076632
677.388213	0.076727
677.591426	0.076776
677.794621	0.076851
677.997798	0.077011
678.200956	0.076899
678.404097	0.076922
678.607219	0.076804
678.810323	0.076941
679.013408	0.076990
679.216476	0.076883
679.419525	0.076859
679.622556	0.076844
679.825569	0.076945
680.028563	0.077182
680.231540	0.077294
680.434498	0.077660
680.637438	0.077743
680.840359	0.077598
681.043263	0.077771
681.246148	0.077843
681.449015	0.077804
681.651864	0.077789
681.854694	0.077816
682.057506	0.077912
682.260301	0.077743
682.463076	0.077728
682.665834	0.077676
682.868573	0.077522
683.071295	0.077616
683.273998	0.077631
683.476682	0.077680
683.679349	0.077504
683.881997	0.077459
684.084627	0.077665
684.287239	0.077756
684.489833	0.077942
684.692408	0.077959
684.894965	0.078010
685.097504	0.078123
685.300025	0.078114
685.502527	0.078140
685.705012	0.078249
685.907478	0.078135
686.109925	0.078073
686.312355	0.078061
686.514766	0.078183
686.717159	0.078202
686.919534	0.078465
687.121891	0.078539
687.324230	0.078674
687.526550	0.078749
687.728852	0.078882
687.931136	0.078939
688.133401	0.079163
688.335649	0.079258
688.537878	0.079118
688.740089	0.079062
688.942281	0.079183
689.144456	0.079405
689.346612	0.079353
689.548750	0.079286
689.750870	0.079283
689.952971	0.079029
690.155055	0.078981
690.357120	0.079067
690.559167	0.079155
690.761195	0.079040
690.963206	0.078806
691.165198	0.078863
691.367172	0.078922
691.569128	0.079000
691.771065	0.079193
691.972984	0.079391
692.174885	0.079501
692.376768	0.079382
692.578633	0.079469
692.780479	0.079757
692.982308	0.079723
693.184118	0.079879
693.385909	0.079980
693.587683	0.080015
693.789438	0.080041
693.991175	0.080038
694.192894	0.080148
694.394595	0.080011
694.596277	0.079859
694.797941	0.080016
694.999587	0.079823
695.201215	0.079758
695.402824	0.079801
695.604416	0.079776
695.805989	0.079793
696.007543	0.079557
696.209080	0.079634
696.410598	0.079651
696.612099	0.079450
696.813580	0.079506
697.015044	0.079591
697.216490	0.079637
697.417917	0.079672
697.619326	0.079639
697.820717	0.079672
698.022089	0.079762
698.223444	0.079546
698.424780	0.079393
698.626098	0.079406
698.827397	0.079562
699.028679	0.079376
699.229942	0.079272
699.431187	0.079250
699.632414	0.079326
699.833622	0.079243
700.034813	0.079380
700.235985	0.079560
700.437139	0.079681
700.638274	0.079261
700.839392	0.079427
701.040491	0.079634
701.241572	0.079711
701.442635	0.079762
701.643679	0.079989
701.844706	0.080202
702.045714	0.080160
702.246704	0.080122
702.447675	0.080392
702.648629	0.080367
702.849564	0.080083
703.050481	0.080202
703.251380	0.080279
703.452260	0.080343
703.653122	0.080241
703.853966	0.080487
704.054792	0.080415
704.255600	0.080418
704.456389	0.080719
704.657160	0.080685
704.857913	0.080534
705.058648	0.080359
705.259365	0.080124
705.460063	0.080238
705.660743	0.080301
705.861405	0.080267
706.062048	0.080121
706.262674	0.079688
706.463281	0.079934
706.663870	0.079934
706.864441	0.080037
707.064993	0.080144
707.265527	0.080079
707.466043	0.079855
707.666541	0.080010
707.867021	0.080166
708.067482	0.080314
708.267925	0.080383
708.468350	0.080390
708.668757	0.080303
708.869145	0.080143
709.069516	0.080090
709.269868	0.080276
709.470201	0.080365
709.670517	0.080327
709.870814	0.080168
710.071093	0.079918
710.271354	0.079854
710.471597	0.080073
710.671821	0.080254
710.872028	0.080178
711.072216	0.079895
711.272385	0.079715
711.472537	0.079626
711.672670	0.079937
711.872785	0.080016
712.072882	0.080091
712.272961	0.079866
712.473021	0.079782
712.673063	0.079791
712.873087	0.079851
713.073093	0.079895
713.273081	0.079988
713.473050	0.079688
713.673001	0.079519
713.872934	0.079578
714.072849	0.079593
714.272745	0.079721
714.472623	0.079640
714.672483	0.079578
714.872325	0.079459
715.072148	0.079508
715.271954	0.079415
715.471741	0.079687
715.671509	0.079378
715.871260	0.079181
716.070992	0.078946
716.270707	0.079113
716.470403	0.079145
716.670080	0.078978
716.869740	0.078957
717.069381	0.079050
717.269004	0.078862
717.468609	0.078948
717.668195	0.079164
717.867764	0.079069
718.067314	0.079090
718.266846	0.078946
718.466360	0.079066
718.665855	0.079007
718.865332	0.078957
719.064791	0.078914
719.264232	0.078831
719.463655	0.078733
719.663059	0.078807
719.862445	0.078525
720.061813	0.078551
720.261163	0.078530
720.460494	0.078284
720.659807	0.078376
720.859102	0.078466
721.058379	0.078449
721.257638	0.078464
721.456878	0.078587
721.656100	0.078509
721.855304	0.078353
722.054490	0.078208
722.253657	0.078277
722.452806	0.078082
722.651937	0.078042
722.851050	0.078117
723.050145	0.078089
723.249221	0.078072
723.448279	0.078258
723.647319	0.078349
723.846340	0.078190
724.045344	0.078113
724.244329	0.078254
724.443296	0.078230
724.642245	0.078304
724.841175	0.078304
725.040088	0.078027
725.238982	0.077942
725.437857	0.077958
725.636715	0.078228
725.835554	0.078382
726.034376	0.078302
726.233179	0.078066
726.431963	0.077866
726.630730	0.077936
726.829478	0.077816
727.028208	0.077836
727.226920	0.077653
727.425614	0.077543
727.624289	0.077276
727.822946	0.077295
728.021585	0.077435
728.220206	0.077359
728.418808	0.077128
728.617392	0.077081
728.815958	0.076812
729.014506	0.076879
729.213036	0.076791
729.411547	0.076711
729.610040	0.076487
729.808515	0.076272
730.006972	0.076131
730.205410	0.076065
730.403831	0.076147
730.602233	0.076017
730.800616	0.075868
730.998982	0.075791
731.197329	0.075511
731.395658	0.075456
731.593969	0.075398
731.792262	0.075408
731.990536	0.075426
732.188793	0.075277
732.387031	0.075360
732.585250	0.075436
732.783452	0.075265
732.981635	0.075379
733.179800	0.075137
733.377947	0.075127
733.576076	0.075172
733.774186	0.075168
733.972278	0.075291
734.170352	0.075289
734.368408	0.075166
734.566446	0.075262
734.764465	0.075355
734.962466	0.075513
735.160449	0.075429
735.358413	0.075450
735.556360	0.075296
735.754288	0.075033
735.952198	0.074937
736.150090	0.074979
736.347963	0.074885
736.545818	0.074864
736.743655	0.074874
736.941474	0.074810
737.139275	0.074609
737.337057	0.074399
737.534821	0.074372
737.732567	0.074298
737.930295	0.074266
738.128005	0.074145
738.325696	0.074042
738.523369	0.074165
738.721024	0.074198
738.918660	0.074253
739.116279	0.074271
739.313879	0.074578
739.511461	0.074590
739.709024	0.074506
739.906570	0.074474
740.104097	0.074347
740.301606	0.073953
740.499097	0.073875
740.696569	0.073842
740.894024	0.073988
741.091460	0.073461
741.288878	0.073442
741.486277	0.073494
741.683659	0.073367
741.881022	0.073413
742.078367	0.073470
742.275694	0.073510
742.473002	0.073523
742.670293	0.073038
742.867565	0.073129
743.064819	0.073091
743.262054	0.073150
743.459272	0.073284
743.656471	0.073018
743.853652	0.072890
744.050815	0.072634
744.247959	0.072371
744.445085	0.072605
744.642194	0.072442
744.839283	0.072380
745.036355	0.072216
745.233408	0.072259
745.430444	0.072610
745.627461	0.072652
745.824459	0.072584
746.021440	0.072757
746.218402	0.072649
746.415346	0.072939
746.612272	0.072734
746.809180	0.072674
747.006069	0.072583
747.202940	0.072414
747.399793	0.072425
747.596628	0.072505
747.793444	0.072294
747.990243	0.072464
748.187023	0.072367
748.383784	0.072387
748.580528	0.072476
748.777253	0.072580
748.973960	0.072400
749.170649	0.072542
749.367320	0.072561
749.563973	0.072602
749.760607	0.072333
749.957223	0.072120
750.153821	0.072289
750.350400	0.072126
750.546962	0.072020
750.743505	0.072105
750.940030	0.071922
751.136536	0.071793
751.333025	0.071903
751.529495	0.071970
751.725947	0.072227
751.922381	0.072131
752.118796	0.072058
752.315194	0.071913
752.511573	0.071826
752.707934	0.071774
752.904276	0.071866
753.100601	0.071445
753.296907	0.071482
753.493195	0.071202
753.689465	0.071137
753.885716	0.071165
754.081949	0.071202
754.278164	0.071290
754.474361	0.071115
754.670540	0.071070
754.866700	0.071235
755.062843	0.071211
755.258967	0.071097
755.455072	0.070983
755.651160	0.070990
755.847229	0.070971
756.043280	0.070843
756.239313	0.071081
756.435328	0.070856
756.631324	0.071026
756.827302	0.070941
757.023262	0.071135
757.219204	0.071282
757.415127	0.071157
757.611033	0.070963
757.806920	0.071032
758.002788	0.070953
758.198639	0.071147
758.394471	0.071218
758.590286	0.071438
758.786081	0.071356
758.981859	0.071349
759.177619	0.071543
759.373360	0.071729
759.569083	0.071727
759.764788	0.071704
759.960474	0.071807
760.156143	0.071765
760.351793	0.071678
760.547425	0.071786
760.743038	0.071774
760.938634	0.071414
761.134211	0.071279
761.329770	0.071187
761.525311	0.071134
761.720833	0.071230
761.916338	0.071132
762.111824	0.071040
762.307292	0.070775
762.502741	0.070696
762.698173	0.070793
762.893586	0.070855
763.088981	0.070625
763.284358	0.070689
763.479716	0.070437
763.675057	0.070548
763.870379	0.070605
764.065683	0.070681
764.260968	0.070567
764.456236	0.070463
764.651485	0.070629
764.846716	0.070813
765.041929	0.070638
765.237123	0.070627
765.432299	0.070363
765.627457	0.070285
765.822597	0.070484
766.017719	0.070584
766.212822	0.070641
766.407907	0.070369
766.602974	0.070431
766.798023	0.070407
766.993054	0.070471
767.188066	0.070668
767.383060	0.070648
767.578036	0.070367
767.772993	0.070489
767.967933	0.070644
768.162854	0.070592
768.357757	0.070633
768.552642	0.070642
768.747508	0.070689
768.942356	0.070451
769.137186	0.070468
769.331998	0.070511
769.526792	0.070320
769.721567	0.070214
769.916324	0.070228
770.111063	0.070353
770.305784	0.070278
770.500486	0.070268
770.695171	0.070359
770.889837	0.070272
771.084484	0.070502
771.279114	0.070764
771.473725	0.070878
771.668318	0.071098
771.862893	0.070832
772.057450	0.071026
772.251988	0.070930
772.446509	0.070890
772.641011	0.070962
772.835494	0.070860
773.029960	0.070757
773.224407	0.070598
773.418836	0.070361
773.613247	0.070602
773.807640	0.070272
774.002014	0.070242
774.196370	0.070384
774.390708	0.070298
774.585028	0.070151
774.779330	0.069977
774.973613	0.070073
775.167878	0.070373
775.362125	0.070255
775.556354	0.070345
775.750564	0.070480
775.944756	0.070339
776.138930	0.070434
776.333086	0.070646
776.527223	0.070716
776.721343	0.070641
776.915444	0.070588
777.109526	0.070746
777.303591	0.071122
777.497637	0.070974
777.691666	0.071094
777.885676	0.071190
778.079667	0.071220
778.273641	0.071297
778.467596	0.071366
778.661533	0.071378
778.855452	0.071312
779.049352	0.070938
779.243235	0.070848
779.437099	0.070641
779.630945	0.070477
779.824773	0.070394
780.018582	0.070301
780.212373	0.070048
780.406146	0.069996
780.599901	0.069985
780.793638	0.070351
780.987356	0.070373
781.181056	0.070627
781.374738	0.070866
781.568402	0.071036
781.762047	0.071301
781.955674	0.071565
782.149283	0.071436
782.342874	0.071374
782.536447	0.071287
782.730001	0.071627
782.923537	0.071521
783.117055	0.071455
783.310555	0.071375
783.504036	0.071106
783.697499	0.071436
783.890944	0.071796
784.084371	0.072061
784.277780	0.071862
784.471170	0.071921
784.664542	0.072247
784.857896	0.072257
785.051231	0.072611
785.244549	0.072804
785.437848	0.072625
785.631129	0.072586
785.824392	0.072405
786.017636	0.072628
786.210863	0.072609
786.404071	0.072489
786.597260	0.072544
786.790432	0.072065
786.983585	0.072197
787.176721	0.072445
787.369838	0.072331
787.562936	0.072301
787.756017	0.072505
787.949079	0.072436
788.142123	0.072152
788.335149	0.072072
788.528156	0.072529
788.721146	0.072389
788.914117	0.072045
789.107070	0.072203
789.300005	0.072279
789.492921	0.072217
789.685819	0.072238
789.878699	0.072732
790.071561	0.072994
790.264405	0.072891
790.457230	0.072910
790.650037	0.072948
790.842826	0.072815
791.035597	0.072966
791.228349	0.072950
791.421084	0.072991
791.613800	0.072851
791.806497	0.072814
791.999177	0.072997
792.191838	0.073254
792.384481	0.073361
792.577106	0.073622
792.769713	0.073701
792.962301	0.073831
793.154871	0.074011
793.347423	0.073801
793.539957	0.073711
793.732473	0.073425
793.924970	0.073234
794.117449	0.073324
794.309910	0.073058
794.502353	0.072792
794.694777	0.072686
794.887183	0.072566
795.079571	0.073041
795.271941	0.073199
795.464293	0.073509
795.656626	0.073610
795.848941	0.073677
796.041238	0.073740
796.233516	0.073920
796.425777	0.074053
796.618019	0.074028
796.810243	0.073825
797.002449	0.073863
797.194636	0.073638
797.386805	0.073784
797.578956	0.074064
797.771089	0.074206
797.963204	0.074241
798.155300	0.074295
798.347378	0.074518
798.539438	0.074617
798.731480	0.074592
798.923503	0.074597
799.115509	0.074694
799.307496	0.074743
799.499465	0.074737
799.691415	0.074767
799.883348	0.074847
800.075262	0.074959
800.267158	0.074998
800.459035	0.075039
800.650895	0.075021
800.842736	0.074906
801.034559	0.074648
801.226364	0.074578
801.418150	0.074670
801.609919	0.074681
801.801669	0.074698
801.993401	0.074734
802.185114	0.075013
802.376810	0.075221
802.568487	0.075290
802.760146	0.075538
802.951787	0.075731
803.143409	0.075765
803.335014	0.075854
803.526600	0.075841
803.718168	0.075956
803.909717	0.075807
804.101249	0.075923
804.292762	0.076065
804.484257	0.076083
804.675734	0.076275
804.867192	0.076686
805.058632	0.076595
805.250054	0.076767
805.441458	0.076814
805.632844	0.076945
805.824211	0.076991
806.015561	0.076998
806.206891	0.076908
806.398204	0.077022
806.589499	0.076891
806.780775	0.077111
806.972033	0.076972
807.163273	0.077037
807.354495	0.077039
807.545698	0.077211
807.736883	0.077275
807.928050	0.077680
808.119199	0.077652
808.310329	0.077654
808.501441	0.077671
808.692535	0.077776
808.883611	0.077826
809.074669	0.077878
809.265708	0.078020
809.456729	0.078152
809.647732	0.078111
809.838717	0.078203
810.029683	0.078230
810.220632	0.078444
810.411562	0.078477
810.602474	0.078550
810.793367	0.078746
810.984242	0.078637
811.175100	0.078826
811.365938	0.078747
811.556759	0.078637
811.747562	0.078638
811.938346	0.078604
812.129112	0.078533
812.319860	0.078643
812.510589	0.078446
812.701300	0.078623
812.891994	0.078459
813.082668	0.078472
813.273325	0.078707
813.463964	0.078730
813.654584	0.078789
813.845186	0.079151
814.035769	0.079288
814.226335	0.079464
814.416882	0.079450
814.607411	0.079748
814.797922	0.079799
814.988415	0.080108
815.178889	0.080346
815.369345	0.080394
815.559783	0.080446
815.750203	0.080086
815.940605	0.080125
816.130988	0.079904
816.321353	0.079635
816.511700	0.079868
816.702028	0.079578
816.892339	0.079568
817.082631	0.079706
817.272905	0.079569
817.463161	0.079898
817.653398	0.079950
817.843617	0.080240
818.033819	0.080560
818.224001	0.080504
818.414166	0.080726
818.604312	0.080660
818.794440	0.080672
818.984550	0.080819
819.174642	0.080934
819.364716	0.081084
819.554771	0.081171
819.744808	0.081138
819.934827	0.081138
820.124827	0.081063
820.314810	0.081366
820.504774	0.081185
820.694720	0.081316
820.884647	0.081317
821.074557	0.081323
821.264448	0.081395
821.454321	0.081419
821.644176	0.081375
821.834012	0.081597
822.023831	0.081611
822.213631	0.081724
822.403413	0.081478
822.593176	0.081563
822.782922	0.081602
822.972649	0.081439
823.162358	0.081472
823.352049	0.081763
823.541721	0.081797
823.731376	0.082045
823.921012	0.082384
824.110629	0.082707
824.300229	0.082829
824.489811	0.082843
824.679374	0.083020
824.868919	0.083313
825.058445	0.083343
825.247954	0.083397
825.437444	0.083191
825.626916	0.083325
825.816370	0.083430
826.005806	0.083468
826.195223	0.083836
826.384622	0.084114
826.574003	0.084139
826.763366	0.084286
826.952711	0.084297
827.142037	0.084383
827.331345	0.084370
827.520635	0.084439
827.709906	0.084426
827.899160	0.084321
828.088395	0.084300
828.277612	0.084420
828.466810	0.084524
828.655991	0.084454
828.845153	0.084458
829.034297	0.084552
829.223423	0.084667
829.412531	0.084926
829.601620	0.085061
829.790691	0.085169
829.979744	0.085265
830.168779	0.085385
830.357795	0.085636
830.546793	0.085950
830.735773	0.085820
830.924735	0.085669
831.113679	0.085445
831.302604	0.085441
831.491511	0.085338
831.680400	0.085099
831.869271	0.085046
832.058123	0.084956
832.246957	0.084960
832.435773	0.084839
832.624571	0.085158
832.813351	0.085249
833.002112	0.085270
833.190855	0.085260
833.379580	0.085371
833.568287	0.085450
833.756975	0.085550
833.945645	0.085501
834.134297	0.085850
834.322931	0.085905
834.511547	0.086090
834.700144	0.086245
834.888723	0.086338
835.077284	0.086683
835.265826	0.086682
835.454351	0.086815
835.642857	0.086761
835.831345	0.086791
836.019815	0.086929
836.208266	0.086950
836.396699	0.087004
836.585114	0.087210
836.773511	0.087014
836.961890	0.087021
837.150250	0.087162
837.338592	0.087341
837.526916	0.087319
837.715222	0.087312
837.903510	0.087436
838.091779	0.087734
838.280030	0.088177
838.468263	0.088188
838.656477	0.088195
838.844674	0.088291
839.032852	0.088430
839.221012	0.088645
839.409153	0.088453
839.597277	0.088621
839.785382	0.088603
839.973469	0.088179
840.161538	0.088234
840.349589	0.088472
840.537621	0.088610
840.725635	0.088632
840.913631	0.088530
841.101609	0.088833
841.289568	0.088866
841.477509	0.088933
841.665432	0.089300
841.853337	0.089621
842.041224	0.089998
842.229092	0.090200
842.416942	0.090586
842.604774	0.090787
842.792588	0.090800
842.980383	0.090806
843.168160	0.090979
843.355919	0.091111
843.543660	0.091041
843.731382	0.091029
843.919087	0.091040
844.106773	0.091219
844.294441	0.091452
844.482090	0.091559
844.669722	0.091829
844.857335	0.091971
845.044930	0.091917
845.232507	0.092136
845.420065	0.092078
845.607605	0.092258
845.795127	0.092213
845.982631	0.092231
846.170117	0.092475
846.357584	0.092315
846.545033	0.092190
846.732464	0.092348
846.919877	0.092286
847.107272	0.092254
847.294648	0.092149
847.482006	0.091918
847.669346	0.091903
847.856667	0.091741
848.043971	0.091951
848.231256	0.091999
848.418523	0.091930
848.605771	0.092067
848.793002	0.092265
848.980214	0.092520
849.167408	0.092910
849.354584	0.093240
849.541742	0.093417
849.728881	0.093493
849.916002	0.093713
850.103105	0.093888
850.290190	0.094109
850.477256	0.094117
850.664304	0.094316
850.851334	0.094342
851.038346	0.094518
851.225340	0.094655
851.412315	0.094989
851.599272	0.095080
851.786211	0.095411
851.973132	0.095526
852.160034	0.095454
852.346918	0.095291
852.533784	0.095341
852.720632	0.095030
852.907462	0.094886
853.094273	0.094773
853.281066	0.094638
853.467841	0.094446
853.654598	0.094472
853.841336	0.094867
854.028056	0.095051
854.214758	0.095268
854.401442	0.095592
854.588107	0.095983
854.774755	0.096239
854.961384	0.096693
855.147995	0.096688
855.334587	0.096957
855.521162	0.097150
855.707718	0.097221
855.894256	0.097189
856.080775	0.097379
856.267277	0.097697
856.453760	0.097648
856.640225	0.097732
856.826672	0.098010
857.013101	0.097812
857.199511	0.097900
857.385903	0.097882
857.572277	0.098190
857.758633	0.097838
857.944970	0.097837
858.131290	0.097942
858.317591	0.097888
858.503873	0.098020
858.690138	0.098571
858.876384	0.098395
859.062612	0.098430
859.248822	0.098480
859.435014	0.098964
859.621188	0.099118
859.807343	0.099331
859.993480	0.099187
860.179599	0.099063
860.365699	0.099032
860.551781	0.099204
860.737846	0.099563
860.923891	0.099478
861.109919	0.099540
861.295929	0.099263
861.481920	0.099381
861.667893	0.099683
861.853848	0.100070
862.039784	0.099968
862.225702	0.100037
862.411603	0.099969
862.597484	0.100293
862.783348	0.100632
862.969193	0.100805
863.155021	0.100821
863.340830	0.100861
863.526620	0.100912
863.712393	0.100942
863.898147	0.101347
864.083883	0.101292
864.269601	0.101134
864.455301	0.100812
864.640982	0.100680
864.826645	0.100276
865.012290	0.100340
865.197917	0.100210
865.383526	0.100385
865.569116	0.100368
865.754688	0.100414
865.940242	0.100482
866.125777	0.100760
866.311295	0.101109
866.496794	0.101617
866.682275	0.101738
866.867737	0.102116
867.053182	0.102339
867.238608	0.102273
867.424016	0.102632
867.609406	0.102752
867.794778	0.102453
867.980131	0.102679
868.165466	0.102802
868.350783	0.103003
868.536082	0.102536
868.721362	0.102614
868.906625	0.102598
869.091869	0.102632
869.277094	0.102551
869.462302	0.102959
869.647491	0.102903
869.832662	0.102950
870.017815	0.102798
870.202950	0.103107
870.388066	0.102950
870.573165	0.102932
870.758245	0.103025
870.943306	0.103229
871.128350	0.103078
871.313375	0.103029
871.498382	0.102871
871.683371	0.102843
871.868342	0.102822
872.053294	0.102717
872.238229	0.102849
872.423144	0.102806
872.608042	0.102943
872.792922	0.103190
872.977783	0.103149
873.162626	0.103407
873.347451	0.103790
873.532258	0.104152
873.717046	0.104316
873.901816	0.104110
874.086568	0.104295
874.271302	0.104298
874.456017	0.104164
874.640715	0.104580
874.825394	0.104659
875.010055	0.104339
875.194697	0.104247
875.379322	0.104439
875.563928	0.104780
875.748516	0.104775
875.933085	0.105014
876.117637	0.105181
876.302170	0.105024
876.486685	0.104626
876.671182	0.104901
876.855661	0.104962
877.040121	0.104479
877.224563	0.104588
877.408987	0.104686
877.593393	0.104546
877.777780	0.104842
877.962150	0.104960
878.146501	0.105495
878.330833	0.105508
878.515148	0.105457
878.699444	0.105974
878.883722	0.106079
879.067982	0.106049
879.252224	0.105777
879.436447	0.105770
879.620653	0.105883
879.804840	0.105699
879.989008	0.105928
880.173159	0.106102
880.357291	0.106188
880.541405	0.106047
880.725501	0.106208
880.909579	0.106476
881.093638	0.106487
881.277680	0.106493
881.461703	0.106740
881.645707	0.106781
881.829694	0.106722
882.013662	0.106572
882.197612	0.106501
882.381544	0.106482
882.565458	0.106403
882.749353	0.106318
882.933230	0.106152
883.117089	0.106281
883.300930	0.106330
883.484753	0.106483
883.668557	0.106813
883.852343	0.106907
884.036111	0.106774
884.219861	0.107194
884.403592	0.106887
884.587305	0.106818
884.771000	0.106461
884.954677	0.106302
885.138335	0.106417
885.321976	0.106315
885.505598	0.106191
885.689201	0.105924
885.872787	0.105333
886.056354	0.105556
886.239904	0.105508
886.423434	0.105735
886.606947	0.105493
886.790442	0.105351
886.973918	0.105191
887.157376	0.105255
887.340816	0.105132
887.524237	0.105384
887.707641	0.105951
887.891026	0.105965
888.074393	0.105888
888.257741	0.105748
888.441072	0.105683
888.624384	0.105809
888.807678	0.105625
888.990954	0.106338
889.174211	0.106373
889.357451	0.105683
889.540672	0.106026
889.723875	0.105700
889.907059	0.106026
890.090226	0.106055
890.273374	0.105853
890.456504	0.105825
890.639616	0.105697
890.822709	0.105500
891.005785	0.105752
891.188842	0.105587
891.371881	0.105877
891.554901	0.105657
891.737904	0.105343
891.920888	0.105335
892.103854	0.105397
892.286802	0.105255
892.469731	0.105255
892.652643	0.105199
892.835536	0.104925
893.018410	0.104914
893.201267	0.105077
893.384106	0.105351
893.566926	0.105621
893.749728	0.105806
893.932511	0.105629
894.115277	0.105626
894.298024	0.105461
894.480753	0.105433
894.663464	0.105231
894.846157	0.105056
895.028831	0.105072
895.211487	0.104638
895.394125	0.104396
895.576745	0.104804
895.759346	0.104505
895.941930	0.104295
896.124495	0.104270
896.307041	0.104757
896.489570	0.104649
896.672080	0.104294
896.854573	0.104606
897.037046	0.104852
897.219502	0.104190
897.401940	0.104608
897.584359	0.104785
897.766760	0.104996
897.949143	0.104217
898.131507	0.104275
898.313854	0.104641
898.496182	0.104187
898.678492	0.103793
898.860783	0.103840
899.043057	0.103727
899.225312	0.103557
899.407549	0.103748
899.589768	0.104012
899.771968	0.104170
899.954151	0.104049
900.136315	0.103956
900.318461	0.104425
900.500588	0.104291
900.682698	0.104491
900.864789	0.104394
901.046862	0.104077
901.228917	0.103861
901.410953	0.103587
901.592971	0.103369
901.774972	0.103340
901.956953	0.102696
902.138917	0.102726
902.320862	0.102270
902.502790	0.102421
902.684699	0.102288
902.866589	0.102255
903.048462	0.102183
903.230316	0.102451
903.412152	0.102404
903.593970	0.102710
903.775770	0.102685
903.957551	0.102704
904.139314	0.102533
904.321059	0.102518
904.502786	0.102600
904.684494	0.102307
904.866185	0.101866
905.047857	0.102232
905.229510	0.101722
905.411146	0.101860
905.592763	0.101523
905.774363	0.101731
905.955943	0.101620
906.137506	0.101087
906.319051	0.101090
906.500577	0.101133
906.682085	0.100958
906.863575	0.100953
907.045046	0.100791
907.226500	0.100603
907.407935	0.100268
907.589352	0.100081
907.770750	0.100279
907.952131	0.100461
908.133493	0.100423
908.314837	0.100038
908.496163	0.100049
908.677470	0.099375
908.858760	0.099499
909.040031	0.099165
909.221284	0.099138
909.402518	0.098926
909.583735	0.098492
909.764933	0.098277
909.946113	0.098251
910.127275	0.097969
910.308418	0.098031
910.489544	0.098425
910.670651	0.098389
910.851740	0.098018
911.032810	0.098075
911.213863	0.098122
911.394897	0.097772
911.575913	0.096960
911.756911	0.096918
911.937890	0.096859
912.118851	0.096509
912.299794	0.096235
912.480719	0.096173
912.661626	0.095897
912.842514	0.095345
913.023384	0.094854
913.204236	0.094973
913.385070	0.094745
913.565886	0.094656
913.746683	0.094271
913.927462	0.094387
914.108223	0.094038
914.288965	0.093759
914.469690	0.094166
914.650396	0.094168
914.831084	0.094282
915.011754	0.094595
915.192405	0.094112
915.373038	0.093617
915.553653	0.093309
915.734250	0.093149
915.914829	0.093244
916.095389	0.093067
916.275931	0.092908
916.456455	0.092761
916.636961	0.092016
916.817448	0.092379
916.997917	0.092407
917.178368	0.091910
917.358801	0.091428
917.539216	0.091173
917.719612	0.090761
917.899990	0.090600
918.080350	0.090290
918.260692	0.090565
918.441015	0.090155
918.621320	0.090367
918.801607	0.090283
918.981876	0.090589
919.162127	0.090553
919.342359	0.089819
919.522573	0.089588
919.702769	0.089561
919.882947	0.088977
920.063106	0.088651
920.243247	0.087930
920.423370	0.087941
920.603475	0.088223
920.783562	0.087754
920.963630	0.087686
921.143680	0.087190
921.323712	0.086913
921.503725	0.086947
921.683721	0.086533
921.863698	0.086234
922.043657	0.086219
922.223598	0.085680
922.403520	0.085922
922.583424	0.086381
922.763311	0.086948
922.943178	0.086860
923.123028	0.086678
923.302859	0.086951
923.482673	0.086932
923.662467	0.086335
923.842244	0.086284
924.022003	0.086016
924.201743	0.085656
924.381465	0.085345
924.561169	0.085613
924.740854	0.085395
924.920522	0.084824
925.100171	0.084454
925.279802	0.084374
925.459414	0.083774
925.639009	0.083500
925.818585	0.083319
925.998143	0.082576
926.177683	0.081677
926.357205	0.081581
926.536708	0.081398
926.716193	0.081732
926.895660	0.081265
927.075109	0.080977
927.254539	0.080449
927.433951	0.079950
927.613345	0.079763
927.792721	0.079810
927.972079	0.079251
928.151418	0.079086
928.330739	0.078615
928.510042	0.078613
928.689327	0.078581
928.868593	0.078197
929.047841	0.077792
929.227071	0.077445
929.406283	0.077251
929.585476	0.076633
929.764652	0.076461
929.943809	0.075989
930.122948	0.074874
930.302068	0.074214
930.481171	0.073795
930.660255	0.073589
930.839321	0.073803
931.018369	0.073214
931.197398	0.073682
931.376409	0.073237
931.555402	0.072483
931.734377	0.073375
931.913334	0.072724
932.092272	0.072390
932.271192	0.071957
932.450094	0.071224
932.628978	0.070239
932.807844	0.069459
932.986691	0.069753
933.165520	0.069622
933.344331	0.068937
933.523123	0.069793
933.701898	0.069373
933.880654	0.069010
934.059392	0.068801
934.238111	0.068772
934.416813	0.068964
934.595496	0.067651
934.774161	0.067366
934.952808	0.066771
935.131437	0.065388
935.310047	0.065656
935.488639	0.065474
935.667213	0.065220
935.845769	0.065087
936.024306	0.064323
936.202825	0.064311
936.381326	0.063835
936.559809	0.063437
936.738274	0.062946
936.916720	0.062075
937.095148	0.061683
937.273558	0.060652
937.451950	0.060614
937.630323	0.060071
937.808678	0.059794
937.987015	0.060018
938.165334	0.060304
938.343635	0.060821
938.521917	0.061352
938.700181	0.061652
938.878427	0.062041
939.056655	0.061370
939.234864	0.060552
939.413055	0.059452
939.591228	0.059904
939.769383	0.058665
939.947519	0.057588
940.125638	0.056316
940.303738	0.056268
940.481820	0.055871
940.659883	0.055572
940.837929	0.056107
941.015956	0.055828
941.193965	0.055350
941.371955	0.055107
941.549928	0.055679
941.727882	0.055223
941.905818	0.054217
942.083736	0.053674
942.261636	0.053074
942.439517	0.052079
942.617380	0.052777
942.795225	0.051380
942.973052	0.051091
943.150860	0.050077
943.328651	0.049867
943.506423	0.049663
943.684176	0.049559
943.861912	0.049664
944.039629	0.050111
944.217328	0.049150
944.395009	0.049485
944.572672	0.050504
944.750317	0.049961
944.927943	0.050743
945.105551	0.049711
945.283141	0.049294
945.460712	0.049159
945.638265	0.048394
945.815801	0.047149
945.993317	0.045607
946.170816	0.044469
946.348297	0.044798
946.525759	0.043585
946.703203	0.043415
946.880629	0.043432
947.058036	0.043257
947.235425	0.042894
947.412797	0.044713
947.590149	0.045313
947.767484	0.044846
947.944800	0.043385
948.122099	0.043064
948.299379	0.043314
948.476640	0.043048
948.653884	0.042590
948.831109	0.042163
949.008316	0.040573
949.185505	0.040451
949.362676	0.039672
949.539828	0.040472
949.716962	0.039232
949.894078	0.038531
950.071176	0.037657
950.248256	0.037246
950.425317	0.037920
950.602360	0.037663
950.779385	0.037092
950.956391	0.038248
951.133380	0.038554
951.310350	0.039991
951.487302	0.041918
951.664235	0.040613
951.841151	0.038902
952.018048	0.037832
952.194927	0.038936
952.371788	0.038726
952.548631	0.037364
952.725455	0.036391
952.902261	0.035916
953.079049	0.031897
953.255819	0.033446
953.432570	0.033737
953.609303	0.033474
953.786018	0.031404
953.962715	0.032425
954.139394	0.030762
954.316054	0.031585
954.492696	0.032296
954.669320	0.034103
954.845926	0.034684
955.022513	0.035631
955.199083	0.036185
955.375634	0.037285
955.552166	0.036713
955.728681	0.038148
955.905177	0.037235
956.081655	0.035951
956.258115	0.035320
956.434557	0.035661
956.610980	0.036164
956.787385	0.035302
956.963772	0.035646
957.140141	0.035073
957.316492	0.035490
957.492824	0.036432
957.669138	0.036940
957.845434	0.037547
958.021712	0.035630
958.197971	0.035550
958.374212	0.035951
958.550435	0.034499
958.726640	0.032827
958.902826	0.032470
959.078995	0.031074
959.255145	0.031368
959.431277	0.030931
959.607390	0.032295
959.783486	0.031140
959.959563	0.030356
960.135622	0.030999
960.311662	0.032243
960.487685	0.032111
960.663689	0.032387
960.839675	0.032674
961.015643	0.033309
961.191593	0.032359
961.367524	0.031647
961.543437	0.034706
961.719332	0.034797
961.895209	0.035746
962.071067	0.036259
962.246907	0.036918
962.422730	0.035141
962.598533	0.036294
962.774319	0.036502
962.950086	0.037594
963.125835	0.036318
963.301566	0.036050
963.477279	0.035026
963.652973	0.035862
963.828650	0.036485
964.004308	0.035626
964.179947	0.032091
964.355569	0.032832
964.531172	0.033324
964.706757	0.032591
964.882324	0.033776
965.057873	0.033536
965.233403	0.033680
965.408916	0.033215
965.584410	0.034161
965.759885	0.034352
965.935343	0.030894
966.110782	0.030103
966.286203	0.030218
966.461606	0.028534
966.636991	0.028484
966.812357	0.024995
966.987705	0.026302
967.163035	0.028057
967.338347	0.028504
967.513641	0.031147
967.688916	0.034152
967.864173	0.035681
968.039412	0.038260
968.214632	0.040530
968.389835	0.043240
968.565019	0.040817
968.740185	0.038353
968.915333	0.040371
969.090462	0.041327
969.265573	0.040618
969.440667	0.038360
969.615741	0.040001
969.790798	0.037565
969.965836	0.036579
970.140856	0.036555
970.315858	0.038260
970.490842	0.037896
970.665808	0.037244
970.840755	0.036084
971.015684	0.039395
971.190595	0.038048
971.365487	0.037619
971.540362	0.039988
971.715218	0.040591
971.890056	0.043739
972.064875	0.042894
972.239677	0.043314
972.414460	0.040562
972.589225	0.038292
972.763972	0.037809
972.938700	0.040270
973.113411	0.037688
973.288103	0.038146
973.462777	0.035300
973.637432	0.036107
973.812070	0.034623
973.986689	0.039672
974.161290	0.038517
974.335873	0.038091
974.510437	0.037597
974.684984	0.037531
974.859512	0.035891
975.034022	0.035578
975.208513	0.035434
975.382987	0.037277
975.557442	0.033978
975.731879	0.035134
975.906298	0.035186
976.080698	0.034203
976.255080	0.036087
976.429445	0.037068
976.603790	0.038693
976.778118	0.041467
976.952427	0.040716
977.126719	0.043388
977.300992	0.042536
977.475246	0.040744
977.649483	0.040472
977.823701	0.040797
977.997901	0.041089
978.172083	0.040535
978.346247	0.036664
978.520392	0.034519
978.694519	0.033163
978.868628	0.032500
979.042719	0.034261
979.216791	0.033560
979.390845	0.033794
979.564882	0.031911
979.738899	0.030502
979.912899	0.030704
980.086880	0.033524
980.260843	0.032212
980.434788	0.032624
980.608715	0.031319
980.782623	0.032969
980.956514	0.032735
981.130386	0.035884
981.304240	0.034889
981.478075	0.034806
981.651892	0.035268
981.825692	0.037200
981.999472	0.037890
982.173235	0.037559
982.346980	0.035720
982.520706	0.033894
982.694414	0.033809
982.868104	0.034263
983.041775	0.036629
983.215428	0.035902
983.389064	0.035629
983.562680	0.035536
983.736279	0.034918
983.909860	0.037367
984.083422	0.038922
984.256966	0.037517
984.430491	0.038027
984.603999	0.038277
984.777488	0.037120
984.950959	0.037631
985.124412	0.038239
985.297847	0.039909
985.471263	0.039806
985.644661	0.039654
985.818041	0.041147
985.991403	0.042415
986.164747	0.041198
986.338072	0.044085
986.511379	0.045178
986.684668	0.045710
986.857938	0.046550
987.031191	0.046503
987.204425	0.046461
987.377641	0.046173
987.550839	0.045816
987.724018	0.044400
987.897179	0.043159
988.070322	0.041477
988.243447	0.040754
988.416554	0.041356
988.589642	0.041964
988.762712	0.042924
988.935764	0.042937
989.108798	0.042780
989.281813	0.043294
989.454811	0.043111
989.627790	0.044980
989.800751	0.044477
989.973693	0.043097
990.146617	0.043095
990.319524	0.039923
990.492412	0.038997
990.665281	0.039258
990.838133	0.039631
991.010966	0.039053
991.183781	0.038352
991.356578	0.039322
991.529356	0.041488
991.702117	0.041229
991.874859	0.041650
992.047583	0.041720
992.220288	0.042822
992.392976	0.044127
992.565645	0.042832
992.738296	0.041624
992.910929	0.042196
993.083543	0.039773
993.256139	0.039473
993.428718	0.041502
993.601277	0.042670
993.773819	0.041352
993.946342	0.042603
994.118848	0.045027
994.291335	0.046600
994.463803	0.046318
994.636254	0.048196
994.808686	0.048342
994.981100	0.048851
995.153496	0.049867
995.325874	0.050452
995.498233	0.048026
995.670574	0.048132
995.842897	0.049175
996.015202	0.046900
996.187488	0.047195
996.359757	0.047177
996.532007	0.046530
996.704239	0.045755
996.876452	0.044854
997.048648	0.046847
997.220825	0.044575
997.392984	0.041458
997.565124	0.041504
997.737247	0.041371
997.909351	0.039563
998.081437	0.039177
998.253505	0.037756
998.425554	0.037450
998.597586	0.035968
998.769599	0.037535
998.941594	0.038722
999.113571	0.040250
999.285529	0.039295
999.457469	0.041607
999.629391	0.042536
999.801295	0.044967
999.973181	0.045724
1000.145048	0.046509
1000.316897	0.046165
1000.488728	0.045968
1000.660541	0.046022
1000.832335	0.047088
1001.004111	0.045566
1001.175869	0.045067
1001.347609	0.042729
1001.519331	0.042825
1001.691034	0.042564
1001.862719	0.043363
1002.034386	0.043043
1002.206035	0.042884
1002.377665	0.043198
1002.549277	0.042976
1002.720871	0.042674
1002.892447	0.042608
1003.064004	0.043877
1003.235544	0.042841
1003.407065	0.041576
1003.578568	0.041532
1003.750052	0.041938
1003.921519	0.040060
1004.092967	0.041565
1004.264397	0.040467
1004.435809	0.041130
1004.607202	0.039468
1004.778577	0.040018
1004.949934	0.041811
1005.121273	0.041467
1005.292594	0.042445
1005.463896	0.045216
1005.635180	0.044628
1005.806446	0.046144
1005.977694	0.047189
1006.148923	0.047137
1006.320135	0.048773
1006.491328	0.046461
1006.662503	0.047505
1006.833659	0.045973
1007.004798	0.042576
1007.175918	0.041989
1007.347020	0.041252
1007.518103	0.039100
1007.689169	0.041629
1007.860216	0.038359
1008.031245	0.040147
1008.202256	0.041167
1008.373248	0.042112
1008.544223	0.042410
1008.715179	0.042500
1008.886117	0.042643
1009.057036	0.043832
1009.227938	0.041096
1009.398821	0.042406
1009.569686	0.042830
1009.740533	0.039420
1009.911361	0.040403
1010.082172	0.041945
1010.252964	0.043322
1010.423738	0.042458
1010.594493	0.042351
1010.765231	0.043483
1010.935950	0.044009
1011.106651	0.040746
1011.277334	0.043288
1011.447998	0.041864
1011.618645	0.040127
1011.789273	0.038387
1011.959882	0.040086
1012.130474	0.039514
1012.301048	0.038265
1012.471603	0.038719
1012.642140	0.039424
1012.812658	0.038162
1012.983159	0.038179
1013.153641	0.038519
1013.324105	0.039024
1013.494551	0.037638
1013.664979	0.038901
1013.835388	0.038754
1014.005779	0.038321
1014.176152	0.038825
1014.346507	0.039845
1014.516843	0.041090
1014.687162	0.042811
1014.857462	0.044468
1015.027744	0.045805
1015.198007	0.043885
1015.368252	0.043989
1015.538480	0.044797
1015.708689	0.045168
1015.878879	0.045053
1016.049052	0.044922
1016.219206	0.042886
1016.389342	0.040968
1016.559460	0.039537
1016.729559	0.041390
1016.899641	0.042868
1017.069704	0.041309
1017.239749	0.042011
1017.409775	0.041262
1017.579784	0.040713
1017.749774	0.041363
1017.919746	0.041512
1018.089700	0.042662
1018.259635	0.042509
1018.429553	0.042153
1018.599452	0.042598
1018.769333	0.041933
1018.939195	0.040627
1019.109040	0.039918
1019.278866	0.040595
1019.448674	0.040842
1019.618464	0.039287
1019.788235	0.038666
1019.957989	0.038144
1020.127724	0.040393
1020.297441	0.041421
1020.467139	0.042503
1020.636820	0.042313
1020.806482	0.040992
1020.976126	0.040814
1021.145752	0.043284
1021.315359	0.044325
1021.484948	0.043927
1021.654519	0.040103
1021.824072	0.039931
1021.993607	0.041513
1022.163123	0.041684
1022.332621	0.043755
1022.502101	0.043294
1022.671563	0.043882
1022.841007	0.042322
1023.010432	0.044270
1023.179839	0.045854
1023.349228	0.044746
1023.518598	0.044437
1023.687951	0.045139
1023.857285	0.043198
1024.026601	0.044595
1024.195899	0.044478
1024.365178	0.043920
1024.534439	0.042977
1024.703682	0.043789
1024.872907	0.044196
1025.042114	0.043770
1025.211302	0.042891
1025.380472	0.043569
1025.549624	0.043942
1025.718758	0.041682
1025.887873	0.043472
1026.056970	0.042079
1026.226049	0.043710
1026.395110	0.043446
1026.564153	0.041822
1026.733177	0.043702
1026.902183	0.044082
1027.071171	0.044214
1027.240141	0.044599
1027.409092	0.045516
1027.578026	0.046480
1027.746940	0.045798
1027.915837	0.045971
1028.084716	0.046657
1028.253576	0.044960
1028.422418	0.044927
1028.591242	0.044212
1028.760048	0.044913
1028.928835	0.044843
1029.097604	0.044094
1029.266355	0.043798
1029.435088	0.045278
1029.603803	0.046138
1029.772499	0.044661
1029.941177	0.044650
1030.109837	0.043323
1030.278478	0.042844
1030.447102	0.040187
1030.615707	0.042627
1030.784294	0.041892
1030.952863	0.041900
1031.121413	0.041065
1031.289945	0.044127
1031.458460	0.043448
1031.626955	0.042202
1031.795433	0.042113
1031.963892	0.042859
1032.132334	0.043141
1032.300756	0.044307
1032.469161	0.042177
1032.637548	0.041100
1032.805916	0.041638
1032.974266	0.041929
1033.142598	0.043904
1033.310911	0.044354
1033.479207	0.047307
1033.647484	0.045100
1033.815743	0.043842
1033.983983	0.046533
1034.152206	0.049606
1034.320410	0.047553
1034.488596	0.048579
1034.656764	0.049815
1034.824914	0.049772
1034.993045	0.046759
1035.161158	0.046762
1035.329253	0.046496
1035.497330	0.045156
1035.665388	0.044897
1035.833428	0.044428
1036.001450	0.041173
1036.169454	0.039772
1036.337440	0.040365
1036.505407	0.041026
1036.673356	0.039635
1036.841287	0.040171
1037.009200	0.039335
1037.177094	0.037898
1037.344970	0.036458
1037.512828	0.039404
1037.680668	0.038027
1037.848489	0.037306
1038.016293	0.036280
1038.184078	0.037634
1038.351845	0.037056
1038.519593	0.038461
1038.687324	0.038923
1038.855036	0.040216
1039.022730	0.040085
1039.190406	0.043201
1039.358063	0.042674
1039.525702	0.044451
1039.693323	0.045396
1039.860926	0.044259
1040.028511	0.044256
1040.196077	0.043897
1040.363625	0.044799
1040.531155	0.043848
1040.698667	0.042610
1040.866161	0.041914
1041.033636	0.040405
1041.201093	0.039787
1041.368532	0.039818
1041.535952	0.041535
1041.703355	0.042399
1041.870739	0.042504
1042.038105	0.044558
1042.205452	0.044487
1042.372782	0.044840
1042.540093	0.046798
1042.707386	0.046979
1042.874661	0.046569
1043.041918	0.043355
1043.209156	0.043163
1043.376376	0.042040
1043.543578	0.039418
1043.710762	0.040001
1043.877927	0.042388
1044.045074	0.041583
1044.212203	0.040550
1044.379314	0.042721
1044.546407	0.044526
1044.713481	0.044115
1044.880537	0.044657
1045.047575	0.046003
1045.214595	0.045291
1045.381596	0.043517
1045.548579	0.042737
1045.715544	0.045189
1045.882491	0.045221
1046.049420	0.044522
1046.216330	0.045907
1046.383222	0.046961
1046.550096	0.047507
1046.716951	0.047328
1046.883789	0.046500
1047.050608	0.047163
1047.217409	0.046010
1047.384192	0.047222
1047.550956	0.046393
1047.717703	0.045943
1047.884431	0.045120
1048.051140	0.042720
1048.217832	0.042742
1048.384505	0.042978
1048.551161	0.043472
1048.717798	0.042403
1048.884416	0.041160
1049.051017	0.043197
1049.217599	0.041675
1049.384163	0.042401
1049.550709	0.044047
1049.717237	0.045217
1049.883746	0.046201
1050.050237	0.045741
1050.216710	0.045424
1050.383165	0.045482
1050.549601	0.043844
1050.716019	0.044263
1050.882420	0.044763
1051.048801	0.045796
1051.215165	0.045788
1051.381510	0.044246
1051.547837	0.043843
1051.714146	0.045078
1051.880437	0.045199
1052.046709	0.043933
1052.212964	0.045197
1052.379200	0.044695
1052.545417	0.042994
1052.711617	0.042578
1052.877798	0.045773
1053.043961	0.044451
1053.210106	0.044107
1053.376233	0.043367
1053.542341	0.044351
1053.708432	0.046054
1053.874504	0.045407
1054.040557	0.046931
1054.206593	0.047220
1054.372610	0.043230
1054.538609	0.043571
1054.704590	0.044395
1054.870553	0.041608
1055.036497	0.042642
1055.202424	0.040829
1055.368331	0.042369
1055.534221	0.042350
1055.700093	0.041510
1055.865946	0.045856
1056.031781	0.048696
1056.197598	0.048749
1056.363397	0.051281
1056.529177	0.049871
1056.694939	0.050638
1056.860683	0.048328
1057.026409	0.047680
1057.192116	0.048624
1057.357806	0.045412
1057.523477	0.042173
1057.689130	0.043503
1057.854764	0.042933
1058.020381	0.043850
1058.185979	0.043348
1058.351559	0.043767
1058.517120	0.045592
1058.682664	0.044959
1058.848189	0.046590
1059.013696	0.048149
1059.179185	0.046536
1059.344656	0.047029
1059.510108	0.046509
1059.675542	0.046172
1059.840958	0.045753
1060.006356	0.044744
1060.171735	0.045852
1060.337096	0.046402
1060.502439	0.048613
1060.667764	0.048857
1060.833071	0.048612
1060.998359	0.049676
1061.163629	0.047953
1061.328881	0.048040
1061.494115	0.048335
1061.659330	0.048540
1061.824527	0.047034
1061.989706	0.045046
1062.154867	0.043304
1062.320010	0.045306
1062.485134	0.046497
1062.650240	0.047780
1062.815328	0.049067
1062.980398	0.046699
1063.145449	0.046050
1063.310482	0.045407
1063.475497	0.044886
1063.640494	0.044411
1063.805473	0.044709
1063.970433	0.044138
1064.135375	0.045135
1064.300299	0.045416
1064.465204	0.046402
1064.630092	0.045597
1064.794961	0.047886
1064.959812	0.048933
1065.124645	0.050614
1065.289459	0.048986
1065.454256	0.047932
1065.619034	0.047005
1065.783793	0.046487
1065.948535	0.048455
1066.113258	0.050945
1066.277964	0.049230
1066.442651	0.048415
1066.607319	0.047679
1066.771970	0.048157
1066.936602	0.046596
1067.101216	0.045928
1067.265812	0.044487
1067.430389	0.042375
1067.594949	0.040584
1067.759490	0.041497
1067.924013	0.041073
1068.088518	0.041251
1068.253004	0.040569
1068.417472	0.041451
1068.581922	0.042678
1068.746354	0.043089
1068.910768	0.043134
1069.075163	0.044495
1069.239540	0.042967
1069.403899	0.044226
1069.568240	0.044405
1069.732562	0.044275
1069.896866	0.044365
1070.061152	0.043677
1070.225420	0.043151
1070.389670	0.042068
1070.553901	0.039601
1070.718114	0.041400
1070.882309	0.041374
1071.046486	0.041130
1071.210644	0.042711
1071.374784	0.044716
1071.538906	0.043266
1071.703010	0.045107
1071.867096	0.047733
1072.031163	0.047828
1072.195212	0.046488
1072.359243	0.045241
1072.523256	0.046918
1072.687250	0.046310
1072.851226	0.043003
1073.015184	0.045790
1073.179124	0.044580
1073.343045	0.044521
1073.506949	0.044888
1073.670834	0.044776
1073.834701	0.044237
1073.998549	0.043278
1074.162380	0.043597
1074.326192	0.046176
1074.489986	0.043122
1074.653761	0.044782
1074.817519	0.041495
1074.981258	0.041892
1075.144979	0.043600
1075.308682	0.045543
1075.472367	0.046010
1075.636033	0.044128
1075.799681	0.044888
1075.963311	0.046545
1076.126923	0.045825
1076.290516	0.049007
1076.454092	0.047329
1076.617649	0.044831
1076.781187	0.044056
1076.944708	0.044645
1077.108210	0.047014
1077.271695	0.047852
1077.435160	0.046712
1077.598608	0.046973
1077.762038	0.046460
1077.925449	0.047308
1078.088842	0.048753
1078.252217	0.049250
1078.415573	0.048042
1078.578912	0.047797
1078.742232	0.044460
1078.905534	0.045082
1079.068817	0.044303
1079.232083	0.043696
1079.395330	0.044878
1079.558559	0.045366
1079.721770	0.046151
1079.884962	0.046048
1080.048136	0.043616
1080.211293	0.042427
1080.374430	0.042436
1080.537550	0.041219
1080.700651	0.040221
1080.863735	0.040596
1081.026800	0.041270
1081.189846	0.040057
1081.352875	0.040613
1081.515885	0.043452
1081.678877	0.046757
1081.841851	0.050196
1082.004807	0.053548
1082.167744	0.053317
1082.330663	0.051540
1082.493564	0.050524
1082.656447	0.049936
1082.819312	0.049489
1082.982158	0.047982
1083.144986	0.047574
1083.307796	0.043014
1083.470587	0.040885
1083.633361	0.039313
1083.796116	0.038384
1083.958853	0.037732
1084.121571	0.039608
1084.284272	0.040203
1084.446954	0.039002
1084.609618	0.036047
1084.772264	0.037434
1084.934892	0.039424
1085.097501	0.040924
1085.260092	0.042382
1085.422665	0.044684
1085.585220	0.045547
1085.747756	0.044240
1085.910274	0.045401
1086.072774	0.047252
1086.235256	0.048379
1086.397720	0.048140
1086.560165	0.049246
1086.722592	0.049240
1086.885001	0.050844
1087.047392	0.047722
1087.209764	0.048777
1087.372119	0.047042
1087.534455	0.049239
1087.696772	0.046899
1087.859072	0.045338
1088.021353	0.049069
1088.183616	0.048487
1088.345861	0.044090
1088.508088	0.046140
1088.670296	0.046068
1088.832486	0.049083
1088.994658	0.045081
1089.156812	0.047229
1089.318948	0.047185
1089.481065	0.038829
1089.643164	0.039796
1089.805245	0.042544
1089.967308	0.040506
1090.129352	0.040661
1090.291378	0.040602
1090.453386	0.042140
1090.615376	0.041447
1090.777347	0.042475
1090.939301	0.046980
1091.101236	0.046418
1091.263153	0.044380
1091.425051	0.045380
1091.586932	0.041048
1091.748794	0.042209
1091.910638	0.039956
1092.072463	0.038123
1092.234271	0.038917
1092.396060	0.039300
1092.557831	0.037011
1092.719584	0.039691
1092.881319	0.038474
1093.043035	0.040184
1093.204733	0.038645
1093.366413	0.043461
1093.528075	0.044593
1093.689718	0.041321
1093.851343	0.039846
1094.012950	0.042181
1094.174539	0.039655
1094.336110	0.039186
1094.497662	0.039654
1094.659196	0.039405
1094.820712	0.036384
1094.982210	0.038995
1095.143689	0.038799
1095.305151	0.039169
1095.466594	0.042257
1095.628018	0.043834
1095.789425	0.043551
1095.950813	0.043873
1096.112183	0.044075
1096.273535	0.045746
1096.434869	0.043953
1096.596184	0.049737
1096.757482	0.051974
1096.918761	0.051327
1097.080021	0.049867
1097.241264	0.055897
1097.402488	0.056850
1097.563694	0.057032
1097.724882	0.055111
1097.886052	0.055469
1098.047203	0.052160
1098.208336	0.051695
1098.369451	0.051781
1098.530548	0.048392
1098.691627	0.043684
1098.852687	0.045450
1099.013729	0.044769
1099.174753	0.046721
1099.335758	0.046926
1099.496746	0.045689
1099.657715	0.048279
1099.818666	0.044966
1099.979599	0.049114
1100.140513	0.050427
1100.301409	0.048766
1100.462287	0.048393
1100.623147	0.047840
1100.783989	0.048306
1100.944812	0.053088
1101.105617	0.048243
1101.266404	0.050553
1101.427173	0.052187
1101.587923	0.049805
1101.748656	0.051112
1101.909370	0.049834
1102.070066	0.050149
1102.230743	0.050392
1102.391403	0.047634
1102.552044	0.047234
1102.712667	0.048785
1102.873271	0.047250
1103.033858	0.048269
1103.194426	0.048274
1103.354976	0.048573
1103.515508	0.046233
1103.676021	0.045823
1103.836517	0.044672
1103.996994	0.047998
1104.157453	0.048654
1104.317893	0.047370
1104.478316	0.047982
1104.638720	0.048629
1104.799106	0.047837
1104.959474	0.046900
1105.119823	0.045486
1105.280155	0.043659
1105.440468	0.042432
1105.600763	0.042503
1105.761039	0.042413
1105.921298	0.040247
1106.081538	0.038736
1106.241760	0.041759
1106.401964	0.044287
1106.562149	0.043179
1106.722316	0.043512
1106.882465	0.042996
1107.042596	0.036718
1107.202709	0.035865
1107.362803	0.039846
1107.522879	0.036958
1107.682937	0.036348
1107.842977	0.036879
1108.002999	0.039965
1108.163002	0.044353
1108.322987	0.048147
1108.482954	0.052293
1108.642902	0.054538
1108.802833	0.053197
1108.962745	0.055405
1109.122639	0.057454
1109.282515	0.058875
1109.442372	0.058017
1109.602211	0.053402
1109.762032	0.051512
1109.921835	0.054474
1110.081620	0.053162
1110.241386	0.051405
1110.401134	0.051099
1110.560864	0.046089
1110.720576	0.049951
1110.880269	0.052934
1111.039945	0.054797
1111.199602	0.054232
1111.359240	0.050282
1111.518861	0.050562
1111.678463	0.053008
1111.838047	0.051898
1111.997613	0.052975
1112.157161	0.049643
1112.316690	0.042542
1112.476202	0.041671
1112.635695	0.040532
1112.795169	0.038268
1112.954626	0.040758
1113.114064	0.042599
1113.273484	0.045817
1113.432886	0.047285
1113.592270	0.044179
1113.751635	0.049091
1113.910983	0.048705
1114.070312	0.047939
1114.229622	0.051508
1114.388915	0.052964
1114.548189	0.050550
1114.707445	0.047968
1114.866683	0.048388
1115.025903	0.048742
1115.185104	0.046482
1115.344287	0.046443
1115.503452	0.050614
1115.662599	0.049219
1115.821727	0.046074
1115.980838	0.047045
1116.139930	0.047448
1116.299004	0.048638
1116.458059	0.053378
1116.617097	0.050959
1116.776116	0.050790
1116.935117	0.051774
1117.094099	0.051940
1117.253064	0.049242
1117.412010	0.048036
1117.570938	0.047194
1117.729848	0.045156
1117.888740	0.040132
1118.047613	0.041891
1118.206468	0.044564
1118.365305	0.041654
1118.524124	0.042633
1118.682924	0.041734
1118.841707	0.042902
1119.000471	0.043572
1119.159216	0.044811
1119.317944	0.043257
1119.476653	0.044154
1119.635344	0.042842
1119.794017	0.040849
1119.952672	0.036390
1120.111308	0.037802
1120.269927	0.035259
1120.428527	0.038546
1120.587108	0.042693
1120.745672	0.046843
1120.904217	0.046461
1121.062744	0.049114
1121.221253	0.049051
1121.379744	0.053222
1121.538216	0.057632
1121.696671	0.057691
1121.855107	0.058240
1122.013524	0.054994
1122.171924	0.052062
1122.330305	0.054353
1122.488668	0.049126
1122.647013	0.050067
1122.805340	0.047765
1122.963648	0.044168
1123.121938	0.041094
1123.280210	0.039351
1123.438464	0.038581
1123.596700	0.037505
1123.754917	0.031425
1123.913116	0.033588
1124.071297	0.035257
1124.229459	0.036822
1124.387604	0.032889
1124.545730	0.033970
1124.703838	0.031742
1124.861928	0.031770
1125.019999	0.035898
1125.178052	0.041017
1125.336088	0.044986
1125.494104	0.041570
1125.652103	0.038098
1125.810083	0.042640
1125.968045	0.047102
1126.125989	0.050805
1126.283915	0.049397
1126.441823	0.051006
1126.599712	0.053595
1126.757583	0.050063
1126.915436	0.051087
1127.073270	0.051626
1127.231087	0.050893
1127.388885	0.045483
1127.546665	0.040540
1127.704426	0.042840
1127.862170	0.040201
1128.019895	0.037425
1128.177602	0.039167
1128.335291	0.039977
1128.492961	0.044240
1128.650614	0.047271
1128.808248	0.053413
1128.965864	0.054546
1129.123461	0.053896
1129.281041	0.056247
1129.438602	0.051720
1129.596145	0.049474
1129.753670	0.052000
1129.911176	0.047307
1130.068665	0.049359
1130.226135	0.046145
1130.383587	0.051175
1130.541020	0.052986
1130.698436	0.047262
1130.855833	0.047680
1131.013212	0.047658
1131.170573	0.045456
1131.327915	0.048109
1131.485239	0.046368
1131.642545	0.048956
1131.799833	0.045121
1131.957103	0.041399
1132.114354	0.047341
1132.271588	0.051558
1132.428803	0.050903
1132.585999	0.054547
1132.743178	0.054627
1132.900338	0.054340
1133.057480	0.058797
1133.214604	0.062677
1133.371710	0.061440
1133.528797	0.052783
1133.685866	0.054384
1133.842917	0.053542
1133.999950	0.050929
1134.156964	0.049777
1134.313960	0.045589
1134.470938	0.038988
1134.627898	0.040719
1134.784840	0.046582
1134.941763	0.051088
1135.098668	0.048176
1135.255555	0.048852
1135.412424	0.046193
1135.569274	0.051589
1135.726107	0.053770
1135.882921	0.050904
1136.039716	0.045419
1136.196494	0.042882
1136.353253	0.048125
1136.509995	0.050859
1136.666717	0.050145
1136.823422	0.051804
1136.980109	0.044743
1137.136777	0.043020
1137.293427	0.047890
1137.450059	0.057644
1137.606672	0.055424
1137.763267	0.052501
1137.919844	0.049335
1138.076403	0.052415
1138.232944	0.053491
1138.389466	0.059440
1138.545971	0.062983
1138.702457	0.063052
1138.858924	0.055535
1139.015374	0.057212
1139.171805	0.061244
1139.328218	0.064715
1139.484613	0.063230
1139.640990	0.059451
1139.797348	0.062163
1139.953688	0.059242
1140.110010	0.059394
1140.266314	0.060717
1140.422600	0.061356
1140.578867	0.050395
1140.735116	0.050274
1140.891347	0.045458
1141.047559	0.042830
1141.203754	0.041098
1141.359930	0.040616
1141.516088	0.036208
1141.672228	0.033110
1141.828349	0.026548
1141.984452	0.033215
1142.140537	0.029955
1142.296604	0.030864
1142.452653	0.030683
1142.608683	0.028464
1142.764695	0.030413
1142.920689	0.036415
1143.076665	0.036831
1143.232622	0.042684
1143.388562	0.044044
1143.544483	0.048120
1143.700385	0.049974
1143.856270	0.052127
1144.012136	0.050459
1144.167985	0.050269
1144.323814	0.047299
1144.479626	0.043969
1144.635420	0.040777
1144.791195	0.038455
1144.946952	0.033666
1145.102691	0.034171
1145.258411	0.037164
1145.414113	0.037677
1145.569798	0.033432
1145.725463	0.040914
1145.881111	0.036615
1146.036741	0.037787
1146.192352	0.035452
1146.347945	0.031721
1146.503519	0.033280
1146.659076	0.036597
1146.814614	0.035568
1146.970134	0.033303
1147.125636	0.026659
1147.281120	0.030817
1147.436585	0.031065
1147.592032	0.032769
1147.747461	0.039031
1147.902872	0.033897
1148.058265	0.032374
1148.213639	0.035757
1148.368995	0.038299
1148.524333	0.034607
1148.679653	0.040404
1148.834954	0.039991
1148.990237	0.038134
1149.145502	0.039971
1149.300749	0.053743
1149.455977	0.052488
1149.611188	0.045726
1149.766380	0.055738
1149.921553	0.063931
1150.076709	0.061371
1150.231846	0.064946
1150.386966	0.072262
1150.542066	0.070469
1150.697149	0.055657
1150.852214	0.055213
1151.007260	0.060874
1151.162288	0.062630
1151.317298	0.049198
1151.472289	0.055271
1151.627263	0.052160
1151.782218	0.053857
1151.937155	0.060043
1152.092073	0.070544
1152.246974	0.061666
1152.401856	0.057334
1152.556720	0.048459
1152.711566	0.056054
1152.866393	0.049993
1153.021203	0.053031
1153.175994	0.043619
1153.330767	0.038132
1153.485521	0.036105
1153.640258	0.048805
1153.794976	0.052536
1153.949676	0.051934
1154.104358	0.052024
1154.259021	0.054869
1154.413667	0.053697
1154.568294	0.052700
1154.722903	0.056638
1154.877493	0.054623
1155.032066	0.050566
1155.186620	0.056212
1155.341156	0.057302
1155.495674	0.058240
1155.650173	0.049489
1155.804654	0.049892
1155.959118	0.055481
1156.113562	0.044447
1156.267989	0.041092
1156.422397	0.046950
1156.576788	0.040658
1156.731160	0.043998
1156.885513	0.040115
1157.039849	0.037237
1157.194166	0.032343
1157.348465	0.027221
1157.502746	0.035357
1157.657009	0.040413
1157.811253	0.033989
1157.965479	0.041263
1158.119687	0.041621
1158.273877	0.045866
1158.428048	0.048871
1158.582201	0.048007
1158.736337	0.046024
1158.890453	0.043999
1159.044552	0.036029
1159.198632	0.024276
1159.352694	0.014568
1159.506738	0.021944
1159.660764	0.023259
1159.814771	0.026330
1159.968761	0.032435
1160.122732	0.034694
1160.276685	0.029751
1160.430619	0.034927
1160.584535	0.053156
1160.738434	0.056088
1160.892313	0.041508
1161.046175	0.034110
1161.200019	0.035968
1161.353844	0.035027
1161.507651	0.031349
1161.661440	0.045060
1161.815210	0.054138
1161.968962	0.048707
1162.122697	0.047672
1162.276412	0.055849
1162.430110	0.071076
1162.583789	0.064361
1162.737451	0.064931
1162.891094	0.072191
1163.044718	0.064918
1163.198325	0.054301
1163.351913	0.052982
1163.505483	0.056529
1163.659035	0.048656
1163.812569	0.049162
1163.966084	0.055501
1164.119581	0.066245
1164.273060	0.070765
1164.426521	0.078527
1164.579964	0.086470
1164.733388	0.096870
1164.886794	0.097670
1165.040182	0.102533
1165.193551	0.094320
1165.346903	0.095206
1165.500236	0.090584
1165.653551	0.086064
1165.806848	0.078744
1165.960126	0.076956
1166.113386	0.068258
1166.266628	0.066787
1166.419852	0.067286
1166.573058	0.055232
1166.726245	0.060099
1166.879414	0.062055
1167.032565	0.061779
1167.185698	0.053171
1167.338812	0.047512
1167.491909	0.055191
1167.644987	0.043733
1167.798046	0.043646
1167.951088	0.054452
1168.104111	0.046042
1168.257117	0.048790
1168.410103	0.048656
1168.563072	0.057567
1168.716023	0.062589
1168.868955	0.062976
1169.021869	0.078296
1169.174765	0.093339
1169.327642	0.090777
1169.480501	0.089530
1169.633343	0.078396
1169.786165	0.089646
1169.938970	0.093349
1170.091757	0.083273
1170.244525	0.072046
1170.397275	0.069512
1170.550007	0.057986
1170.702720	0.058964
1170.855415	0.060096
1171.008092	0.049608
1171.160751	0.031942
1171.313392	0.018943
1171.466014	0.001913
1171.618619	-0.021751
1171.771205	-0.021751
1171.923772	-0.021751
