sample name	sample
index	820
start time	 03-31-2021  03:55:23 PM
880	-0.058615
Peak Time (s)	90.036
Peak Height 	-0.05862
calc peak height	90,93
Baseline Time (s)	8.536
Baseline Value 	-0.004267
subtract baseline	10,4
Abs	-0.017195
Peak Time (s)	90.537
Peak Height 	-0.0172
calc peak height	90,93
Baseline Time (s)	8.536
Baseline Value 	-1.6886E-4
subtract baseline	10,3
PK_550	-0.004729
Peak Time (s)	90.537
Peak Height 	-0.004729
calc peak height	90,93
Baseline Time (s)	10.037
Baseline Value 	6.9827E-5
subtract baseline	10,2
PK_880	-0.016366
Peak Time (s)	90.537
Peak Height 	-0.01637
calc peak height	90,93
Baseline Time (s)	10.037
Baseline Value 	0.001099
subtract baseline	10,1


Time (s)	A880-A510	A880-A775	A880-A975	A880	I510	I775	I975	I880	
0.036500	-0.002999	-0.000448	-0.005333	0.003080	6614.627070	39373.702531	4038.902256	21626.398697
0.537000	-0.002453	-0.001513	-0.001083	0.003833	6612.975345	39222.442210	4046.370588	21594.355340
1.037000	-0.001000	-0.000620	-0.002315	0.004332	6620.594722	39255.205488	4042.666770	21573.176233
1.537000	-0.001637	-0.000802	-0.000426	0.002464	6630.454228	39395.491451	4050.726773	21652.623981
2.035000	0.001324	-0.000238	-0.000396	0.004466	6638.150137	39275.782369	4046.486660	21567.462054
2.535000	-0.000839	-0.000367	0.000994	0.002363	6637.668059	39440.186883	4054.009232	21656.910380
3.035500	0.001704	0.000076	0.003433	-0.000570	6681.960513	39723.281123	4065.697158	21782.430043
3.536000	0.000452	-0.000059	-0.001712	0.000869	6660.125189	39591.003500	4051.394013	21720.749352
4.036000	-0.001938	-0.001148	-0.002145	0.002787	6625.449596	39339.705515	4046.337073	21638.841851
4.536500	-0.000527	0.000536	0.001168	0.000999	6651.164670	39629.958901	4057.339787	21715.159889
5.036500	0.000221	-0.000879	-0.005217	-0.000400	6668.530406	39628.664610	4046.583281	21775.123098
5.537000	0.001852	0.000049	-0.003575	0.000651	6673.237401	39618.354600	4047.852573	21730.084486
6.037000	-0.000604	0.000839	0.004019	0.001009	6650.465392	39654.600057	4063.524557	21714.746043
6.535000	0.000061	0.000069	-0.002990	-0.000073	6664.581337	39680.801704	4050.668247	21761.088017
7.035000	-0.000538	0.000308	0.001809	0.000253	6657.105492	39673.578489	4060.355984	21747.131512
7.535000	0.001140	-0.000312	-0.003540	-0.000197	6674.339111	39659.253349	4049.752973	21766.424110
8.035500	-0.000130	-0.000792	-0.001050	-0.000673	6667.893433	39658.912221	4056.155927	21786.826898
8.535500	-0.000856	-0.000026	0.000000	0.000000	6656.570399	39666.711673	4056.974046	21757.957978
9.036000	-0.002149	0.000158	0.003594	0.000012	6646.046053	39681.140085	4064.775206	21757.432142
9.536500	0.001524	-0.000206	-0.000549	-0.000176	6677.285584	39666.444887	4056.165619	21765.522777
10.036500	0.000000	0.000000	0.002369	0.000101	6662.680495	39660.427576	4061.906342	21753.635934
10.537000	-0.000635	0.000116	0.002865	-0.000051	6658.767593	39682.922684	4063.320643	21760.138102
11.034500	0.002146	-0.000094	-0.000671	0.000269	6678.732313	39638.461428	4054.938552	21746.447417
11.534500	0.000787	0.000042	-0.004547	-0.000059	6670.352146	39677.339575	4047.290199	21760.473080
12.035000	-0.001417	-0.000567	0.007036	-0.000600	6656.892937	39671.681997	4073.683607	21783.706093
12.535500	-0.000286	-0.000608	0.003138	-0.000382	6664.268038	39649.861510	4064.638546	21774.325240
13.038500	0.000112	0.000079	0.000769	0.001030	6656.072312	39589.135316	4056.408746	21713.865103
13.536000	0.000812	0.000119	-0.000877	0.001061	6661.481896	39589.839197	4052.778121	21712.509309
14.036500	-0.001820	-0.000805	0.001811	0.001984	6632.832750	39435.290479	4056.598528	21673.098272
14.536500	-0.000801	-0.000926	-0.007263	0.001882	6641.844654	39433.798196	4037.347233	21677.466822
15.034000	-0.001462	0.000139	0.007208	0.001410	6640.328951	39562.263022	4069.635686	21697.626406
15.537500	0.001735	0.001096	-0.002651	0.001373	6666.421209	39645.626835	4048.284432	21699.167557
16.037500	-0.001418	-0.000750	0.002562	0.000686	6646.507330	39548.447744	4061.052763	21728.571792
16.535500	-0.000825	0.000565	-0.002454	0.001736	6642.823732	39570.669436	4047.929811	21683.677325
17.035000	0.001628	0.000736	-0.001215	-0.002482	6696.926234	39940.254404	4059.725323	21864.653215
17.538500	-0.000659	-0.000373	0.005495	0.001096	6649.323315	39545.722547	4066.565386	21711.050789
18.036000	-0.004678	-0.000831	-0.000860	0.003015	6601.761998	39347.155636	4048.605331	21629.141241
18.536500	-0.000894	-0.000487	-0.007608	0.001073	6647.603852	39537.992017	4038.331775	21711.992731
19.036000	0.000025	0.000264	-0.003945	0.001213	6653.891572	39589.262923	4045.852850	21706.016344
19.536000	-0.000535	-0.000132	-0.004220	0.001549	6646.671959	39527.954176	4044.545464	21691.682838
20.037000	0.000275	0.000571	-0.000321	0.002090	6648.832245	39541.487214	4051.759772	21668.567164
20.537500	-0.001760	-0.000531	0.004155	0.001465	6637.484655	39501.556678	4062.827244	21695.267905
21.037500	-0.001611	0.000474	0.001302	0.002205	6632.735861	39523.680317	4055.016685	21663.647719
21.535000	-0.000021	-0.000711	0.001597	0.001191	6653.695865	39509.420236	4057.853394	21706.951312
22.038500	0.000099	-0.000181	0.000112	0.001305	6653.747842	39544.235317	4054.389330	21702.091907
22.538000	-0.000880	-0.000018	-0.002949	0.001897	6641.087766	39508.351185	4046.519952	21676.791870
23.036000	-0.002680	-0.000371	-0.003149	0.001217	6632.085892	39535.669289	4047.550764	21705.837876
23.536000	-0.000813	-0.000577	-0.000688	0.001150	6647.641106	39524.074931	4052.996151	21708.721616
24.036500	0.000150	0.000172	-0.002266	0.004228	6630.638225	39329.663573	4042.993745	21577.575883
24.536500	-0.003675	-0.000303	0.003684	0.001859	6618.972840	39487.628239	4060.938790	21678.412888
25.037000	0.000306	-0.000203	-0.002610	0.001541	6653.508607	39522.676196	4048.014331	21692.007827
25.537500	0.000353	0.000287	-0.002217	0.001940	6650.678243	39530.283203	4048.001179	21674.993078
26.035000	0.001424	-0.000304	0.005570	0.001720	6661.096114	39499.183212	4065.362212	21684.354683
26.535000	-0.002077	-0.000606	0.000297	0.000798	6640.296391	39551.121835	4055.889200	21723.780040
27.035500	0.001152	-0.000103	0.002960	-0.001687	6686.556339	39802.238782	4067.106949	21830.417698
27.536000	-0.000338	0.000165	0.000635	0.000285	6658.463039	39658.871022	4057.734981	21745.758717
28.036000	-0.001341	-0.000482	0.000616	0.000544	6648.273781	39582.826024	4057.131225	21734.655265
28.539000	0.000432	0.000906	0.002014	0.001623	6653.860543	39608.644685	4057.821015	21688.486887
29.036500	0.000159	-0.001192	0.000884	0.000092	6664.044959	39561.179781	4058.693753	21754.034144
29.537000	-0.002870	-0.000129	-0.003271	0.001128	6631.279645	39563.407714	4047.481719	21709.656913
30.037000	-0.003485	-0.000875	-0.000358	0.006388	6584.467410	39063.715636	4042.455195	21486.079427
30.534500	-0.000825	-0.001212	-0.004697	0.001438	6645.219795	39446.878209	4043.760929	21696.401673
31.035000	-0.001230	-0.000552	-0.000156	0.001505	6641.429772	39496.482606	4053.379777	21693.556708
31.535500	-0.002778	-0.000562	0.001098	0.000569	6636.511160	39574.016244	4058.122893	21733.596880
32.035500	-0.004467	-0.000193	-0.005411	0.006815	6573.339490	39084.861979	4030.827380	21468.079995
32.536000	-0.002802	0.000241	-0.003362	0.000852	6634.039799	39617.676867	4047.879168	21721.487353
33.036500	0.001710	0.000283	-0.000859	-0.000545	6681.800133	39738.605879	4056.294842	21781.354359
33.536500	-0.000335	0.000349	0.000591	0.002186	6643.140984	39514.880040	4053.519449	21664.466244
34.036500	-0.000544	0.000043	0.000408	0.003706	6629.260075	39362.443130	4049.849146	21599.760676
34.537000	-0.001090	0.000069	0.000547	0.001945	6639.012167	39511.596515	4053.946729	21674.764285
35.034500	-0.001823	-0.000260	-0.005409	0.002183	6631.216452	39464.209303	4040.649540	21664.591982
35.535000	-0.002044	-0.000705	-0.001623	0.001925	6631.511519	39448.584764	4049.310596	21675.628925
36.038000	-0.001648	0.000231	0.001421	0.003839	6619.360054	39366.977385	4051.744657	21594.106331
36.535500	-0.001169	-0.000035	-0.000029	0.001496	6641.987050	39540.465954	4053.671137	21693.924804
37.038000	-0.001713	0.000360	0.004461	0.002583	6628.884225	39482.583300	4061.055844	21647.543153
37.536000	-0.001343	-0.000013	0.003025	0.002410	6633.246003	39465.927229	4058.310420	21654.943499
38.036500	0.000987	-0.000369	0.000739	0.002132	6654.241779	39459.436039	4053.958228	21666.797432
38.536000	-0.002554	0.000192	0.000060	0.002181	6625.378250	39502.223205	4052.385922	21664.705653
39.036000	-0.001904	0.000359	-0.001098	0.002432	6628.568010	39495.189616	4049.348157	21653.993103
39.534000	-0.001143	-0.000410	0.004807	0.001939	6638.633945	39472.063467	4063.214933	21675.020725
40.034500	-0.002904	0.000260	-0.000503	0.002225	6622.221693	39504.168623	4051.077418	21662.833860
40.537500	-0.001119	0.000189	0.003486	0.002405	6635.081477	39483.175723	4059.321333	21655.145309
41.036000	-0.000742	0.000054	-0.002741	0.002210	6639.679675	39488.227017	4046.297257	21663.453761
41.535500	-0.000974	-0.000165	-0.003346	0.002328	6636.872781	39460.038277	4044.749154	21658.441604
42.036000	-0.000915	-0.000164	-0.000475	0.002188	6638.461065	39471.783130	4051.214680	21664.375761
42.536000	0.000236	-0.000168	-0.000258	0.002070	6648.683970	39481.365383	4051.939862	21669.437097
43.036500	-0.002237	-0.000413	-0.002139	0.001002	6637.366371	39550.188741	4050.185658	21715.032561
43.537000	0.001760	-0.000463	0.000249	-0.002846	6700.989042	39869.738076	4063.712376	21880.387157
44.037000	0.000942	-0.000034	0.001125	0.001005	6662.989199	39581.711728	4057.234904	21714.915308
44.537500	-0.003820	-0.000504	-0.000559	0.000571	6628.129856	39578.691656	4054.525921	21733.495116
45.035500	-0.000740	0.000488	0.002669	0.001249	6647.426426	39604.992071	4060.057703	21704.481661
45.535000	-0.001157	-0.000373	-0.002934	0.000664	6648.790791	39581.888774	4049.202700	21729.529589
46.035000	-0.001072	0.000028	0.005126	0.000896	6647.601530	39596.047121	4066.193104	21719.593266
46.535500	-0.000900	-0.000580	0.000925	0.000523	6651.997696	39576.356092	4057.846337	21735.549959
47.035500	-0.003298	-0.001020	0.004236	0.001475	6625.066038	39459.848230	4062.980963	21694.838265
47.536500	0.000764	0.001206	0.001012	0.002868	6646.500215	39529.530140	4052.956696	21635.395660
48.036000	-0.003871	0.000678	-0.005528	0.005244	6590.478689	39287.248974	4033.898283	21534.500547
48.537000	0.002397	0.000609	0.001227	0.001414	6671.465911	39601.308567	4056.569075	21697.432837
49.037000	0.001293	0.000788	0.004151	-0.000110	6674.874007	39744.468408	4066.262459	21762.688246
49.534500	-0.000313	0.000488	0.003766	-0.001773	6675.337755	39859.399501	4069.063776	21834.122040
50.034500	-0.001858	-0.000014	0.001094	0.020341	6488.294797	37998.082730	4016.138509	20906.017055
50.535500	-0.017360	0.006019	0.005062	0.249031	5051.517664	24031.663011	3652.119748	13632.672972
51.038000	-0.045636	-0.005209	-0.013139	-0.008040	6371.935916	39907.507477	4045.980489	22105.858730
51.535500	-0.047892	-0.045286	-0.031246	-0.261217	8893.513904	63172.352528	4714.591913	37114.833318
52.038500	-0.046015	-0.129742	-0.018482	-0.362448	10433.226728	65535.000000	5194.715295	46033.411887
52.536500	-0.053294	-0.067216	-0.023427	-0.291360	9230.358446	64317.772255	4860.709137	39556.795589
53.036500	-0.037702	-0.096102	-0.020521	-0.328808	10020.491494	65535.000000	5030.686231	42836.293774
53.536500	-0.032097	-0.095587	-0.017005	-0.328293	10101.522442	65535.000000	5043.972747	42789.235940
54.034500	-0.030851	-0.072873	-0.023956	-0.302698	9722.380707	65122.787151	4904.701749	40520.043113
54.537500	-0.027689	-0.075436	-0.023654	-0.305686	9816.137840	65183.281146	4918.305395	40778.067848
55.035000	-0.022297	-0.070211	-0.017299	-0.299704	9807.082259	65075.324316	4919.857337	40263.173587
55.538500	-0.022821	-0.042830	-0.019534	-0.257715	9186.082050	63028.059090	4745.117073	36841.970352
56.038500	-0.024541	-0.021808	-0.019672	-0.203051	8450.881369	58566.956766	4551.869322	32856.006780
56.536000	-0.021276	-0.014295	-0.014185	-0.170933	8110.004751	55516.243144	4466.409014	30737.594749
57.036000	-0.019653	-0.011709	-0.021200	-0.147941	7871.739309	53113.886768	4376.184934	29314.491800
57.536500	-0.020621	-0.010311	-0.016458	-0.137598	7750.289233	52095.944867	4360.025353	28698.464094
58.037000	-0.024666	-0.009552	-0.024205	-0.119117	7517.655614	50140.083709	4287.062741	27633.677612
58.534500	-0.019645	-0.007510	-0.023222	-0.109267	7469.325254	49303.250787	4263.374357	27084.350782
59.037000	-0.011535	-0.001253	-0.019369	-0.080449	7268.099501	46968.343352	4199.222545	25547.035357
59.535000	-0.018993	-0.004415	-0.019575	-0.069119	7093.646855	45531.295638	4170.803351	24970.026618
60.035500	-0.021965	-0.005750	-0.023614	-0.092152	7280.194937	47701.011439	4218.002681	26159.067658
60.535500	-0.023012	-0.004656	-0.018147	-0.071129	7075.429266	45704.188432	4179.194754	25071.289078
61.035500	-0.021513	-0.005713	-0.025109	-0.071444	7091.867113	45631.558998	4163.030216	25087.184555
61.535500	-0.014558	-0.001984	-0.027935	-0.073955	7178.779099	46245.869387	4162.270090	25214.437403
62.036000	-0.013563	-0.003389	-0.023181	-0.089880	7338.933533	47710.117906	4213.342587	26038.965520
62.537000	-0.010850	-0.001897	-0.030745	-0.090006	7366.421876	47876.263802	4194.689729	26045.576128
63.034000	-0.007990	-0.001258	-0.026288	-0.089596	7390.285961	47899.903566	4204.798739	26023.966807
63.540000	-0.009431	-0.002258	-0.026935	-0.088083	7361.525005	47641.819625	4199.392875	25944.388807
64.034500	-0.008327	-0.002045	-0.027137	-0.085859	7350.668486	47436.431126	4193.351306	25827.883284
64.535000	-0.010054	-0.002635	-0.025848	-0.084092	7317.001517	47196.975023	4192.166552	25735.803870
65.040500	-0.010470	-0.000850	-0.024188	-0.079945	7273.416888	46958.174626	4186.014248	25521.021263
65.536000	-0.009918	-0.001822	-0.024264	-0.078691	7266.759347	46734.426083	4182.742443	25456.524011
66.041500	-0.011505	-0.001851	-0.020075	-0.076805	7233.951245	46542.773760	4188.419011	25359.813046
66.536500	-0.010943	-0.001947	-0.022216	-0.075395	7225.980328	46392.623670	4179.676138	25287.778032
67.036000	-0.010868	-0.001230	-0.025008	-0.073103	7205.209756	46236.174853	4167.286544	25171.193307
67.536500	-0.012476	-0.002188	-0.023600	-0.072203	7181.849637	46052.341574	4168.515797	25125.568759
68.037000	-0.012615	-0.002220	-0.028088	-0.071414	7173.231074	45971.417769	4155.793667	25085.665721
68.537500	-0.013712	-0.002174	-0.023705	-0.070361	7153.357018	45872.292655	4163.805662	25032.536084
69.034500	-0.015468	-0.002310	-0.026845	-0.069379	7128.184301	45762.502377	4153.898448	24983.086572
69.535500	-0.014167	-0.001520	-0.022025	-0.067916	7126.697700	45696.574962	4161.959192	24909.607748
70.035000	-0.014150	-0.002574	-0.025763	-0.067742	7125.261099	45576.571994	4152.571232	24900.912555
70.535500	-0.012763	-0.001603	-0.024867	-0.066172	7123.582645	45518.090251	4150.960540	24822.346526
71.036000	-0.011877	-0.001768	-0.021791	-0.065447	7125.054622	45431.348301	4156.583831	24786.187296
71.536000	-0.013148	-0.001632	-0.024351	-0.064894	7108.386631	45390.862860	4149.144436	24758.648332
72.036000	-0.011513	-0.001869	-0.022703	-0.064208	7117.053318	45301.178128	4151.437861	24724.517825
72.536500	-0.013498	-0.001793	-0.021107	-0.064312	7099.893219	45318.663654	4155.503805	24729.685018
73.036500	-0.010830	-0.000750	-0.020054	-0.063311	7115.097089	45322.759990	4155.629121	24680.003161
73.534500	-0.013811	-0.001752	-0.020949	-0.064024	7094.432548	45294.775561	4155.192820	24715.410704
74.035000	-0.013220	-0.001588	-0.024049	-0.062398	7085.033825	45153.219752	4143.935498	24634.758287
74.535500	-0.009368	-0.001535	-0.019656	-0.062778	7123.592823	45195.003641	4155.304555	24653.554920
75.035500	-0.012512	-0.001647	-0.020167	-0.062686	7094.075670	45175.342678	4153.861181	24649.018488
75.535500	-0.009785	-0.001707	-0.022787	-0.060826	7101.965558	44990.086494	4143.200022	24557.088932
76.036000	-0.011406	-0.001649	-0.022124	-0.058895	7069.749123	44810.156466	4140.202829	24462.050479
76.536500	-0.010565	-0.001644	-0.022642	-0.059280	7080.841271	44847.548996	4139.889607	24480.999955
77.036000	-0.011990	-0.001332	-0.023539	-0.057728	7053.967618	44728.700608	4134.125731	24404.835862
77.540000	-0.012277	-0.001330	-0.018098	-0.057244	7047.047273	44682.684555	4145.825225	24381.172339
78.037500	-0.011887	-0.001924	-0.021251	-0.057045	7048.758485	44606.922603	4137.899489	24371.422451
78.537500	-0.011449	-0.001851	-0.021497	-0.058597	7066.677498	44762.246448	4140.979325	24447.452955
79.035000	-0.010895	-0.002606	-0.020271	-0.058986	7075.192995	44727.202245	4144.801918	24466.517698
79.535000	-0.012856	-0.002994	-0.018658	-0.058703	7054.955688	44663.047872	4147.961471	24452.651639
80.035500	-0.013170	-0.002645	-0.022321	-0.057767	7043.722331	44607.000844	4137.078444	24406.741412
80.535500	-0.014631	-0.003076	-0.018656	-0.058709	7039.070624	44655.794408	4147.980854	24452.945168
81.036000	-0.014540	-0.003712	-0.022521	-0.059415	7046.215086	44662.503532	4140.493673	24487.621033
81.536000	-0.014644	-0.002773	-0.021316	-0.058670	7038.603368	44681.075449	4141.581291	24451.046056
82.042500	-0.014270	-0.003562	-0.023777	-0.058463	7040.098715	44585.975571	4135.293066	24440.873753
82.537000	-0.013810	-0.003342	-0.020707	-0.058929	7048.415393	44651.501066	4143.634136	24463.765860
83.034500	-0.013763	-0.003522	-0.019604	-0.058725	7046.994949	44614.809488	4145.765717	24453.724795
83.535000	-0.015961	-0.003803	-0.021240	-0.058832	7028.274087	44598.244220	4142.141926	24458.988185
84.041000	-0.016301	-0.003337	-0.016301	-0.058542	7022.646020	44614.953154	4153.197315	24444.754151
84.535500	-0.014516	-0.003150	-0.018891	-0.058852	7041.386003	44662.440617	4147.761240	24459.984514
85.041000	-0.015497	-0.002997	-0.016611	-0.058592	7030.268360	44652.172025	4152.574985	24447.188639
85.539000	-0.015405	-0.003803	-0.022223	-0.059045	7035.144085	44618.515185	4140.321759	24469.429652
86.036000	-0.016121	-0.004542	-0.020144	-0.059630	7033.973055	44603.831614	4146.632602	24498.197442
86.539500	-0.014164	-0.003093	-0.019525	-0.058306	7039.642972	44615.754923	4144.960147	24433.187187
87.036500	-0.015549	-0.003736	-0.017682	-0.058209	7026.384955	44545.206663	4149.107839	24428.423710
87.537500	-0.016279	-0.004031	-0.021621	-0.058378	7021.379829	44533.217929	4140.171208	24436.715765
88.037500	-0.016696	-0.004051	-0.021071	-0.058150	7015.625474	44509.592595	4140.929284	24425.510190
88.534000	-0.016784	-0.003716	-0.020492	-0.058280	7016.000682	44553.864391	4142.606921	24431.893211
89.035000	-0.015556	-0.003597	-0.015945	-0.058065	7025.034078	44544.686676	4152.906402	24421.341617
89.535500	-0.014717	-0.003358	-0.017487	-0.058014	7032.073992	44562.621088	4149.108149	24418.851481
90.036000	-0.016965	-0.004826	-0.020451	-0.058615	7017.380561	44480.081073	4143.496563	24448.349536
90.536500	-0.016366	-0.004729	-0.017195	-0.059096	7027.003450	44535.070786	4152.382948	24471.931726
91.036500	-0.016907	-0.005511	-0.018797	-0.059625	7026.895888	44510.948354	4149.824156	24497.930744
91.537000	-0.017862	-0.005475	-0.018965	-0.059891	7020.751008	44539.760206	4150.058641	24511.022646
92.037000	-0.018494	-0.005736	-0.024317	-0.059691	7013.333020	44495.884836	4136.909921	24501.171995
92.534500	-0.018443	-0.004949	-0.020700	-0.059637	7013.319087	44565.716655	4145.330174	24498.543397
93.063000	-0.016497	-0.004281	-0.017923	-0.059308	7027.732471	44597.993053	4151.153850	24482.360591
93.535500	-0.019180	-0.005829	-0.019641	-0.060436	7013.865396	44558.004765	4149.746401	24537.890002
94.041000	-0.018963	-0.005267	-0.017548	-0.060308	7014.655537	44599.355074	4154.438875	24531.551684
94.536000	-0.020707	-0.005747	-0.017502	-0.060811	7003.627916	44601.567810	4155.752044	24556.353306
95.036000	-0.017599	-0.004714	-0.013740	-0.060356	7027.247626	44656.689434	4163.707457	24533.906244
95.536500	-0.019479	-0.005190	-0.015992	-0.060870	7015.064441	44660.342524	4159.519794	24559.255820
