sample name	sample
index	1001
start time	 04-14-2021  04:41:05 PM
880	0.204738
Peak Time (s)	101.035
Peak Height 	0.2047
calc peak height	100,103
Baseline Time (s)	10.034
Baseline Value 	-0.002043
subtract baseline	10,4
Abs	0.167797
Peak Time (s)	101.535
Peak Height 	0.1678
calc peak height	100,103
Baseline Time (s)	10.034
Baseline Value 	7.8557E-4
subtract baseline	10,3
PK_550	0.096988
Peak Time (s)	102.036
Peak Height 	0.09699
calc peak height	100,103
Baseline Time (s)	9.035
Baseline Value 	4.9557E-4
subtract baseline	10,2
PK_880	0.165733
Peak Time (s)	100.035
Peak Height 	0.1657
calc peak height	100,103
Baseline Time (s)	11.536
Baseline Value 	0.001703
subtract baseline	10,1


Time (s)	A880-A510	A880-A775	A880-A975	A880	I510	I775	I975	I880	
0.035000	-0.000689	-0.000459	-0.002886	-0.000407	6336.450173	42212.758333	3961.778216	22229.534538
0.535500	-0.001200	0.000155	-0.004969	0.001413	6318.570143	42104.146603	3952.907375	22149.109440
1.036000	-0.001954	-0.000033	0.001504	0.001323	6313.485865	42095.247613	3967.871013	22153.072111
1.536000	-0.003361	-0.000647	-0.005739	0.004251	6280.529736	41777.952121	3944.776537	22024.321486
2.036500	-0.000116	0.000237	-0.000110	-0.001120	6346.358692	42340.117414	3969.776370	22261.158604
2.536500	0.001285	0.000485	0.005237	-0.000795	6354.669737	42333.081848	3981.401035	22246.735693
3.037000	0.001824	-0.000843	-0.002444	-0.003201	6377.524308	42430.845178	3969.194700	22353.703791
3.537000	-0.000906	-0.000126	-0.005116	0.000982	6324.115945	42117.583528	3953.549845	22168.097954
4.037500	0.001350	-0.000590	-0.001640	-0.001488	6360.537386	42298.518519	3967.104518	22277.480445
4.535000	0.001091	-0.000327	-0.002137	-0.000674	6352.229256	42248.705637	3964.100939	22241.359838
5.038000	0.000002	-0.000020	0.000628	-0.000279	6340.786061	42240.858431	3969.540611	22223.887021
5.535000	-0.001426	-0.000037	-0.002826	0.000247	6325.759666	42191.817985	3960.423045	22200.582506
6.038500	0.001038	0.000367	0.000496	-0.000474	6350.278907	42293.402955	3969.683880	22232.517996
6.536000	0.001963	-0.000066	0.002806	-0.000723	6359.358006	42276.719767	3975.588858	22243.532981
7.036500	0.001302	-0.000206	0.000358	-0.000518	6352.655107	42245.560430	3969.467882	22234.452059
7.536500	-0.001799	-0.000374	-0.000930	-0.000645	6329.751375	42241.926530	3966.799318	22240.086943
8.037000	-0.000756	0.000190	0.003778	-0.000306	6335.155375	42262.193411	3976.875346	22225.068166
8.536500	0.001093	-0.000617	-0.002810	-0.000628	6351.896539	42218.412890	3962.457041	22239.329511
9.035000	-0.000942	0.000000	-0.000704	0.002731	6310.458165	41971.749302	3959.596663	22091.038065
9.537500	0.000036	-0.000176	0.006283	-0.000295	6341.167939	42228.142049	3982.673632	22224.584169
10.034500	0.000791	0.000036	0.000000	0.000000	6344.714181	42220.714231	3967.454026	22211.519159
10.535500	-0.000241	0.001129	0.002403	0.000571	6332.376643	42267.866901	3971.670918	22186.272493
11.036000	-0.002189	-0.000485	-0.003198	0.002100	6305.770983	41984.880054	3955.364142	22118.836265
11.536000	0.000000	0.000441	0.001809	-0.000063	6339.105877	42262.928585	3971.761979	22214.320719
12.036500	0.000787	0.000175	-0.000753	-0.000314	6347.104759	42261.589214	3966.447555	22225.425889
12.536500	-0.001011	0.000051	0.005666	-0.000249	6332.752642	42244.457340	3981.126803	22222.520848
13.036500	-0.002394	-0.000076	-0.002931	0.004182	6288.376935	41835.090044	3951.253717	22027.349135
13.538000	0.002536	0.000740	0.002229	-0.000181	6359.598724	42300.623020	3973.003762	22219.540430
14.037500	0.000144	0.000075	-0.004293	0.000843	6333.248752	42148.216707	3955.732361	22174.273269
14.534500	-0.002271	-0.000329	0.002069	0.001000	6313.528702	42097.635802	3969.912290	22167.308581
15.035500	0.000037	-0.000357	-0.001898	0.004417	6305.071754	41789.030265	3953.059080	22017.057739
15.536000	-0.000077	-0.000254	-0.000248	-0.001222	6347.442960	42304.863023	3969.694329	22265.682641
16.036500	0.000450	0.000126	0.001550	-0.001124	6350.759404	42330.408378	3973.612717	22261.323989
16.536500	-0.000856	0.000729	0.000601	-0.000690	6337.334584	42345.645738	3970.422282	22242.062126
17.036500	-0.003416	0.000534	-0.000850	0.004694	6276.763478	41843.809516	3954.804109	22004.911452
17.537000	0.001113	0.000219	0.001220	-0.000407	6350.345015	42273.993966	3971.197436	22229.552800
18.037000	-0.001471	-0.000762	0.002208	-0.000436	6330.664344	42188.055196	3973.544946	22230.839344
18.534500	-0.000992	0.000079	0.000993	0.000136	6329.946686	42212.275206	3969.424607	22205.503577
19.038000	-0.000561	0.000021	0.002916	0.000378	6331.399443	42185.202392	3973.298514	22194.800437
19.535000	0.002508	-0.000307	0.001428	0.000072	6357.423319	42183.256552	3970.573299	22208.349955
20.035500	-0.000527	0.000829	0.000035	0.000726	6328.989496	42226.736504	3965.868879	22179.423218
20.536000	0.000766	0.000630	0.000455	0.000375	6341.629315	42240.459808	3967.639229	22194.943833
21.039000	0.000359	0.000120	0.001500	0.001148	6332.548338	42124.760783	3968.262075	22160.793116
21.536000	0.000000	0.000982	0.002130	0.001040	6330.626102	42212.194968	3969.961126	22165.572777
22.037000	-0.002493	-0.000109	0.002071	0.000020	6319.331379	42205.770685	3972.175660	22210.636325
22.537000	0.001863	0.000659	0.000889	0.000585	6348.469026	42224.105405	3968.152234	22185.635744
23.033500	0.000705	-0.000248	0.002171	0.000002	6344.031010	42194.880812	3972.444866	22211.410537
23.534500	0.000047	-0.000398	0.002688	-0.000048	6339.349362	42185.813529	3973.754800	22213.632294
24.035000	-0.000701	-0.000837	0.003057	-0.000787	6339.279844	42212.916940	3976.320116	22246.360227
24.535000	0.000142	0.000232	0.000127	0.000082	6339.081667	42231.032243	3967.558083	22207.909576
25.035500	0.002611	0.000732	0.003285	0.000804	6352.557723	42210.867005	3973.167328	22175.959918
25.536000	0.000234	0.000050	0.002184	0.000410	6337.265659	42184.996488	3971.537632	22193.402230
26.036000	0.003066	0.000528	-0.003109	0.000826	6355.906529	42190.595234	3958.460055	22175.012676
26.537000	0.000976	0.000800	-0.001687	0.000647	6341.146150	42231.224561	3962.107894	22182.888839
27.037000	-0.001843	-0.000301	-0.001551	-0.000114	6325.329516	42200.492138	3964.158708	22216.552526
27.537500	0.000422	0.000323	0.001833	-0.001926	6356.741532	42420.887099	3976.122898	22296.951962
28.034500	0.001549	0.001036	-0.000981	-0.000243	6352.441712	42333.008184	3965.761207	22222.285799
28.537500	-0.000930	-0.000031	0.004975	-0.001121	6340.095133	42315.970848	3981.552052	22261.206973
29.035500	0.000421	0.000388	0.004962	-0.000973	6349.366184	42340.481651	3981.175638	22254.629513
29.535500	-0.000873	-0.000083	0.000248	-0.000329	6334.429021	42239.622680	3968.779211	22226.073370
30.036000	-0.001375	-0.000348	0.000104	-0.000957	6335.396933	42272.358383	3969.892839	22253.904389
30.535500	0.001235	0.000075	-0.001020	-0.000928	6355.314172	42308.060489	3967.243502	22252.643500
31.036500	0.001087	-0.000590	0.003633	0.000992	6339.350053	42075.023469	3973.537286	22167.693342
31.537000	0.002563	0.000652	0.003770	0.000705	6352.954967	42212.671669	3974.516181	22180.342727
32.040500	0.000581	-0.000108	-0.000792	-0.000684	6348.366651	42269.439569	3967.205718	22241.808129
32.537500	0.002217	0.000453	0.004483	-0.000132	6356.753489	42270.257599	3978.106699	22217.360306
33.038000	-0.000385	0.000250	0.006733	-0.000345	6338.311340	42271.178204	3983.840519	22226.805566
33.535000	-0.000734	-0.000297	0.005132	0.000066	6332.463207	42184.619490	3979.155104	22208.585125
34.038000	-0.001440	-0.000691	0.001468	-0.000149	6328.695121	42168.581020	3971.175420	22218.129109
34.536000	-0.000369	0.000517	0.000349	0.001062	6327.619795	42168.219658	3965.818236	22164.561585
35.036000	-0.000180	0.000052	-0.000263	0.001178	6328.184435	42115.954446	3964.150446	22159.461296
35.536000	0.001930	0.000148	0.006739	0.000302	6351.174435	42203.526125	3982.344023	22198.143420
36.036500	0.001186	-0.000459	-0.001912	0.000384	6344.796940	42141.456057	3962.195047	22194.524870
36.534500	-0.000194	-0.000649	0.002962	-0.000383	6340.075419	42193.446592	3975.164728	22228.488457
37.037000	0.001841	-0.000630	0.000617	0.000023	6352.639395	42158.560318	3968.818889	22210.497412
37.535000	-0.000738	-0.000269	0.002052	0.000072	6332.388847	42186.617533	3972.010666	22208.324719
38.037500	0.001345	0.000123	0.001926	0.000652	6343.960504	42169.715531	3970.383380	22182.686281
38.537500	-0.000325	0.000410	0.004426	0.000742	6330.412954	42187.473539	3975.949039	22178.700957
39.035500	-0.000103	-0.000105	0.003595	0.000835	6331.407793	42132.660174	3973.812879	22174.606079
39.536000	0.000059	0.000782	0.003995	0.001154	6330.205883	42183.927511	3973.999424	22160.536407
40.036000	0.001217	0.000890	0.003105	0.001441	6336.892131	42167.721919	3971.283005	22147.852760
40.536500	-0.000247	-0.000627	0.000746	0.000393	6333.698320	42125.564311	3968.264485	22194.148984
41.036000	0.000108	-0.000320	0.003028	0.001079	6331.149436	42091.367233	3971.938764	22163.814868
41.537000	0.000832	0.000243	0.000310	0.000898	6338.108271	42158.349873	3966.104725	22171.815349
42.037500	-0.000930	-0.000101	0.004992	0.000901	6324.555236	42127.161917	3976.893231	22171.707842
42.537000	0.000309	-0.000411	0.000944	0.000715	6335.492637	42115.984365	3967.980561	22179.915042
43.037500	-0.002838	0.000311	0.002890	0.001375	6306.344269	42121.568005	3970.938145	22150.769411
43.535000	-0.000219	0.000368	0.002109	0.001095	6328.522340	42151.857859	3969.785167	22163.125145
44.038500	-0.000592	0.000405	-0.001476	0.000358	6331.308087	42221.673180	3963.249907	22195.663633
44.535500	0.002715	0.000759	0.003556	-0.000252	6361.535091	42308.761495	3976.235752	22222.670560
45.039000	-0.001801	-0.000196	0.002001	0.004046	6293.909199	41836.444228	3962.768231	22033.294298
45.538500	-0.000978	-0.000401	0.001306	-0.001179	6340.168554	42287.682132	3973.175901	22263.761120
46.036500	-0.001573	-0.000108	0.000000	-0.001492	6337.991617	42342.463488	3970.885557	22277.642997
46.537000	0.000566	0.000591	-0.000788	-0.001025	6350.892708	42363.544975	3967.999789	22256.950895
47.036500	-0.002496	0.000379	-0.002769	0.003437	6293.255328	41942.394885	3953.304308	22060.016035
47.537500	-0.000476	0.000295	-0.004062	0.000617	6330.211269	42188.365781	3956.767546	22184.224630
48.035500	0.001397	0.000904	-0.003857	0.001258	6339.690132	42185.495656	3955.777152	22155.925256
48.535000	0.001106	0.000969	0.000836	-0.001041	6355.182399	42399.185466	3971.772117	22257.621602
49.035500	-0.002224	0.000886	-0.004771	0.003890	6291.888294	41947.313756	3947.763660	22040.160774
49.536000	0.002650	0.000680	0.007118	-0.000679	6364.344258	42340.294534	3985.518672	22241.596719
50.036000	0.002828	0.000477	0.005024	-0.003490	6387.602990	42576.985083	3987.195862	22366.561065
50.537000	0.000927	0.000215	0.004461	0.002169	6329.067167	42041.532030	3972.729840	22115.768611
51.037000	0.015083	-0.006601	0.000729	0.046367	6106.261728	37717.754246	3867.976839	20265.433422
51.533500	0.014995	-0.014986	-0.001606	0.196121	5198.538739	27130.686099	3602.735474	15227.989505
52.040000	-0.002386	-0.027355	-0.009587	-0.087258	7060.164426	48013.296140	4162.744484	26488.037409
52.534500	-0.004556	-0.081939	-0.014694	-0.278278	9274.300347	64617.424072	4799.920879	39467.868440
53.035000	-0.000292	-0.079795	-0.014738	-0.276865	9315.656408	64721.152765	4793.792914	39349.398022
53.535000	0.001078	-0.068201	-0.007725	-0.261322	9112.725420	64162.715911	4758.326352	38071.279188
54.038500	0.001946	-0.065557	-0.009040	-0.259639	9101.265871	64298.255965	4746.028732	37935.629908
54.536500	0.005886	-0.046392	-0.003738	-0.232779	8787.379608	63222.134190	4660.029427	35840.005784
55.036000	0.002628	-0.038426	-0.009248	-0.218577	8559.149270	62363.922984	4585.046367	34783.227123
55.537000	0.009077	-0.045075	-0.008779	-0.231206	8808.995954	63186.565423	4634.488118	35721.198523
56.036500	0.012461	-0.029730	-0.004307	-0.200617	8455.996527	61111.614396	4537.353105	33495.370705
56.534500	0.009617	-0.017556	-0.003335	-0.153993	7868.132641	56682.305708	4380.985459	30390.484430
57.037500	0.006800	-0.011823	-0.005858	-0.123521	7508.592523	53711.468045	4277.773727	28534.072650
57.535000	0.008983	-0.011422	-0.000632	-0.105993	7351.918421	51751.598332	4241.256006	27523.789501
58.035000	0.010806	-0.007106	0.001214	-0.079605	7112.342519	49337.217736	4171.421395	26077.659314
58.535500	0.008221	-0.005852	0.003079	-0.050451	6822.201167	46455.739132	4098.265180	24578.891011
59.036000	0.012688	-0.003099	0.005475	-0.025181	6643.219050	44261.553856	4040.390025	23358.739138
59.536500	0.015460	-0.000678	0.007525	-0.013242	6567.027363	43367.713456	4016.296738	22806.521167
60.036500	0.015069	-0.001924	0.011106	-0.005694	6502.329366	42559.111297	4006.785407	22465.142319
60.537000	0.017895	0.000449	0.011266	0.003847	6448.524599	41911.970393	3984.633919	22042.019003
61.036500	0.020295	0.003013	0.011654	0.026085	6294.339744	40189.823128	3934.861888	21091.200257
61.540000	0.021917	0.005548	0.018637	0.038908	6210.345870	39319.851741	3921.978156	20564.656254
62.035000	0.021034	0.005169	0.022861	0.057213	6071.401348	37791.668686	3891.613703	19839.428260
62.535000	0.029567	0.008170	0.028038	0.080335	5969.792471	36217.837641	3854.318642	18966.020840
63.035500	0.035790	0.010245	0.026887	0.069922	6085.932868	37186.075353	3873.376540	19353.621699
63.535500	0.040138	0.014830	0.038983	0.103793	5882.824949	34958.624683	3829.207608	18126.141526
64.036500	0.052690	0.019785	0.050873	0.116490	5881.861287	34394.434796	3827.614491	17690.128300
64.536000	0.061150	0.024530	0.053604	0.134861	5816.740008	33425.623667	3797.286704	17081.412894
65.037500	0.067773	0.029388	0.064724	0.151647	5751.478508	32602.060896	3786.565211	16547.267546
65.537000	0.079468	0.037156	0.076673	0.164799	5742.251974	32237.780442	3784.308830	16142.983785
66.034500	0.088262	0.041566	0.083754	0.168590	5774.077094	32279.438407	3790.498781	16028.688471
66.534500	0.096055	0.047471	0.093495	0.170519	5811.850646	32548.416102	3805.387572	15970.920279
67.035000	0.100861	0.052660	0.097413	0.174997	5813.974815	32596.762720	3804.310473	15837.783964
67.535500	0.110124	0.057188	0.102365	0.177080	5860.962006	32763.764384	3809.839105	15776.346715
68.035500	0.112830	0.059250	0.115266	0.176888	5880.151952	32918.531108	3835.537680	15782.001724
68.536000	0.113823	0.061025	0.114963	0.168312	5944.414808	33639.434841	3852.178265	16037.029017
69.036500	0.117845	0.064367	0.118235	0.169171	5965.968208	33814.957672	3857.092607	16011.261349
69.536500	0.119429	0.066627	0.122541	0.167894	5985.605646	34066.662995	3868.567908	16049.595709
70.036000	0.120602	0.067978	0.127169	0.167987	5993.043595	34156.710865	3877.995477	16046.784946
70.537000	0.121391	0.068450	0.118648	0.167624	6001.007990	34216.622746	3861.103260	16057.705629
71.037000	0.123420	0.070687	0.129476	0.169706	6000.642812	34227.790557	3879.227570	15995.230388
71.534500	0.126066	0.071964	0.126471	0.171503	6006.521034	34190.458526	3869.231190	15941.547901
72.035500	0.128670	0.072470	0.130253	0.171975	6021.340507	34192.914391	3876.109639	15927.488487
72.535000	0.127502	0.072997	0.132621	0.171840	6014.150144	34240.401377	3881.344812	15931.505125
73.035500	0.122959	0.073040	0.120403	0.177521	5943.919389	33837.904357	3844.558022	15763.372822
73.536000	0.130185	0.074580	0.131386	0.172377	6029.106033	34315.680898	3877.635812	15915.525931
74.036000	0.130798	0.076219	0.137493	0.174712	6017.096222	34265.537050	3885.549671	15846.217277
74.537000	0.130719	0.076405	0.142942	0.175535	6010.829353	34219.815597	3895.354100	15821.894023
75.037000	0.131715	0.076698	0.129505	0.182347	5970.721498	33755.111105	3853.209008	15622.249767
75.540000	0.138208	0.078344	0.139403	0.177280	6050.982663	34233.778954	3884.167009	15770.459636
76.034500	0.135505	0.078373	0.138665	0.177230	6032.373266	34239.448416	3882.718677	15771.921975
76.534500	0.136416	0.080038	0.138142	0.177551	6036.495314	34336.109334	3880.946003	15762.475156
77.035500	0.134203	0.079223	0.140287	0.183159	5982.221661	33876.497848	3873.713294	15598.647063
77.535500	0.139838	0.081018	0.142313	0.178270	6055.481303	34354.984879	3888.213880	15741.356179
78.035500	0.139227	0.080555	0.138421	0.177315	6057.907307	34390.455904	3882.026408	15769.408621
78.536000	0.141424	0.082494	0.148600	0.179171	6060.314536	34396.492532	3899.670918	15714.940726
79.036500	0.137333	0.083053	0.143886	0.185981	5984.343260	33948.276659	3875.332025	15517.024752
79.537000	0.144061	0.083277	0.147353	0.178843	6081.308879	34476.788134	3897.704623	15724.533439
80.037000	0.143690	0.084311	0.140752	0.178939	6077.995647	34544.823456	3883.512008	15721.731727
80.537500	0.144064	0.085133	0.143966	0.179669	6075.467021	34551.520055	3888.752430	15700.358119
81.035000	0.143499	0.086822	0.156078	0.180630	6064.660602	34604.360846	3912.640082	15672.257216
81.535000	0.146745	0.087441	0.145385	0.181492	6081.559528	34586.664729	3887.897646	15647.117752
82.036000	0.148793	0.087917	0.152429	0.181643	6095.068441	34610.354206	3902.579373	15642.736570
82.535000	0.150821	0.088500	0.148183	0.182292	6104.930615	34605.563968	3892.128963	15623.846506
83.035500	0.144898	0.087506	0.148793	0.187692	6024.899249	34144.019349	3882.016493	15467.754701
83.536500	0.149810	0.088799	0.147578	0.182141	6098.778720	34638.296393	3891.167264	15628.243513
84.036500	0.150148	0.088694	0.151500	0.182191	6100.828824	34626.984989	3899.412384	15626.772391
84.537000	0.152404	0.089192	0.153124	0.183117	6110.362877	34595.875403	3900.908502	15599.886353
85.037500	0.150559	0.089534	0.149219	0.190553	6044.495778	34084.399195	3876.919272	15385.856640
85.534500	0.152174	0.089851	0.151914	0.184844	6096.355284	34518.391863	3894.636286	15549.850569
86.035000	0.155006	0.090759	0.152094	0.185769	6110.006642	34517.145748	3893.053015	15523.138730
86.535000	0.154435	0.088720	0.150774	0.184957	6111.735197	34428.266448	3891.972834	15546.588383
87.035500	0.149906	0.089787	0.149571	0.191403	6033.968615	34041.812695	3875.880869	15361.639779
87.536000	0.155009	0.091968	0.157567	0.188077	6093.510197	34437.530406	3899.801123	15456.711770
88.036000	0.156572	0.092085	0.158313	0.188362	6102.643646	34425.387698	3900.788436	15448.532667
88.536500	0.158493	0.092402	0.155066	0.189376	6109.139227	34375.045765	3891.704385	15419.502998
89.036500	0.150679	0.091259	0.151731	0.194744	6016.050789	33908.583338	3873.421021	15266.842636
89.537000	0.157796	0.092640	0.156689	0.190199	6098.262945	34332.828793	3893.402833	15395.966772
90.037000	0.157029	0.092322	0.157660	0.190801	6088.495734	34266.553311	3894.185716	15378.775692
90.537000	0.154800	0.092905	0.153828	0.191630	6066.792775	34248.896763	3884.323517	15355.160172
91.035500	0.157338	0.093054	0.153268	0.191599	6085.010709	34261.794457	3883.210268	15356.034918
91.535000	0.159069	0.093619	0.159227	0.192685	6089.607918	34224.373821	3893.511314	15325.172553
92.036000	0.158887	0.094598	0.159131	0.193507	6082.464049	34235.690735	3891.562613	15301.858353
92.536000	0.161814	0.094848	0.155665	0.193796	6101.269400	34232.884825	3883.631093	15293.661891
93.036000	0.156738	0.093801	0.153628	0.198842	6029.717710	33798.168263	3868.853640	15151.576501
93.536500	0.161089	0.095253	0.158061	0.194369	6092.002597	34220.827866	3887.473224	15277.455415
94.037000	0.159343	0.095397	0.156963	0.195001	6075.090282	34185.783462	3883.827416	15259.588695
94.540000	0.159835	0.094597	0.164012	0.194620	6081.291784	34155.730676	3899.592406	15270.362133
95.034500	0.157450	0.094867	0.157897	0.200280	6024.651664	33771.781513	3874.731109	15111.387939
95.534500	0.161178	0.095129	0.159683	0.195648	6083.527319	34120.241524	3888.199008	15241.332761
96.035500	0.160599	0.096092	0.162931	0.196641	6072.375683	34118.080058	3892.976895	15213.365235
96.536000	0.162955	0.096236	0.165463	0.196809	6087.915135	34116.371397	3898.012440	15208.628979
97.036000	0.162771	0.096333	0.164199	0.202253	6048.091379	33735.904742	3883.792472	15056.452048
97.536000	0.162158	0.096792	0.166112	0.198260	6071.947460	34052.342672	3896.301822	15167.878211
98.036500	0.163452	0.097003	0.160601	0.198615	6078.604853	34042.062837	3883.877525	15157.947937
98.536500	0.163637	0.096256	0.166130	0.198570	6080.231330	33991.928529	3895.677771	15159.184431
99.037000	0.161995	0.095999	0.155335	0.201069	6050.960034	33796.043162	3867.779845	15089.387839
99.537500	0.162757	0.095770	0.163364	0.198745	6072.751730	33944.844451	3889.431703	15154.282553
100.035000	0.165733	0.096933	0.166244	0.199904	6085.655291	33945.096296	3893.083071	15121.875820
100.535000	0.161365	0.096055	0.165447	0.199498	6057.592427	33911.506803	3892.252558	15133.216788
101.035500	0.161861	0.095055	0.161157	0.204738	6024.321961	33471.044861	3872.240690	14987.636534
101.535500	0.162746	0.096699	0.167797	0.200476	6060.438008	33887.845945	3895.171307	15105.930408
102.036000	0.163723	0.096988	0.164261	0.201287	6061.605974	33850.752668	3885.957947	15083.321841
102.536500	0.163112	0.096883	0.162089	0.201785	6053.782146	33807.974217	3880.345242	15069.455422
103.036500	0.164393	0.097500	0.163441	0.202956	6054.565319	33768.773709	3880.725116	15036.954235
103.536500	0.165152	0.096152	0.167277	0.202220	6065.111405	33725.458847	3890.361092	15057.382503
104.039500	0.163886	0.096867	0.161172	0.203218	6049.151289	33705.478235	3875.435790	15029.700173
104.537500	0.164164	0.097490	0.169227	0.203973	6045.797888	33696.159400	3890.777407	15008.784449
105.034500	0.165481	0.097328	0.163533	0.206188	6039.501077	33528.784272	3874.166411	14947.661129
105.534500	0.167358	0.098565	0.167131	0.205590	6056.890679	33657.894550	3882.941371	14964.114536
106.035500	0.165384	0.097751	0.167865	0.205738	6041.968931	33590.134731	3884.172948	14960.039546
106.536000	0.163666	0.097069	0.172056	0.205788	6029.593200	33538.668303	3892.929352	14958.674335
107.036000	0.165939	0.097400	0.170874	0.207834	6031.181238	33418.471736	3886.098446	14902.443926
107.536500	0.165262	0.097311	0.161768	0.206338	6036.914199	33517.089607	3870.189273	14943.538786
108.037000	0.166811	0.097148	0.168223	0.206782	6044.664508	33474.508052	3882.731226	14931.327916
108.539500	0.165352	0.096985	0.164869	0.207574	6028.898122	33407.582559	3874.062578	14909.568012
109.037000	0.163582	0.096191	0.161703	0.209695	6001.838843	33204.346461	3863.125155	14851.503136
109.534500	0.165227	0.097301	0.165920	0.208682	6020.296605	33352.240657	3873.942219	14879.199183
110.034500	0.166681	0.096864	0.169731	0.208715	6030.209522	33319.423710	3881.839329	14878.294566
110.535500	0.165153	0.097447	0.168295	0.209835	6011.763370	33281.957004	3876.489513	14847.684251
111.035000	0.165147	0.097636	0.164841	0.213133	5988.897386	33066.196311	3862.507938	14758.001808
111.535500	0.165590	0.096324	0.167022	0.210031	6013.437674	33190.274412	3873.428836	14842.344546
112.036500	0.166501	0.097953	0.164839	0.211690	6008.242573	33188.147535	3865.474026	14797.162240
112.536500	0.167098	0.097946	0.168664	0.211710	6012.245448	33186.286474	3873.351529	14796.617448
