sample name	sample
index	1215
start time	 04-29-2021  10:02:04 AM


Wavelength (nm)	Absorbance
494.344910	0.247813
494.563924	0.247813
494.782919	0.247813
495.001897	0.007375
495.220856	0.065981
495.439797	0.065742
495.658719	-0.001695
495.877624	-0.051476
496.096510	-0.071913
496.315378	-0.077209
496.534227	-0.039717
496.753059	-0.036241
496.971872	-0.057688
497.190667	0.093562
497.409444	0.115175
497.628203	0.128037
497.846943	0.135646
498.065665	0.136199
498.284369	0.135915
498.503055	0.135438
498.721723	0.136084
498.940372	0.137983
499.159003	0.137259
499.377616	0.137463
499.596210	0.137108
499.814787	0.136396
500.033345	0.137798
500.251885	0.139076
500.470406	0.139841
500.688910	0.138972
500.907395	0.138713
501.125862	0.139532
501.344311	0.139209
501.562742	0.139168
501.781154	0.139193
501.999548	0.138954
502.217924	0.138660
502.436282	0.138299
502.654621	0.138401
502.872942	0.138174
503.091245	0.137477
503.309530	0.139006
503.527797	0.139369
503.746045	0.139249
503.964275	0.139906
504.182487	0.139895
504.400681	0.140429
504.618856	0.140944
504.837013	0.140601
505.055152	0.141461
505.273273	0.140931
505.491376	0.141142
505.709460	0.142329
505.927526	0.141390
506.145574	0.141639
506.363604	0.141876
506.581615	0.141787
506.799608	0.143566
507.017583	0.142070
507.235540	0.142157
507.453478	0.142745
507.671399	0.141793
507.889301	0.142305
508.107185	0.142713
508.325050	0.142744
508.542898	0.143079
508.760727	0.142267
508.978538	0.143632
509.196330	0.143660
509.414105	0.143513
509.631861	0.143987
509.849599	0.144035
510.067319	0.143865
510.285021	0.143682
510.502704	0.143620
510.720369	0.143654
510.938016	0.143455
511.155645	0.143693
511.373255	0.143251
511.590848	0.144629
511.808422	0.144457
512.025977	0.144716
512.243515	0.145634
512.461034	0.145136
512.678536	0.145280
512.896018	0.145269
513.113483	0.145201
513.330930	0.145709
513.548358	0.144929
513.765768	0.145523
513.983160	0.146066
514.200533	0.145714
514.417889	0.147325
514.635226	0.148210
514.852545	0.148837
515.069845	0.150605
515.287128	0.150766
515.504392	0.150813
515.721638	0.152330
515.938866	0.151168
516.156075	0.151151
516.373267	0.150913
516.590440	0.150600
516.807594	0.150593
517.024731	0.148950
517.241850	0.149196
517.458950	0.149865
517.676032	0.149520
517.893095	0.150478
518.110141	0.150973
518.327168	0.150632
518.544177	0.151786
518.761168	0.152263
518.978141	0.153170
519.195095	0.152989
519.412031	0.152898
519.628949	0.152165
519.845849	0.151707
520.062731	0.151424
520.279594	0.152298
520.496439	0.151889
520.713266	0.151604
520.930074	0.152404
521.146865	0.154019
521.363637	0.154632
521.580391	0.155696
521.797127	0.157116
522.013844	0.157259
522.230543	0.157624
522.447224	0.157982
522.663887	0.158504
522.880532	0.158484
523.097158	0.158167
523.313766	0.157937
523.530356	0.157142
523.746928	0.156633
523.963481	0.156844
524.180017	0.156893
524.396534	0.156747
524.613032	0.157342
524.829513	0.157338
525.045975	0.158238
525.262420	0.158714
525.478845	0.159948
525.695253	0.160634
525.911643	0.161010
526.128014	0.161875
526.344367	0.162247
526.560702	0.161833
526.777018	0.162113
526.993316	0.161750
527.209597	0.161421
527.425858	0.161453
527.642102	0.161286
527.858328	0.161937
528.074535	0.161871
528.290724	0.162411
528.506894	0.163112
528.723047	0.163290
528.939181	0.163856
529.155297	0.164728
529.371395	0.164890
529.587475	0.165842
529.803536	0.165703
530.019579	0.165071
530.235604	0.165286
530.451611	0.165758
530.667600	0.166187
530.883570	0.165912
531.099522	0.165550
531.315456	0.165393
531.531372	0.164993
531.747269	0.165449
531.963148	0.165830
532.179009	0.166259
532.394852	0.165999
532.610676	0.166044
532.826482	0.166414
533.042271	0.166816
533.258040	0.167723
533.473792	0.168836
533.689525	0.170106
533.905240	0.170708
534.120937	0.170663
534.336616	0.171211
534.552277	0.171296
534.767919	0.171350
534.983543	0.172000
535.199149	0.172213
535.414736	0.172266
535.630306	0.172337
535.845857	0.172894
536.061390	0.173277
536.276904	0.173675
536.492401	0.173953
536.707879	0.174627
536.923339	0.174506
537.138781	0.174413
537.354204	0.174737
537.569610	0.174417
537.784997	0.174669
538.000366	0.174860
538.215716	0.175128
538.431049	0.175987
538.646363	0.176547
538.861659	0.177203
539.076937	0.178149
539.292196	0.177831
539.507438	0.177755
539.722661	0.178134
539.937866	0.178408
540.153052	0.179000
540.368221	0.178898
540.583371	0.178511
540.798503	0.178555
541.013617	0.178184
541.228712	0.178794
541.443789	0.179960
541.658848	0.180094
541.873889	0.180726
542.088912	0.180556
542.303916	0.180858
542.518902	0.181420
542.733870	0.181597
542.948820	0.181664
543.163752	0.181906
543.378665	0.181493
543.593560	0.181697
543.808437	0.181721
544.023295	0.182037
544.238136	0.182114
544.452958	0.182445
544.667762	0.183748
544.882548	0.184685
545.097315	0.184811
545.312064	0.185205
545.526795	0.184762
545.741508	0.185010
545.956203	0.185073
546.170879	0.185371
546.385537	0.185032
546.600177	0.184489
546.814799	0.184638
547.029402	0.185199
547.243988	0.185376
547.458555	0.185843
547.673103	0.186546
547.887634	0.187254
548.102146	0.187282
548.316640	0.188114
548.531116	0.188379
548.745574	0.188310
548.960013	0.188496
549.174435	0.188911
549.388838	0.189279
549.603222	0.189070
549.817589	0.189225
550.031937	0.189498
550.246267	0.189184
550.460579	0.189010
550.674873	0.189295
550.889148	0.189212
551.103405	0.189503
551.317644	0.189947
551.531865	0.189953
551.746068	0.189548
551.960252	0.189921
552.174418	0.190501
552.388566	0.190925
552.602696	0.190981
552.816807	0.191321
553.030900	0.191398
553.244975	0.191448
553.459032	0.191536
553.673070	0.192075
553.887091	0.192265
554.101093	0.192696
554.315077	0.192720
554.529042	0.192838
554.742990	0.192791
554.956919	0.192654
555.170830	0.192676
555.384722	0.193129
555.598597	0.193134
555.812453	0.193280
556.026291	0.193127
556.240111	0.193566
556.453913	0.193322
556.667696	0.193793
556.881461	0.193847
557.095208	0.194039
557.308937	0.193960
557.522647	0.194397
557.736339	0.194675
557.950013	0.194487
558.163669	0.195040
558.377307	0.195649
558.590926	0.195575
558.804527	0.196043
559.018110	0.196230
559.231675	0.196483
559.445221	0.196328
559.658749	0.195993
559.872259	0.196154
560.085751	0.195965
560.299225	0.196218
560.512680	0.196529
560.726117	0.196855
560.939536	0.197328
561.152937	0.197495
561.366319	0.197785
561.579683	0.198168
561.793029	0.198109
562.006357	0.197761
562.219667	0.197750
562.432958	0.198183
562.646231	0.197837
562.859486	0.197808
563.072723	0.198020
563.285941	0.198222
563.499141	0.198574
563.712323	0.199253
563.925487	0.199793
564.138632	0.200016
564.351760	0.199715
564.564869	0.200385
564.777960	0.200184
564.991032	0.200455
565.204087	0.200434
565.417123	0.200475
565.630141	0.200832
565.843140	0.201038
566.056122	0.201283
566.269085	0.201125
566.482030	0.200598
566.694957	0.200923
566.907866	0.200442
567.120756	0.200593
567.333628	0.200564
567.546482	0.200174
567.759318	0.200280
567.972135	0.200382
568.184935	0.201011
568.397716	0.202017
568.610478	0.202367
568.823223	0.202806
569.035949	0.203391
569.248657	0.203473
569.461347	0.204281
569.674019	0.204666
569.886672	0.204638
570.099308	0.204564
570.311925	0.204182
570.524523	0.204311
570.737104	0.204654
570.949666	0.204355
571.162210	0.204842
571.374736	0.204719
571.587244	0.204371
571.799733	0.204648
572.012205	0.205069
572.224658	0.205734
572.437092	0.206017
572.649509	0.205889
572.861907	0.206201
573.074287	0.206241
573.286649	0.206263
573.498993	0.206559
573.711318	0.206525
573.923625	0.206820
574.135914	0.206513
574.348185	0.206731
574.560438	0.207246
574.772672	0.207022
574.984888	0.207185
575.197086	0.207585
575.409266	0.207842
575.621427	0.207805
575.833570	0.207916
576.045695	0.208044
576.257802	0.207596
576.469890	0.207332
576.681961	0.207524
576.894013	0.207361
577.106046	0.207217
577.318062	0.207295
577.530059	0.207528
577.742039	0.207412
577.954000	0.207214
578.165942	0.207900
578.377867	0.208160
578.589773	0.208626
578.801661	0.209040
579.013531	0.209377
579.225382	0.209331
579.437216	0.209701
579.649031	0.209891
579.860828	0.210339
580.072606	0.210578
580.284367	0.210928
580.496109	0.211110
580.707833	0.211279
580.919539	0.211428
581.131227	0.211800
581.342896	0.211866
581.554547	0.211722
581.766180	0.211684
581.977795	0.211420
582.189391	0.211015
582.400969	0.211101
582.612529	0.211278
582.824071	0.210890
583.035595	0.210750
583.247100	0.210740
583.458587	0.211069
583.670056	0.211275
583.881506	0.211318
584.092939	0.212077
584.304353	0.211904
584.515749	0.211706
584.727127	0.211990
584.938486	0.212258
585.149828	0.212782
585.361151	0.212966
585.572456	0.212924
585.783742	0.213163
585.995011	0.213011
586.206261	0.213245
586.417493	0.213805
586.628706	0.214636
586.839902	0.214727
587.051079	0.214556
587.262238	0.214413
587.473379	0.214902
587.684502	0.214813
587.895606	0.215046
588.106692	0.214849
588.317760	0.214679
588.528810	0.214583
588.739841	0.214329
588.950855	0.214654
589.161850	0.214857
589.372827	0.214811
589.583785	0.215265
589.794726	0.215239
590.005648	0.215768
590.216552	0.215979
590.427437	0.216059
590.638305	0.216478
590.849154	0.216425
591.059985	0.216769
591.270798	0.217193
591.481592	0.217144
591.692369	0.217837
591.903127	0.217947
592.113867	0.218376
592.324588	0.218187
592.535292	0.218600
592.745977	0.218680
592.956644	0.218925
593.167293	0.218970
593.377923	0.219228
593.588536	0.218845
593.799130	0.219069
594.009706	0.218843
594.220263	0.219089
594.430803	0.218959
594.641324	0.219547
594.851827	0.219493
595.062312	0.219331
595.272778	0.219369
595.483227	0.219493
595.693657	0.219477
595.904069	0.219699
596.114462	0.219646
596.324838	0.220057
596.535195	0.220048
596.745534	0.220174
596.955855	0.220524
597.166157	0.220840
597.376441	0.221121
597.586707	0.221256
597.796955	0.221455
598.007185	0.221840
598.217396	0.221897
598.427589	0.221794
598.637764	0.222252
598.847921	0.222445
599.058060	0.222733
599.268180	0.223007
599.478282	0.223484
599.688366	0.223649
599.898431	0.223568
600.108479	0.223713
600.318508	0.224197
600.528519	0.223976
600.738511	0.224180
600.948486	0.223962
601.158442	0.224108
601.368380	0.224283
601.578300	0.224509
601.788202	0.224765
601.998085	0.225025
602.207950	0.224865
602.417797	0.224948
602.627626	0.225031
602.837436	0.225158
603.047228	0.225137
603.257002	0.224941
603.466758	0.225035
603.676496	0.225135
603.886215	0.225521
604.095916	0.225698
604.305599	0.225937
604.515264	0.226044
604.724910	0.226243
604.934538	0.226134
605.144148	0.226063
605.353740	0.226295
605.563314	0.226524
605.772869	0.226694
605.982406	0.226909
606.191925	0.227070
606.401425	0.227430
606.610908	0.227604
606.820372	0.227875
607.029818	0.228372
607.239246	0.228347
607.448655	0.228543
607.658047	0.227961
607.867420	0.227739
608.076775	0.228036
608.286111	0.227763
608.495430	0.228056
608.704730	0.228144
608.914012	0.228221
609.123275	0.228711
609.332521	0.228502
609.541748	0.229278
609.750957	0.229937
609.960148	0.229622
610.169321	0.230069
610.378475	0.230027
610.587611	0.230021
610.796729	0.230132
611.005829	0.229774
611.214910	0.230112
611.423974	0.229909
611.633019	0.229943
611.842045	0.230480
612.051054	0.230424
612.260044	0.230832
612.469017	0.231359
612.677970	0.231499
612.886906	0.231961
613.095824	0.231981
613.304723	0.232283
613.513604	0.232589
613.722467	0.232690
613.931311	0.232943
614.140138	0.232835
614.348946	0.232564
614.557736	0.232580
614.766507	0.232612
614.975261	0.232600
615.183996	0.232570
615.392713	0.231919
615.601412	0.231803
615.810092	0.231652
616.018754	0.231831
616.227399	0.231962
616.436024	0.231837
616.644632	0.231499
616.853222	0.231679
617.061793	0.231520
617.270346	0.231959
617.478880	0.232061
617.687397	0.232093
617.895895	0.232027
618.104375	0.232411
618.312837	0.232483
618.521281	0.232924
618.729706	0.233047
618.938113	0.233509
619.146502	0.233532
619.354873	0.233523
619.563226	0.233712
619.771560	0.233822
619.979876	0.233465
620.188174	0.233622
620.396453	0.233337
620.604715	0.233606
620.812958	0.233577
621.021183	0.233923
621.229390	0.234191
621.437578	0.234313
621.645748	0.234622
621.853900	0.235171
622.062034	0.235390
622.270150	0.235718
622.478247	0.235679
622.686326	0.235743
622.894387	0.235801
623.102430	0.235917
623.310454	0.236095
623.518461	0.236197
623.726449	0.236169
623.934418	0.236272
624.142370	0.236421
624.350303	0.236342
624.558218	0.236616
624.766115	0.236633
624.973994	0.236902
625.181855	0.237019
625.389697	0.236847
625.597521	0.237241
625.805327	0.237641
626.013114	0.238149
626.220883	0.238642
626.428634	0.238750
626.636367	0.239220
626.844082	0.239329
627.051778	0.239659
627.259457	0.239855
627.467117	0.239917
627.674758	0.240005
627.882382	0.240032
628.089987	0.240222
628.297574	0.240458
628.505143	0.240472
628.712694	0.240611
628.920226	0.240917
629.127740	0.241223
629.335236	0.241348
629.542714	0.241641
629.750174	0.241813
629.957615	0.241927
630.165038	0.242052
630.372443	0.242141
630.579829	0.242204
630.787198	0.241960
630.994548	0.241797
631.201880	0.241942
631.409194	0.241887
631.616489	0.241527
631.823766	0.241592
632.031025	0.241699
632.238266	0.241591
632.445489	0.241828
632.652693	0.242083
632.859879	0.242345
633.067047	0.242235
633.274197	0.242174
633.481329	0.242655
633.688442	0.242773
633.895537	0.242835
634.102614	0.243106
634.309672	0.243479
634.516713	0.243653
634.723735	0.244291
634.930739	0.244671
635.137724	0.244945
635.344692	0.245099
635.551641	0.245282
635.758572	0.245307
635.965485	0.245787
636.172379	0.245914
636.379256	0.246376
636.586114	0.246422
636.792954	0.246298
636.999775	0.246543
637.206579	0.246474
637.413364	0.246545
637.620131	0.246729
637.826880	0.246783
638.033610	0.246576
638.240323	0.246338
638.447017	0.246202
638.653692	0.246561
638.860350	0.246408
639.066990	0.246525
639.273611	0.246824
639.480214	0.247088
639.686798	0.247378
639.893365	0.247606
640.099913	0.247725
640.306443	0.247532
640.512955	0.247856
640.719449	0.248320
640.925924	0.248818
641.132381	0.248863
641.338820	0.248969
641.545241	0.248888
641.751644	0.249076
641.958028	0.249274
642.164394	0.249884
642.370742	0.249685
642.577071	0.249598
642.783383	0.249632
642.989676	0.249732
643.195951	0.249850
643.402207	0.250005
643.608446	0.250168
643.814666	0.250316
644.020868	0.250366
644.227052	0.250506
644.433218	0.250661
644.639365	0.250687
644.845494	0.250937
645.051605	0.251032
645.257698	0.251110
645.463772	0.251118
645.669828	0.251511
645.875866	0.251622
646.081886	0.251909
646.287888	0.252128
646.493871	0.252369
646.699836	0.252571
646.905783	0.252700
647.111712	0.253165
647.317622	0.253277
647.523514	0.253201
647.729388	0.253478
647.935244	0.253416
648.141082	0.253552
648.346901	0.253765
648.552702	0.253813
648.758485	0.253940
648.964250	0.253919
649.169996	0.254133
649.375724	0.254360
649.581434	0.254384
649.787126	0.254852
649.992800	0.254963
650.198455	0.254858
650.404092	0.254975
650.609711	0.255310
650.815311	0.255242
651.020894	0.255557
651.226458	0.255554
651.432004	0.255749
651.637532	0.255860
651.843041	0.256218
652.048532	0.256553
652.254006	0.256661
652.459460	0.256690
652.664897	0.256983
652.870315	0.256976
653.075716	0.256901
653.281097	0.257088
653.486461	0.257147
653.691807	0.257541
653.897134	0.257775
654.102443	0.257926
654.307734	0.258130
654.513006	0.258284
654.718261	0.258707
654.923497	0.259368
655.128715	0.259727
655.333915	0.260284
655.539096	0.260156
655.744259	0.260442
655.949404	0.261022
656.154531	0.260990
656.359640	0.261235
656.564730	0.261383
656.769802	0.261362
656.974856	0.261268
657.179892	0.261010
657.384909	0.261096
657.589908	0.261106
657.794889	0.260929
657.999852	0.261250
658.204797	0.261356
658.409723	0.261283
658.614631	0.261520
658.819521	0.261828
659.024393	0.262017
659.229246	0.262160
659.434081	0.262426
659.638898	0.262594
659.843697	0.262666
660.048478	0.262778
660.253240	0.262943
660.457984	0.263129
660.662710	0.263192
660.867417	0.263434
661.072107	0.263706
661.276778	0.263672
661.481431	0.264119
661.686066	0.264458
661.890682	0.264628
662.095281	0.265350
662.299861	0.265611
662.504422	0.266078
662.708966	0.266366
662.913491	0.266492
663.117999	0.267112
663.322488	0.267191
663.526958	0.267354
663.731411	0.267675
663.935845	0.267612
664.140261	0.267590
664.344659	0.267721
664.549038	0.267776
664.753400	0.268241
664.957743	0.268218
665.162068	0.268533
665.366375	0.268797
665.570663	0.269124
665.774933	0.269247
665.979185	0.269838
666.183419	0.269878
666.387635	0.270176
666.591832	0.270222
666.796011	0.270438
667.000172	0.270573
667.204315	0.270901
667.408439	0.270690
667.612545	0.270777
667.816634	0.270690
668.020703	0.271004
668.224755	0.271141
668.428788	0.271394
668.632803	0.271643
668.836800	0.271716
669.040779	0.271759
669.244739	0.272300
669.448681	0.272627
669.652605	0.272908
669.856511	0.272972
670.060399	0.273199
670.264268	0.273329
670.468119	0.273590
670.671952	0.273680
670.875767	0.273778
671.079563	0.273877
671.283341	0.273872
671.487101	0.274040
671.690843	0.274225
671.894567	0.274228
672.098272	0.274520
672.301959	0.274450
672.505628	0.274788
672.709278	0.274957
672.912911	0.275069
673.116525	0.275343
673.320121	0.275500
673.523699	0.275405
673.727258	0.275960
673.930799	0.275914
674.134322	0.276301
674.337827	0.276438
674.541314	0.276614
674.744782	0.276745
674.948232	0.276797
675.151664	0.276748
675.355078	0.277285
675.558474	0.277283
675.761851	0.277410
675.965210	0.277276
676.168551	0.277438
676.371873	0.277822
676.575178	0.278040
676.778464	0.278258
676.981732	0.278840
677.184981	0.278992
677.388213	0.279271
677.591426	0.279736
677.794621	0.279964
677.997798	0.280205
678.200956	0.280414
678.404097	0.280855
678.607219	0.281152
678.810323	0.280911
679.013408	0.281015
679.216476	0.281290
679.419525	0.281392
679.622556	0.281704
679.825569	0.281684
680.028563	0.281482
680.231540	0.281522
680.434498	0.281588
680.637438	0.281918
680.840359	0.282161
681.043263	0.282364
681.246148	0.282510
681.449015	0.282750
681.651864	0.283037
681.854694	0.283450
682.057506	0.283609
682.260301	0.283936
682.463076	0.284284
682.665834	0.284619
682.868573	0.284619
683.071295	0.284910
683.273998	0.284946
683.476682	0.285250
683.679349	0.285675
683.881997	0.285700
684.084627	0.285898
684.287239	0.286074
684.489833	0.286155
684.692408	0.286154
684.894965	0.286004
685.097504	0.286216
685.300025	0.286245
685.502527	0.286196
685.705012	0.286469
685.907478	0.286637
686.109925	0.286857
686.312355	0.286838
686.514766	0.287425
686.717159	0.287821
686.919534	0.287882
687.121891	0.288015
687.324230	0.288206
687.526550	0.288238
687.728852	0.288169
687.931136	0.288048
688.133401	0.288196
688.335649	0.288012
688.537878	0.287950
688.740089	0.288243
688.942281	0.288334
689.144456	0.288337
689.346612	0.288629
689.548750	0.288912
689.750870	0.289205
689.952971	0.289281
690.155055	0.289498
690.357120	0.289897
690.559167	0.289844
690.761195	0.290044
690.963206	0.290551
691.165198	0.290541
691.367172	0.290537
691.569128	0.290488
691.771065	0.290838
691.972984	0.290888
692.174885	0.291106
692.376768	0.291342
692.578633	0.291397
692.780479	0.291446
692.982308	0.291581
693.184118	0.291965
693.385909	0.292183
693.587683	0.292370
693.789438	0.292759
693.991175	0.292667
694.192894	0.293018
694.394595	0.293463
694.596277	0.293340
694.797941	0.293531
694.999587	0.293593
695.201215	0.293789
695.402824	0.293797
695.604416	0.293786
695.805989	0.293973
696.007543	0.293720
696.209080	0.293743
696.410598	0.293965
696.612099	0.294001
696.813580	0.294072
697.015044	0.294159
697.216490	0.294211
697.417917	0.294389
697.619326	0.294637
697.820717	0.294813
698.022089	0.294972
698.223444	0.295069
698.424780	0.295508
698.626098	0.295824
698.827397	0.296025
699.028679	0.295967
699.229942	0.295757
699.431187	0.295562
699.632414	0.295689
699.833622	0.295529
700.034813	0.295454
700.235985	0.294860
700.437139	0.295076
700.638274	0.295291
700.839392	0.295555
701.040491	0.295935
701.241572	0.296298
701.442635	0.296435
701.643679	0.296627
701.844706	0.296926
702.045714	0.297184
702.246704	0.297245
702.447675	0.297424
702.648629	0.297670
702.849564	0.297764
703.050481	0.298028
703.251380	0.298168
703.452260	0.298526
703.653122	0.298361
703.853966	0.299000
704.054792	0.298727
704.255600	0.298435
704.456389	0.298637
704.657160	0.298617
704.857913	0.298334
705.058648	0.298380
705.259365	0.298185
705.460063	0.298588
705.660743	0.298510
705.861405	0.298455
706.062048	0.298533
706.262674	0.298226
706.463281	0.298270
706.663870	0.298521
706.864441	0.298505
707.064993	0.298829
707.265527	0.298685
707.466043	0.298760
707.666541	0.298980
707.867021	0.299166
708.067482	0.299341
708.267925	0.299486
708.468350	0.299528
708.668757	0.299842
708.869145	0.299739
709.069516	0.299759
709.269868	0.299724
709.470201	0.299603
709.670517	0.299671
709.870814	0.299715
710.071093	0.299409
710.271354	0.299470
710.471597	0.299212
710.671821	0.299145
710.872028	0.299055
711.072216	0.299255
711.272385	0.299331
711.472537	0.299013
711.672670	0.298856
711.872785	0.299037
712.072882	0.298877
712.272961	0.299064
712.473021	0.298631
712.673063	0.298727
712.873087	0.298262
713.073093	0.297988
713.273081	0.298179
713.473050	0.298186
713.673001	0.298069
713.872934	0.297930
714.072849	0.297755
714.272745	0.297916
714.472623	0.297764
714.672483	0.297915
714.872325	0.297866
715.072148	0.297671
715.271954	0.297783
715.471741	0.297879
715.671509	0.297671
715.871260	0.297514
716.070992	0.297701
716.270707	0.297542
716.470403	0.297529
716.670080	0.297732
716.869740	0.297761
717.069381	0.297687
717.269004	0.297774
717.468609	0.297737
717.668195	0.297837
717.867764	0.297630
718.067314	0.297735
718.266846	0.297486
718.466360	0.297365
718.665855	0.297331
718.865332	0.297013
719.064791	0.296858
719.264232	0.296728
719.463655	0.296583
719.663059	0.296537
719.862445	0.296387
720.061813	0.296420
720.261163	0.296250
720.460494	0.295940
720.659807	0.295912
720.859102	0.295603
721.058379	0.295812
721.257638	0.295753
721.456878	0.295624
721.656100	0.295749
721.855304	0.295720
722.054490	0.295970
722.253657	0.295938
722.452806	0.296146
722.651937	0.296047
722.851050	0.296002
723.050145	0.296143
723.249221	0.296173
723.448279	0.295993
723.647319	0.295929
723.846340	0.295570
724.045344	0.295596
724.244329	0.295409
724.443296	0.295579
724.642245	0.295460
724.841175	0.295051
725.040088	0.294802
725.238982	0.294649
725.437857	0.294536
725.636715	0.294484
725.835554	0.294262
726.034376	0.293867
726.233179	0.293708
726.431963	0.293696
726.630730	0.293517
726.829478	0.293588
727.028208	0.293641
727.226920	0.293420
727.425614	0.293295
727.624289	0.293286
727.822946	0.293301
728.021585	0.293213
728.220206	0.292945
728.418808	0.292843
728.617392	0.292352
728.815958	0.292058
729.014506	0.292023
729.213036	0.291708
729.411547	0.291464
729.610040	0.291319
729.808515	0.290971
730.006972	0.290816
730.205410	0.290881
730.403831	0.291072
730.602233	0.291110
730.800616	0.290927
730.998982	0.291147
731.197329	0.291213
731.395658	0.291143
731.593969	0.291077
731.792262	0.290981
731.990536	0.290756
732.188793	0.290724
732.387031	0.290440
732.585250	0.290354
732.783452	0.290051
732.981635	0.289739
733.179800	0.289433
733.377947	0.289223
733.576076	0.289092
733.774186	0.288777
733.972278	0.288495
734.170352	0.288340
734.368408	0.287792
734.566446	0.287456
734.764465	0.287504
734.962466	0.287568
735.160449	0.287265
735.358413	0.287059
735.556360	0.286893
735.754288	0.286673
735.952198	0.286530
736.150090	0.286553
736.347963	0.286629
736.545818	0.286330
736.743655	0.286338
736.941474	0.286509
737.139275	0.286492
737.337057	0.286438
737.534821	0.286401
737.732567	0.286203
737.930295	0.286081
738.128005	0.285898
738.325696	0.285799
738.523369	0.285373
738.721024	0.285063
738.918660	0.284677
739.116279	0.284665
739.313879	0.284444
739.511461	0.284223
739.709024	0.284313
739.906570	0.284024
740.104097	0.283939
740.301606	0.283810
740.499097	0.283676
740.696569	0.283547
740.894024	0.283354
741.091460	0.283421
741.288878	0.283315
741.486277	0.282927
741.683659	0.282737
741.881022	0.282359
742.078367	0.282164
742.275694	0.281904
742.473002	0.281570
742.670293	0.281193
742.867565	0.280691
743.064819	0.280530
743.262054	0.280306
743.459272	0.279996
743.656471	0.279952
743.853652	0.279693
744.050815	0.279500
744.247959	0.279458
744.445085	0.279162
744.642194	0.279038
744.839283	0.278789
745.036355	0.278586
745.233408	0.278663
745.430444	0.278332
745.627461	0.278072
745.824459	0.278065
746.021440	0.277776
746.218402	0.277697
746.415346	0.277675
746.612272	0.277582
746.809180	0.277202
747.006069	0.276822
747.202940	0.276693
747.399793	0.276472
747.596628	0.276126
747.793444	0.275951
747.990243	0.275815
748.187023	0.275124
748.383784	0.274914
748.580528	0.274849
748.777253	0.274753
748.973960	0.274422
749.170649	0.274248
749.367320	0.274235
749.563973	0.274035
749.760607	0.273878
749.957223	0.274205
750.153821	0.273997
750.350400	0.274027
750.546962	0.274056
750.743505	0.274142
750.940030	0.274366
751.136536	0.274178
751.333025	0.274411
751.529495	0.274083
751.725947	0.273936
751.922381	0.273805
752.118796	0.273810
752.315194	0.273712
752.511573	0.273590
752.707934	0.273191
752.904276	0.272771
753.100601	0.272392
753.296907	0.272394
753.493195	0.271999
753.689465	0.271799
753.885716	0.271451
754.081949	0.271313
754.278164	0.270984
754.474361	0.270844
754.670540	0.270829
754.866700	0.270934
755.062843	0.270985
755.258967	0.271020
755.455072	0.270850
755.651160	0.270603
755.847229	0.270263
756.043280	0.270301
756.239313	0.270115
756.435328	0.269776
756.631324	0.269219
756.827302	0.268705
757.023262	0.268593
757.219204	0.268442
757.415127	0.268434
757.611033	0.268174
757.806920	0.267790
758.002788	0.267711
758.198639	0.267772
758.394471	0.267559
758.590286	0.267629
758.786081	0.267289
758.981859	0.267255
759.177619	0.266853
759.373360	0.266780
759.569083	0.266764
759.764788	0.266612
759.960474	0.266445
760.156143	0.266421
760.351793	0.266416
760.547425	0.266366
760.743038	0.266174
760.938634	0.266269
761.134211	0.266169
761.329770	0.266013
761.525311	0.265910
761.720833	0.265655
761.916338	0.265624
762.111824	0.265580
762.307292	0.265470
762.502741	0.265576
762.698173	0.265363
762.893586	0.265546
763.088981	0.265450
763.284358	0.265301
763.479716	0.265483
763.675057	0.265526
763.870379	0.265338
764.065683	0.265391
764.260968	0.265123
764.456236	0.265308
764.651485	0.264973
764.846716	0.264927
765.041929	0.264885
765.237123	0.264785
765.432299	0.264624
765.627457	0.264659
765.822597	0.264459
766.017719	0.264393
766.212822	0.264145
766.407907	0.264009
766.602974	0.263881
766.798023	0.263944
766.993054	0.263846
767.188066	0.263734
767.383060	0.263501
767.578036	0.263233
767.772993	0.263083
767.967933	0.263145
768.162854	0.263003
768.357757	0.262986
768.552642	0.262938
768.747508	0.262775
768.942356	0.262611
769.137186	0.262447
769.331998	0.262519
769.526792	0.262537
769.721567	0.262614
769.916324	0.262646
770.111063	0.262556
770.305784	0.262540
770.500486	0.262680
770.695171	0.262526
770.889837	0.262332
771.084484	0.262231
771.279114	0.262130
771.473725	0.261985
771.668318	0.261675
771.862893	0.261849
772.057450	0.261471
772.251988	0.261657
772.446509	0.261945
772.641011	0.262012
772.835494	0.261944
773.029960	0.262079
773.224407	0.261708
773.418836	0.262041
773.613247	0.261690
773.807640	0.261986
774.002014	0.261414
774.196370	0.261084
774.390708	0.261076
774.585028	0.260790
774.779330	0.260429
774.973613	0.260549
775.167878	0.260528
775.362125	0.260713
775.556354	0.260493
775.750564	0.260561
775.944756	0.260441
776.138930	0.260092
776.333086	0.260205
776.527223	0.260223
776.721343	0.260055
776.915444	0.259850
777.109526	0.259500
777.303591	0.259433
777.497637	0.259232
777.691666	0.259224
777.885676	0.259520
778.079667	0.259518
778.273641	0.259495
778.467596	0.259569
778.661533	0.259695
778.855452	0.259652
779.049352	0.259618
779.243235	0.259697
779.437099	0.259845
779.630945	0.259951
779.824773	0.260054
780.018582	0.260306
780.212373	0.260157
780.406146	0.260060
780.599901	0.260147
780.793638	0.260086
780.987356	0.260007
781.181056	0.259905
781.374738	0.259948
781.568402	0.259904
781.762047	0.259667
781.955674	0.259918
782.149283	0.260010
782.342874	0.260067
782.536447	0.260399
782.730001	0.260827
782.923537	0.261116
783.117055	0.260992
783.310555	0.261249
783.504036	0.261505
783.697499	0.261628
783.890944	0.261721
784.084371	0.262173
784.277780	0.262006
784.471170	0.261719
784.664542	0.261697
784.857896	0.261899
785.051231	0.261598
785.244549	0.261811
785.437848	0.261603
785.631129	0.261564
785.824392	0.261268
786.017636	0.261312
786.210863	0.261282
786.404071	0.261109
786.597260	0.261093
786.790432	0.261518
786.983585	0.261490
787.176721	0.261730
787.369838	0.261770
787.562936	0.262034
787.756017	0.262332
787.949079	0.262739
788.142123	0.263000
788.335149	0.263182
788.528156	0.263345
788.721146	0.263453
788.914117	0.263639
789.107070	0.263713
789.300005	0.263656
789.492921	0.263757
789.685819	0.263964
789.878699	0.264065
790.071561	0.264148
790.264405	0.264252
790.457230	0.264376
790.650037	0.264482
790.842826	0.264658
791.035597	0.264788
791.228349	0.264672
791.421084	0.264544
791.613800	0.264744
791.806497	0.264705
791.999177	0.264658
792.191838	0.264597
792.384481	0.264759
792.577106	0.264840
792.769713	0.264990
792.962301	0.265184
793.154871	0.265708
793.347423	0.265986
793.539957	0.266215
793.732473	0.266394
793.924970	0.266408
794.117449	0.266579
794.309910	0.266883
794.502353	0.267176
794.694777	0.267369
794.887183	0.267245
795.079571	0.267162
795.271941	0.267441
795.464293	0.267447
795.656626	0.267794
795.848941	0.267936
796.041238	0.268204
796.233516	0.268215
796.425777	0.268358
796.618019	0.268675
796.810243	0.269028
797.002449	0.269203
797.194636	0.269500
797.386805	0.269727
797.578956	0.269909
797.771089	0.270142
797.963204	0.270418
798.155300	0.270935
798.347378	0.271185
798.539438	0.271334
798.731480	0.271512
798.923503	0.271885
799.115509	0.272026
799.307496	0.272145
799.499465	0.272080
799.691415	0.272333
799.883348	0.272580
800.075262	0.272431
800.267158	0.272733
800.459035	0.273092
800.650895	0.273105
800.842736	0.273189
801.034559	0.273430
801.226364	0.273472
801.418150	0.273668
801.609919	0.273524
801.801669	0.273857
801.993401	0.274051
802.185114	0.274056
802.376810	0.274392
802.568487	0.274628
802.760146	0.274654
802.951787	0.274953
803.143409	0.275229
803.335014	0.275395
803.526600	0.275391
803.718168	0.275545
803.909717	0.275648
804.101249	0.275733
804.292762	0.276232
804.484257	0.276499
804.675734	0.276670
804.867192	0.276601
805.058632	0.276993
805.250054	0.277392
805.441458	0.277567
805.632844	0.277913
805.824211	0.278129
806.015561	0.278318
806.206891	0.278733
806.398204	0.279237
806.589499	0.279808
806.780775	0.279757
806.972033	0.280124
807.163273	0.280352
807.354495	0.280427
807.545698	0.280663
807.736883	0.280746
807.928050	0.281081
808.119199	0.281345
808.310329	0.281559
808.501441	0.281905
808.692535	0.282081
808.883611	0.282264
809.074669	0.282826
809.265708	0.283483
809.456729	0.284029
809.647732	0.284087
809.838717	0.284514
810.029683	0.284671
810.220632	0.285326
810.411562	0.285910
810.602474	0.286484
810.793367	0.286741
810.984242	0.286727
811.175100	0.286840
811.365938	0.287025
811.556759	0.287165
811.747562	0.287615
811.938346	0.287747
812.129112	0.287797
812.319860	0.287850
812.510589	0.288113
812.701300	0.288499
812.891994	0.289087
813.082668	0.289607
813.273325	0.289816
813.463964	0.290061
813.654584	0.290364
813.845186	0.290801
814.035769	0.291285
814.226335	0.291624
814.416882	0.292006
814.607411	0.292083
814.797922	0.292423
814.988415	0.292897
815.178889	0.293138
815.369345	0.293608
815.559783	0.293952
815.750203	0.294436
815.940605	0.294876
816.130988	0.295214
816.321353	0.295715
816.511700	0.296133
816.702028	0.296481
816.892339	0.297071
817.082631	0.297362
817.272905	0.297613
817.463161	0.297674
817.653398	0.297975
817.843617	0.298266
818.033819	0.298337
818.224001	0.298857
818.414166	0.299216
818.604312	0.299395
818.794440	0.299555
818.984550	0.300006
819.174642	0.300456
819.364716	0.300529
819.554771	0.301045
819.744808	0.301264
819.934827	0.301279
820.124827	0.301595
820.314810	0.302046
820.504774	0.302230
820.694720	0.302532
820.884647	0.302915
821.074557	0.303193
821.264448	0.303500
821.454321	0.304081
821.644176	0.304378
821.834012	0.304849
822.023831	0.304849
822.213631	0.305174
822.403413	0.305498
822.593176	0.305685
822.782922	0.306052
822.972649	0.306341
823.162358	0.306521
823.352049	0.306764
823.541721	0.306918
823.731376	0.307604
823.921012	0.308396
824.110629	0.308665
824.300229	0.309104
824.489811	0.309527
824.679374	0.309604
824.868919	0.310166
825.058445	0.310927
825.247954	0.311117
825.437444	0.311343
825.626916	0.311471
825.816370	0.311824
826.005806	0.312242
826.195223	0.312905
826.384622	0.313449
826.574003	0.313633
826.763366	0.313716
826.952711	0.314310
827.142037	0.314644
827.331345	0.315032
827.520635	0.315185
827.709906	0.315268
827.899160	0.315479
828.088395	0.315930
828.277612	0.316166
828.466810	0.316544
828.655991	0.316680
828.845153	0.317088
829.034297	0.317467
829.223423	0.318105
829.412531	0.318494
829.601620	0.319083
829.790691	0.319432
829.979744	0.320380
830.168779	0.321085
830.357795	0.321853
830.546793	0.322232
830.735773	0.322831
830.924735	0.323364
831.113679	0.324051
831.302604	0.324309
831.491511	0.324595
831.680400	0.324866
831.869271	0.325064
832.058123	0.325256
832.246957	0.325784
832.435773	0.326046
832.624571	0.326082
832.813351	0.326679
833.002112	0.327245
833.190855	0.327922
833.379580	0.328330
833.568287	0.328460
833.756975	0.328806
833.945645	0.329030
834.134297	0.329358
834.322931	0.330127
834.511547	0.330543
834.700144	0.331116
834.888723	0.331432
835.077284	0.332015
835.265826	0.332940
835.454351	0.333792
835.642857	0.334450
835.831345	0.335194
836.019815	0.335422
836.208266	0.336006
836.396699	0.336423
836.585114	0.336988
836.773511	0.337418
836.961890	0.337976
837.150250	0.338322
837.338592	0.338796
837.526916	0.339211
837.715222	0.339834
837.903510	0.340299
838.091779	0.340562
838.280030	0.340988
838.468263	0.341246
838.656477	0.341824
838.844674	0.342191
839.032852	0.343001
839.221012	0.343549
839.409153	0.344198
839.597277	0.344646
839.785382	0.345241
839.973469	0.345481
840.161538	0.346073
840.349589	0.346485
840.537621	0.347102
840.725635	0.347276
840.913631	0.348106
841.101609	0.348719
841.289568	0.349156
841.477509	0.349738
841.665432	0.350637
841.853337	0.351238
842.041224	0.351889
842.229092	0.352572
842.416942	0.353483
842.604774	0.353659
842.792588	0.353973
842.980383	0.354153
843.168160	0.354636
843.355919	0.355081
843.543660	0.355384
843.731382	0.355353
843.919087	0.355465
844.106773	0.355617
844.294441	0.356299
844.482090	0.356977
844.669722	0.357854
844.857335	0.358338
845.044930	0.358881
845.232507	0.359320
845.420065	0.360257
845.607605	0.360883
845.795127	0.361481
845.982631	0.361544
846.170117	0.361815
846.357584	0.361815
846.545033	0.361890
846.732464	0.362197
846.919877	0.362806
847.107272	0.362941
847.294648	0.363432
847.482006	0.363623
847.669346	0.364039
847.856667	0.364799
848.043971	0.365644
848.231256	0.366294
848.418523	0.366742
848.605771	0.366791
848.793002	0.367360
848.980214	0.367806
849.167408	0.368701
849.354584	0.369259
849.541742	0.369453
849.728881	0.369902
849.916002	0.370780
850.103105	0.371088
850.290190	0.371739
850.477256	0.372601
850.664304	0.373023
850.851334	0.373206
851.038346	0.373723
851.225340	0.374189
851.412315	0.374363
851.599272	0.374602
851.786211	0.375071
851.973132	0.375620
852.160034	0.375291
852.346918	0.375544
852.533784	0.375878
852.720632	0.376543
852.907462	0.376855
853.094273	0.377650
853.281066	0.377849
853.467841	0.378085
853.654598	0.378671
853.841336	0.379212
854.028056	0.379801
854.214758	0.380097
854.401442	0.380290
854.588107	0.380857
854.774755	0.381368
854.961384	0.382038
855.147995	0.382399
855.334587	0.382599
855.521162	0.382815
855.707718	0.383404
855.894256	0.384277
856.080775	0.384936
856.267277	0.385447
856.453760	0.385909
856.640225	0.386375
856.826672	0.387066
857.013101	0.387819
857.199511	0.388458
857.385903	0.388851
857.572277	0.388799
857.758633	0.389028
857.944970	0.389578
858.131290	0.390021
858.317591	0.390544
858.503873	0.391389
858.690138	0.391411
858.876384	0.391953
859.062612	0.392336
859.248822	0.393094
859.435014	0.393695
859.621188	0.393777
859.807343	0.393994
859.993480	0.394021
860.179599	0.394365
860.365699	0.395223
860.551781	0.395708
860.737846	0.396259
860.923891	0.396472
861.109919	0.396541
861.295929	0.397062
861.481920	0.397235
861.667893	0.397901
861.853848	0.398043
862.039784	0.398448
862.225702	0.399081
862.411603	0.399495
862.597484	0.400165
862.783348	0.400844
862.969193	0.401168
863.155021	0.401975
863.340830	0.402259
863.526620	0.402863
863.712393	0.403319
863.898147	0.403373
864.083883	0.403948
864.269601	0.404350
864.455301	0.404722
864.640982	0.405206
864.826645	0.405103
865.012290	0.405746
865.197917	0.406154
865.383526	0.406255
865.569116	0.406732
865.754688	0.406586
865.940242	0.406933
866.125777	0.406886
866.311295	0.407249
866.496794	0.407685
866.682275	0.407830
866.867737	0.407958
867.053182	0.408463
867.238608	0.409100
867.424016	0.409718
867.609406	0.409730
867.794778	0.410671
867.980131	0.411558
868.165466	0.412407
868.350783	0.412671
868.536082	0.412896
868.721362	0.412866
868.906625	0.412814
869.091869	0.413183
869.277094	0.413427
869.462302	0.413432
869.647491	0.413351
869.832662	0.413101
870.017815	0.413405
870.202950	0.413890
870.388066	0.414652
870.573165	0.415389
870.758245	0.415775
870.943306	0.416482
871.128350	0.417031
871.313375	0.417266
871.498382	0.417381
871.683371	0.417691
871.868342	0.417798
872.053294	0.417686
872.238229	0.417581
872.423144	0.417765
872.608042	0.417854
872.792922	0.417839
872.977783	0.417732
873.162626	0.418536
873.347451	0.418604
873.532258	0.419301
873.717046	0.419869
873.901816	0.419922
874.086568	0.420055
874.271302	0.419858
874.456017	0.419806
874.640715	0.420521
874.825394	0.420640
875.010055	0.421242
875.194697	0.421174
875.379322	0.421611
875.563928	0.422528
875.748516	0.422800
875.933085	0.423345
876.117637	0.423716
876.302170	0.423703
876.486685	0.423684
876.671182	0.423592
876.855661	0.424051
877.040121	0.423633
877.224563	0.423528
877.408987	0.423601
877.593393	0.424074
877.777780	0.424149
877.962150	0.424096
878.146501	0.423870
878.330833	0.424014
878.515148	0.423811
878.699444	0.424356
878.883722	0.424420
879.067982	0.424591
879.252224	0.424448
879.436447	0.424643
879.620653	0.425386
879.804840	0.426201
879.989008	0.426307
880.173159	0.426324
880.357291	0.426345
880.541405	0.426500
880.725501	0.426750
880.909579	0.427274
881.093638	0.427689
881.277680	0.427609
881.461703	0.427931
881.645707	0.428771
881.829694	0.429340
882.013662	0.430158
882.197612	0.430550
882.381544	0.430828
882.565458	0.430423
882.749353	0.430698
882.933230	0.430902
883.117089	0.431156
883.300930	0.431191
883.484753	0.430835
883.668557	0.430592
883.852343	0.430693
884.036111	0.430576
884.219861	0.431408
884.403592	0.431160
884.587305	0.431519
884.771000	0.431588
884.954677	0.431743
885.138335	0.432417
885.321976	0.432389
885.505598	0.432434
885.689201	0.432908
885.872787	0.432822
886.056354	0.433626
886.239904	0.433182
886.423434	0.433454
886.606947	0.433004
886.790442	0.433136
886.973918	0.432701
887.157376	0.432260
887.340816	0.431716
887.524237	0.431222
887.707641	0.430602
887.891026	0.430777
888.074393	0.429855
888.257741	0.430303
888.441072	0.429809
888.624384	0.429626
888.807678	0.430178
888.990954	0.430294
889.174211	0.430264
889.357451	0.430466
889.540672	0.430147
889.723875	0.430305
889.907059	0.430386
890.090226	0.430896
890.273374	0.431544
890.456504	0.431481
890.639616	0.431524
890.822709	0.431854
891.005785	0.431652
891.188842	0.431359
891.371881	0.431465
891.554901	0.431107
891.737904	0.430486
891.920888	0.430500
892.103854	0.430873
892.286802	0.430717
892.469731	0.430714
892.652643	0.430770
892.835536	0.430988
893.018410	0.431562
893.201267	0.431832
893.384106	0.431478
893.566926	0.431200
893.749728	0.430377
893.932511	0.430644
894.115277	0.430710
894.298024	0.430203
894.480753	0.430262
894.663464	0.429726
894.846157	0.429228
895.028831	0.429369
895.211487	0.428887
895.394125	0.429168
895.576745	0.428457
895.759346	0.428317
895.941930	0.428196
896.124495	0.428278
896.307041	0.427971
896.489570	0.427607
896.672080	0.428017
896.854573	0.427849
897.037046	0.427508
897.219502	0.427386
897.401940	0.427010
897.584359	0.427565
897.766760	0.427524
897.949143	0.427502
898.131507	0.426764
898.313854	0.425614
898.496182	0.425742
898.678492	0.425558
898.860783	0.425811
899.043057	0.425126
899.225312	0.424490
899.407549	0.423776
899.589768	0.423281
899.771968	0.423524
899.954151	0.424013
900.136315	0.423702
900.318461	0.423114
900.500588	0.422856
900.682698	0.423122
900.864789	0.422449
901.046862	0.422188
901.228917	0.421672
901.410953	0.421417
901.592971	0.420942
901.774972	0.420518
901.956953	0.420008
902.138917	0.419321
902.320862	0.418733
902.502790	0.418465
902.684699	0.418448
902.866589	0.418022
903.048462	0.417381
903.230316	0.417083
903.412152	0.416521
903.593970	0.416992
903.775770	0.416551
903.957551	0.416195
904.139314	0.416213
904.321059	0.416160
904.502786	0.416092
904.684494	0.416367
904.866185	0.416053
905.047857	0.416306
905.229510	0.415312
905.411146	0.415090
905.592763	0.414896
905.774363	0.414697
905.955943	0.413873
906.137506	0.413577
906.319051	0.412488
906.500577	0.411501
906.682085	0.410528
906.863575	0.410339
907.045046	0.410336
907.226500	0.409901
907.407935	0.409455
907.589352	0.408616
907.770750	0.408064
907.952131	0.407900
908.133493	0.407441
908.314837	0.407081
908.496163	0.406885
908.677470	0.405680
908.858760	0.405361
909.040031	0.404719
909.221284	0.404186
909.402518	0.403560
909.583735	0.403267
909.764933	0.403450
909.946113	0.403071
910.127275	0.402278
910.308418	0.402367
910.489544	0.401602
910.670651	0.400627
910.851740	0.400293
911.032810	0.400069
911.213863	0.399263
911.394897	0.398838
911.575913	0.397863
911.756911	0.397988
911.937890	0.397259
912.118851	0.396724
912.299794	0.396093
912.480719	0.395350
912.661626	0.394792
912.842514	0.394145
913.023384	0.393185
913.204236	0.392728
913.385070	0.391578
913.565886	0.390980
913.746683	0.390194
913.927462	0.390542
914.108223	0.390302
914.288965	0.389477
914.469690	0.389095
914.650396	0.388652
914.831084	0.388078
915.011754	0.386970
915.192405	0.386441
915.373038	0.385714
915.553653	0.385131
915.734250	0.384254
915.914829	0.383555
916.095389	0.383160
916.275931	0.382636
916.456455	0.382228
916.636961	0.381790
916.817448	0.380561
916.997917	0.380657
917.178368	0.379267
917.358801	0.378798
917.539216	0.377942
917.719612	0.376796
917.899990	0.375886
918.080350	0.374934
918.260692	0.374571
918.441015	0.374235
918.621320	0.372900
918.801607	0.372592
918.981876	0.372013
919.162127	0.371889
919.342359	0.371510
919.522573	0.371253
919.702769	0.370877
919.882947	0.369803
920.063106	0.368955
920.243247	0.368815
920.423370	0.368069
920.603475	0.367192
920.783562	0.365646
920.963630	0.364917
921.143680	0.363938
921.323712	0.363450
921.503725	0.363069
921.683721	0.361995
921.863698	0.360747
922.043657	0.360003
922.223598	0.359090
922.403520	0.358631
922.583424	0.357897
922.763311	0.357386
922.943178	0.355522
923.123028	0.354704
923.302859	0.354539
923.482673	0.353417
923.662467	0.352557
923.842244	0.352266
924.022003	0.351405
924.201743	0.350419
924.381465	0.349133
924.561169	0.348831
924.740854	0.346914
924.920522	0.345542
925.100171	0.345314
925.279802	0.343535
925.459414	0.342234
925.639009	0.341935
925.818585	0.340882
925.998143	0.339826
926.177683	0.339079
926.357205	0.338546
926.536708	0.338654
926.716193	0.337412
926.895660	0.337290
927.075109	0.336700
927.254539	0.335497
927.433951	0.334394
927.613345	0.333139
927.792721	0.333015
927.972079	0.333062
928.151418	0.332336
928.330739	0.331832
928.510042	0.330945
928.689327	0.329500
928.868593	0.328431
929.047841	0.327256
929.227071	0.327142
929.406283	0.325377
929.585476	0.324057
929.764652	0.322143
929.943809	0.320867
930.122948	0.318952
930.302068	0.319001
930.481171	0.317609
930.660255	0.317558
930.839321	0.317085
931.018369	0.315854
931.197398	0.314035
931.376409	0.312983
931.555402	0.311343
931.734377	0.311015
931.913334	0.309856
932.092272	0.308555
932.271192	0.307411
932.450094	0.305117
932.628978	0.304921
932.807844	0.303846
932.986691	0.302866
933.165520	0.302618
933.344331	0.301688
933.523123	0.299712
933.701898	0.299661
933.880654	0.298301
934.059392	0.298366
934.238111	0.297197
934.416813	0.296511
934.595496	0.295432
934.774161	0.293939
934.952808	0.292233
935.131437	0.291165
935.310047	0.290105
935.488639	0.288891
935.667213	0.286765
935.845769	0.285611
936.024306	0.284803
936.202825	0.284222
936.381326	0.283344
936.559809	0.283019
936.738274	0.282127
936.916720	0.280589
937.095148	0.280101
937.273558	0.278231
937.451950	0.277335
937.630323	0.275202
937.808678	0.272898
937.987015	0.272244
938.165334	0.270833
938.343635	0.269717
938.521917	0.269629
938.700181	0.267486
938.878427	0.266844
939.056655	0.265078
939.234864	0.265455
939.413055	0.265204
939.591228	0.264652
939.769383	0.264280
939.947519	0.262849
940.125638	0.259932
940.303738	0.260360
940.481820	0.259754
940.659883	0.258376
940.837929	0.256110
941.015956	0.254199
941.193965	0.251720
941.371955	0.250032
941.549928	0.249715
941.727882	0.248600
941.905818	0.246953
942.083736	0.245408
942.261636	0.243812
942.439517	0.243704
942.617380	0.242945
942.795225	0.241833
942.973052	0.241228
943.150860	0.239466
943.328651	0.239407
943.506423	0.237122
943.684176	0.236367
943.861912	0.235807
944.039629	0.234045
944.217328	0.234365
944.395009	0.232706
944.572672	0.230063
944.750317	0.228273
944.927943	0.226346
945.105551	0.225846
945.283141	0.225032
945.460712	0.223397
945.638265	0.222377
945.815801	0.220899
945.993317	0.220599
946.170816	0.220087
946.348297	0.219931
946.525759	0.219687
946.703203	0.218137
946.880629	0.216752
947.058036	0.216724
947.235425	0.215970
947.412797	0.213851
947.590149	0.212862
947.767484	0.211316
947.944800	0.209937
948.122099	0.207894
948.299379	0.207307
948.476640	0.205742
948.653884	0.202682
948.831109	0.201545
949.008316	0.199907
949.185505	0.198182
949.362676	0.198782
949.539828	0.197200
949.716962	0.196948
949.894078	0.197241
950.071176	0.196701
950.248256	0.196698
950.425317	0.196280
950.602360	0.196636
950.779385	0.195094
950.956391	0.193460
951.133380	0.192028
951.310350	0.191039
951.487302	0.187249
951.664235	0.185217
951.841151	0.185728
952.018048	0.182878
952.194927	0.181519
952.371788	0.181166
952.548631	0.181024
952.725455	0.179388
952.902261	0.177582
953.079049	0.178906
953.255819	0.178731
953.432570	0.176257
953.609303	0.175916
953.786018	0.174697
953.962715	0.173823
954.139394	0.170199
954.316054	0.170980
954.492696	0.171253
954.669320	0.169832
954.845926	0.170084
955.022513	0.169884
955.199083	0.169397
955.375634	0.169488
955.552166	0.168717
955.728681	0.169528
955.905177	0.166667
956.081655	0.164821
956.258115	0.161483
956.434557	0.159051
956.610980	0.157606
956.787385	0.155946
956.963772	0.155342
957.140141	0.151734
957.316492	0.151086
957.492824	0.151990
957.669138	0.151431
957.845434	0.151219
958.021712	0.150184
958.197971	0.148143
958.374212	0.147650
958.550435	0.143388
958.726640	0.145648
958.902826	0.144560
959.078995	0.144594
959.255145	0.143215
959.431277	0.144154
959.607390	0.143955
959.783486	0.144007
959.959563	0.143056
960.135622	0.143724
960.311662	0.142041
960.487685	0.140627
960.663689	0.137153
960.839675	0.138979
961.015643	0.135805
961.191593	0.134706
961.367524	0.135760
961.543437	0.135987
961.719332	0.136392
961.895209	0.137561
962.071067	0.135191
962.246907	0.135483
962.422730	0.133072
962.598533	0.133876
962.774319	0.133684
962.950086	0.133062
963.125835	0.133304
963.301566	0.131811
963.477279	0.129931
963.652973	0.131862
963.828650	0.133158
964.004308	0.133278
964.179947	0.132664
964.355569	0.133965
964.531172	0.132052
964.706757	0.131020
964.882324	0.130386
965.057873	0.130373
965.233403	0.128948
965.408916	0.129993
965.584410	0.127997
965.759885	0.129532
965.935343	0.127228
966.110782	0.125751
966.286203	0.125347
966.461606	0.127304
966.636991	0.125355
966.812357	0.125732
966.987705	0.123793
967.163035	0.124366
967.338347	0.124623
967.513641	0.124158
967.688916	0.124645
967.864173	0.123725
968.039412	0.121318
968.214632	0.122749
968.389835	0.124951
968.565019	0.124025
968.740185	0.125424
968.915333	0.124296
969.090462	0.122868
969.265573	0.123080
969.440667	0.122960
969.615741	0.122809
969.790798	0.122971
969.965836	0.121444
970.140856	0.122427
970.315858	0.121794
970.490842	0.123086
970.665808	0.124304
970.840755	0.123530
971.015684	0.124208
971.190595	0.125637
971.365487	0.126713
971.540362	0.125247
971.715218	0.123235
971.890056	0.122530
972.064875	0.121220
972.239677	0.123595
972.414460	0.125985
972.589225	0.126265
972.763972	0.126099
972.938700	0.123735
973.113411	0.123803
973.288103	0.127995
973.462777	0.129639
973.637432	0.128771
973.812070	0.128108
973.986689	0.128174
974.161290	0.125902
974.335873	0.128019
974.510437	0.129035
974.684984	0.130231
974.859512	0.129949
975.034022	0.128348
975.208513	0.131511
975.382987	0.130543
975.557442	0.131740
975.731879	0.133293
975.906298	0.132045
976.080698	0.133128
976.255080	0.135927
976.429445	0.134814
976.603790	0.135598
976.778118	0.133947
976.952427	0.134443
977.126719	0.131737
977.300992	0.131786
977.475246	0.127387
977.649483	0.124878
977.823701	0.122149
977.997901	0.120361
978.172083	0.118556
978.346247	0.114719
978.520392	0.116221
978.694519	0.116780
978.868628	0.114734
979.042719	0.117440
979.216791	0.120831
979.390845	0.120555
979.564882	0.122079
979.738899	0.123892
979.912899	0.129356
980.086880	0.128341
980.260843	0.128475
980.434788	0.130870
980.608715	0.130869
980.782623	0.127226
980.956514	0.125664
981.130386	0.126416
981.304240	0.125658
981.478075	0.121376
981.651892	0.123129
981.825692	0.123260
981.999472	0.122203
982.173235	0.123648
982.346980	0.125436
982.520706	0.127908
982.694414	0.127458
982.868104	0.128892
983.041775	0.131965
983.215428	0.130488
983.389064	0.130518
983.562680	0.130901
983.736279	0.130747
983.909860	0.132931
984.083422	0.132302
984.256966	0.133299
984.430491	0.131928
984.603999	0.130348
984.777488	0.130365
984.950959	0.129554
985.124412	0.129822
985.297847	0.130517
985.471263	0.126503
985.644661	0.124386
985.818041	0.125629
985.991403	0.125932
986.164747	0.125563
986.338072	0.125403
986.511379	0.125824
986.684668	0.126097
986.857938	0.126016
987.031191	0.126016
987.204425	0.125556
987.377641	0.122751
987.550839	0.122221
987.724018	0.123423
987.897179	0.123050
988.070322	0.124358
988.243447	0.124033
988.416554	0.121896
988.589642	0.123032
988.762712	0.125226
988.935764	0.125141
989.108798	0.123597
989.281813	0.122176
989.454811	0.122078
989.627790	0.121115
989.800751	0.120906
989.973693	0.120344
990.146617	0.121120
990.319524	0.120422
990.492412	0.120565
990.665281	0.122657
990.838133	0.123843
991.010966	0.124899
991.183781	0.125858
991.356578	0.128563
991.529356	0.130934
991.702117	0.129823
991.874859	0.131360
992.047583	0.130739
992.220288	0.130244
992.392976	0.128909
992.565645	0.128020
992.738296	0.126394
992.910929	0.125154
993.083543	0.125605
993.256139	0.125096
993.428718	0.121768
993.601277	0.122177
993.773819	0.123505
993.946342	0.123355
994.118848	0.122819
994.291335	0.122393
994.463803	0.121948
994.636254	0.120233
994.808686	0.122141
994.981100	0.125086
995.153496	0.124375
995.325874	0.122404
995.498233	0.124676
995.670574	0.125862
995.842897	0.127896
996.015202	0.128013
996.187488	0.130240
996.359757	0.130589
996.532007	0.130256
996.704239	0.132673
996.876452	0.135277
997.048648	0.134200
997.220825	0.135678
997.392984	0.136010
997.565124	0.135116
997.737247	0.131676
997.909351	0.130968
998.081437	0.129713
998.253505	0.127848
998.425554	0.126599
998.597586	0.125733
998.769599	0.123191
998.941594	0.121002
999.113571	0.121058
999.285529	0.121467
999.457469	0.121452
999.629391	0.124912
999.801295	0.124609
999.973181	0.124878
1000.145048	0.126531
1000.316897	0.126800
1000.488728	0.126822
1000.660541	0.126266
1000.832335	0.126740
1001.004111	0.126235
1001.175869	0.123746
1001.347609	0.124716
1001.519331	0.122881
1001.691034	0.121976
1001.862719	0.122786
1002.034386	0.123353
1002.206035	0.124329
1002.377665	0.124771
1002.549277	0.124386
1002.720871	0.125235
1002.892447	0.125962
1003.064004	0.127753
1003.235544	0.130388
1003.407065	0.130531
1003.578568	0.131359
1003.750052	0.132485
1003.921519	0.133810
1004.092967	0.134076
1004.264397	0.133306
1004.435809	0.132254
1004.607202	0.132337
1004.778577	0.129330
1004.949934	0.129948
1005.121273	0.128426
1005.292594	0.129578
1005.463896	0.129425
1005.635180	0.130292
1005.806446	0.130262
1005.977694	0.129605
1006.148923	0.128821
1006.320135	0.129406
1006.491328	0.126157
1006.662503	0.128174
1006.833659	0.125911
1007.004798	0.126295
1007.175918	0.127208
1007.347020	0.129373
1007.518103	0.129820
1007.689169	0.130482
1007.860216	0.130259
1008.031245	0.131435
1008.202256	0.131375
1008.373248	0.132995
1008.544223	0.132466
1008.715179	0.130820
1008.886117	0.128249
1009.057036	0.126959
1009.227938	0.127945
1009.398821	0.127031
1009.569686	0.125561
1009.740533	0.124153
1009.911361	0.121946
1010.082172	0.121488
1010.252964	0.118643
1010.423738	0.120605
1010.594493	0.121481
1010.765231	0.120673
1010.935950	0.121511
1011.106651	0.122038
1011.277334	0.122057
1011.447998	0.121925
1011.618645	0.121934
1011.789273	0.122931
1011.959882	0.122188
1012.130474	0.122964
1012.301048	0.124015
1012.471603	0.122906
1012.642140	0.124910
1012.812658	0.125087
1012.983159	0.124421
1013.153641	0.123125
1013.324105	0.125117
1013.494551	0.124344
1013.664979	0.125065
1013.835388	0.124567
1014.005779	0.124895
1014.176152	0.123298
1014.346507	0.123134
1014.516843	0.123986
1014.687162	0.125253
1014.857462	0.125470
1015.027744	0.124826
1015.198007	0.123855
1015.368252	0.123281
1015.538480	0.124695
1015.708689	0.125591
1015.878879	0.124584
1016.049052	0.125880
1016.219206	0.124734
1016.389342	0.125247
1016.559460	0.126514
1016.729559	0.126925
1016.899641	0.127300
1017.069704	0.125075
1017.239749	0.126201
1017.409775	0.127578
1017.579784	0.127443
1017.749774	0.129942
1017.919746	0.128958
1018.089700	0.129738
1018.259635	0.131468
1018.429553	0.128751
1018.599452	0.130296
1018.769333	0.129068
1018.939195	0.127143
1019.109040	0.126437
1019.278866	0.127576
1019.448674	0.127906
1019.618464	0.126383
1019.788235	0.125103
1019.957989	0.126560
1020.127724	0.125928
1020.297441	0.126414
1020.467139	0.129108
1020.636820	0.128420
1020.806482	0.125695
1020.976126	0.126475
1021.145752	0.127955
1021.315359	0.126443
1021.484948	0.128115
1021.654519	0.126435
1021.824072	0.128447
1021.993607	0.127750
1022.163123	0.128206
1022.332621	0.129186
1022.502101	0.128241
1022.671563	0.127515
1022.841007	0.129628
1023.010432	0.127620
1023.179839	0.129489
1023.349228	0.124953
1023.518598	0.124565
1023.687951	0.125867
1023.857285	0.126678
1024.026601	0.126208
1024.195899	0.126351
1024.365178	0.124733
1024.534439	0.125612
1024.703682	0.124683
1024.872907	0.126451
1025.042114	0.126913
1025.211302	0.126456
1025.380472	0.124305
1025.549624	0.124855
1025.718758	0.123760
1025.887873	0.122407
1026.056970	0.122830
1026.226049	0.122845
1026.395110	0.122662
1026.564153	0.122445
1026.733177	0.120843
1026.902183	0.121720
1027.071171	0.120531
1027.240141	0.121179
1027.409092	0.123163
1027.578026	0.122875
1027.746940	0.124170
1027.915837	0.125377
1028.084716	0.126474
1028.253576	0.127318
1028.422418	0.125665
1028.591242	0.126593
1028.760048	0.125970
1028.928835	0.125956
1029.097604	0.126984
1029.266355	0.126779
1029.435088	0.126322
1029.603803	0.123444
1029.772499	0.123373
1029.941177	0.124856
1030.109837	0.126257
1030.278478	0.126477
1030.447102	0.127328
1030.615707	0.124732
1030.784294	0.124476
1030.952863	0.123738
1031.121413	0.126781
1031.289945	0.126085
1031.458460	0.125656
1031.626955	0.124572
1031.795433	0.125817
1031.963892	0.124461
1032.132334	0.125197
1032.300756	0.126326
1032.469161	0.125267
1032.637548	0.125498
1032.805916	0.125312
1032.974266	0.126269
1033.142598	0.125844
1033.310911	0.125439
1033.479207	0.125579
1033.647484	0.126114
1033.815743	0.126534
1033.983983	0.128088
1034.152206	0.126785
1034.320410	0.128879
1034.488596	0.127032
1034.656764	0.127274
1034.824914	0.127654
1034.993045	0.127271
1035.161158	0.125512
1035.329253	0.124916
1035.497330	0.124350
1035.665388	0.124916
1035.833428	0.124898
1036.001450	0.126089
1036.169454	0.127051
1036.337440	0.127773
1036.505407	0.128628
1036.673356	0.130555
1036.841287	0.130850
1037.009200	0.133131
1037.177094	0.132777
1037.344970	0.132723
1037.512828	0.132795
1037.680668	0.133457
1037.848489	0.132500
1038.016293	0.132203
1038.184078	0.133169
1038.351845	0.131915
1038.519593	0.129436
1038.687324	0.130796
1038.855036	0.129722
1039.022730	0.130483
1039.190406	0.128975
1039.358063	0.126879
1039.525702	0.126017
1039.693323	0.125361
1039.860926	0.126106
1040.028511	0.127243
1040.196077	0.126579
1040.363625	0.124616
1040.531155	0.122870
1040.698667	0.122891
1040.866161	0.123825
1041.033636	0.124637
1041.201093	0.123744
1041.368532	0.122531
1041.535952	0.122411
1041.703355	0.121604
1041.870739	0.123893
1042.038105	0.124304
1042.205452	0.124410
1042.372782	0.126061
1042.540093	0.127129
1042.707386	0.127952
1042.874661	0.127652
1043.041918	0.128713
1043.209156	0.128407
1043.376376	0.127473
1043.543578	0.128442
1043.710762	0.128471
1043.877927	0.128561
1044.045074	0.127294
1044.212203	0.125886
1044.379314	0.126305
1044.546407	0.124260
1044.713481	0.123762
1044.880537	0.124248
1045.047575	0.124446
1045.214595	0.123024
1045.381596	0.120151
1045.548579	0.122497
1045.715544	0.124515
1045.882491	0.126506
1046.049420	0.127649
1046.216330	0.128545
1046.383222	0.129834
1046.550096	0.129361
1046.716951	0.130096
1046.883789	0.132074
1047.050608	0.131221
1047.217409	0.129109
1047.384192	0.128853
1047.550956	0.129855
1047.717703	0.129340
1047.884431	0.128993
1048.051140	0.129329
1048.217832	0.131692
1048.384505	0.130810
1048.551161	0.129992
1048.717798	0.131742
1048.884416	0.128336
1049.051017	0.126546
1049.217599	0.126308
1049.384163	0.125209
1049.550709	0.124235
1049.717237	0.123540
1049.883746	0.125678
1050.050237	0.125506
1050.216710	0.124052
1050.383165	0.125477
1050.549601	0.124751
1050.716019	0.121987
1050.882420	0.122236
1051.048801	0.122223
1051.215165	0.119413
1051.381510	0.118261
1051.547837	0.120786
1051.714146	0.122333
1051.880437	0.124179
1052.046709	0.125530
1052.212964	0.128214
1052.379200	0.128899
1052.545417	0.127144
1052.711617	0.129651
1052.877798	0.130221
1053.043961	0.127788
1053.210106	0.128732
1053.376233	0.128189
1053.542341	0.127083
1053.708432	0.127527
1053.874504	0.128177
1054.040557	0.129623
1054.206593	0.129227
1054.372610	0.128266
1054.538609	0.127799
1054.704590	0.126243
1054.870553	0.125666
1055.036497	0.126874
1055.202424	0.127294
1055.368331	0.126400
1055.534221	0.127391
1055.700093	0.127403
1055.865946	0.126770
1056.031781	0.126803
1056.197598	0.127376
1056.363397	0.128175
1056.529177	0.126836
1056.694939	0.126935
1056.860683	0.126505
1057.026409	0.126766
1057.192116	0.126743
1057.357806	0.129376
1057.523477	0.126611
1057.689130	0.126019
1057.854764	0.123615
1058.020381	0.124536
1058.185979	0.122147
1058.351559	0.122358
1058.517120	0.122175
1058.682664	0.122137
1058.848189	0.119993
1059.013696	0.122127
1059.179185	0.123003
1059.344656	0.125841
1059.510108	0.125946
1059.675542	0.127006
1059.840958	0.127110
1060.006356	0.125770
1060.171735	0.123558
1060.337096	0.122556
1060.502439	0.123520
1060.667764	0.123811
1060.833071	0.123426
1060.998359	0.122386
1061.163629	0.123968
1061.328881	0.125274
1061.494115	0.128824
1061.659330	0.129967
1061.824527	0.129430
1061.989706	0.128170
1062.154867	0.126507
1062.320010	0.126400
1062.485134	0.127512
1062.650240	0.125474
1062.815328	0.124942
1062.980398	0.123509
1063.145449	0.123878
1063.310482	0.126823
1063.475497	0.126542
1063.640494	0.126368
1063.805473	0.125809
1063.970433	0.125752
1064.135375	0.127937
1064.300299	0.129657
1064.465204	0.127465
1064.630092	0.129234
1064.794961	0.126590
1064.959812	0.129162
1065.124645	0.128926
1065.289459	0.131505
1065.454256	0.132926
1065.619034	0.134341
1065.783793	0.130509
1065.948535	0.132196
1066.113258	0.131490
1066.277964	0.132398
1066.442651	0.130698
1066.607319	0.131975
1066.771970	0.131624
1066.936602	0.128315
1067.101216	0.126732
1067.265812	0.127972
1067.430389	0.126495
1067.594949	0.125738
1067.759490	0.125269
1067.924013	0.125263
1068.088518	0.123985
1068.253004	0.119941
1068.417472	0.122893
1068.581922	0.121443
1068.746354	0.122969
1068.910768	0.123115
1069.075163	0.122458
1069.239540	0.126555
1069.403899	0.125726
1069.568240	0.126123
1069.732562	0.129002
1069.896866	0.128173
1070.061152	0.129489
1070.225420	0.128874
1070.389670	0.130754
1070.553901	0.131886
1070.718114	0.128999
1070.882309	0.128144
1071.046486	0.129436
1071.210644	0.128715
1071.374784	0.128209
1071.538906	0.130054
1071.703010	0.126681
1071.867096	0.124565
1072.031163	0.124158
1072.195212	0.125480
1072.359243	0.125756
1072.523256	0.124015
1072.687250	0.123891
1072.851226	0.124874
1073.015184	0.123909
1073.179124	0.126153
1073.343045	0.127265
1073.506949	0.129062
1073.670834	0.128401
1073.834701	0.131390
1073.998549	0.134900
1074.162380	0.133800
1074.326192	0.135045
1074.489986	0.134147
1074.653761	0.135537
1074.817519	0.134546
1074.981258	0.131366
1075.144979	0.130165
1075.308682	0.128731
1075.472367	0.127787
1075.636033	0.128930
1075.799681	0.126875
1075.963311	0.126178
1076.126923	0.125033
1076.290516	0.127154
1076.454092	0.130614
1076.617649	0.133236
1076.781187	0.132809
1076.944708	0.132489
1077.108210	0.132954
1077.271695	0.133245
1077.435160	0.134061
1077.598608	0.132825
1077.762038	0.128595
1077.925449	0.125528
1078.088842	0.124913
1078.252217	0.126740
1078.415573	0.124932
1078.578912	0.123061
1078.742232	0.123937
1078.905534	0.121514
1079.068817	0.122890
1079.232083	0.125797
1079.395330	0.127058
1079.558559	0.127543
1079.721770	0.126071
1079.884962	0.127964
1080.048136	0.132433
1080.211293	0.133037
1080.374430	0.133482
1080.537550	0.134065
1080.700651	0.136431
1080.863735	0.136511
1081.026800	0.135548
1081.189846	0.135579
1081.352875	0.135481
1081.515885	0.134348
1081.678877	0.134936
1081.841851	0.136257
1082.004807	0.137401
1082.167744	0.135826
1082.330663	0.135962
1082.493564	0.135327
1082.656447	0.134927
1082.819312	0.134717
1082.982158	0.132810
1083.144986	0.129569
1083.307796	0.129188
1083.470587	0.127837
1083.633361	0.127466
1083.796116	0.128958
1083.958853	0.128595
1084.121571	0.129007
1084.284272	0.127734
1084.446954	0.127333
1084.609618	0.126955
1084.772264	0.127281
1084.934892	0.129891
1085.097501	0.130015
1085.260092	0.128442
1085.422665	0.129906
1085.585220	0.132313
1085.747756	0.133567
1085.910274	0.133407
1086.072774	0.136510
1086.235256	0.138594
1086.397720	0.137549
1086.560165	0.137481
1086.722592	0.138020
1086.885001	0.136484
1087.047392	0.134971
1087.209764	0.130698
1087.372119	0.128230
1087.534455	0.126768
1087.696772	0.126073
1087.859072	0.123539
1088.021353	0.122787
1088.183616	0.122917
1088.345861	0.123720
1088.508088	0.122077
1088.670296	0.125156
1088.832486	0.126463
1088.994658	0.125168
1089.156812	0.125136
1089.318948	0.126882
1089.481065	0.128174
1089.643164	0.128360
1089.805245	0.127922
1089.967308	0.131604
1090.129352	0.132318
1090.291378	0.132467
1090.453386	0.134418
1090.615376	0.133594
1090.777347	0.133596
1090.939301	0.131738
1091.101236	0.133183
1091.263153	0.132434
1091.425051	0.127129
1091.586932	0.123164
1091.748794	0.128721
1091.910638	0.129803
1092.072463	0.129824
1092.234271	0.128456
1092.396060	0.128833
1092.557831	0.128351
1092.719584	0.127786
1092.881319	0.133496
1093.043035	0.137875
1093.204733	0.132297
1093.366413	0.129503
1093.528075	0.127446
1093.689718	0.127955
1093.851343	0.130125
1094.012950	0.130019
1094.174539	0.130910
1094.336110	0.129141
1094.497662	0.131864
1094.659196	0.133792
1094.820712	0.137306
1094.982210	0.140898
1095.143689	0.144798
1095.305151	0.142581
1095.466594	0.142435
1095.628018	0.141105
1095.789425	0.141025
1095.950813	0.135288
1096.112183	0.133346
1096.273535	0.131177
1096.434869	0.127592
1096.596184	0.125508
1096.757482	0.127060
1096.918761	0.123403
1097.080021	0.123778
1097.241264	0.120106
1097.402488	0.125741
1097.563694	0.128714
1097.724882	0.126922
1097.886052	0.132475
1098.047203	0.132008
1098.208336	0.130878
1098.369451	0.134859
1098.530548	0.137583
1098.691627	0.135735
1098.852687	0.130517
1099.013729	0.129827
1099.174753	0.132447
1099.335758	0.131441
1099.496746	0.130086
1099.657715	0.127886
1099.818666	0.125676
1099.979599	0.124141
1100.140513	0.129239
1100.301409	0.135703
1100.462287	0.133698
1100.623147	0.137228
1100.783989	0.130968
1100.944812	0.132480
1101.105617	0.135748
1101.266404	0.137742
1101.427173	0.136331
1101.587923	0.135778
1101.748656	0.130226
1101.909370	0.130562
1102.070066	0.126981
1102.230743	0.133744
1102.391403	0.134225
1102.552044	0.134118
1102.712667	0.130480
1102.873271	0.132287
1103.033858	0.128683
1103.194426	0.131781
1103.354976	0.134390
1103.515508	0.132064
1103.676021	0.130281
1103.836517	0.129758
1103.996994	0.127506
1104.157453	0.133664
1104.317893	0.129377
1104.478316	0.132935
1104.638720	0.132536
1104.799106	0.131593
1104.959474	0.133254
1105.119823	0.133725
1105.280155	0.133019
1105.440468	0.134009
1105.600763	0.131432
1105.761039	0.132770
1105.921298	0.129426
1106.081538	0.132827
1106.241760	0.134964
1106.401964	0.132993
1106.562149	0.131442
1106.722316	0.129437
1106.882465	0.130745
1107.042596	0.128424
1107.202709	0.128748
1107.362803	0.130453
1107.522879	0.126098
1107.682937	0.126029
1107.842977	0.131243
1108.002999	0.131376
1108.163002	0.135228
1108.322987	0.135992
1108.482954	0.134916
1108.642902	0.137145
1108.802833	0.140699
1108.962745	0.140132
1109.122639	0.136466
1109.282515	0.135605
1109.442372	0.133499
1109.602211	0.131610
1109.762032	0.136396
1109.921835	0.131192
1110.081620	0.130417
1110.241386	0.129367
1110.401134	0.130998
1110.560864	0.130927
1110.720576	0.129497
1110.880269	0.131438
1111.039945	0.133353
1111.199602	0.130075
1111.359240	0.136890
1111.518861	0.142373
1111.678463	0.140330
1111.838047	0.137735
1111.997613	0.135174
1112.157161	0.133990
1112.316690	0.134679
1112.476202	0.130914
1112.635695	0.128090
1112.795169	0.126811
1112.954626	0.119650
1113.114064	0.119539
1113.273484	0.119029
1113.432886	0.124861
1113.592270	0.129213
1113.751635	0.131774
1113.910983	0.133063
1114.070312	0.134362
1114.229622	0.137362
1114.388915	0.137599
1114.548189	0.137524
1114.707445	0.142110
1114.866683	0.138862
1115.025903	0.134971
1115.185104	0.131054
1115.344287	0.131960
1115.503452	0.130384
1115.662599	0.125198
1115.821727	0.126091
1115.980838	0.126684
1116.139930	0.123297
1116.299004	0.127396
1116.458059	0.129700
1116.617097	0.131800
1116.776116	0.132848
1116.935117	0.134646
1117.094099	0.138210
1117.253064	0.138749
1117.412010	0.138695
1117.570938	0.138928
1117.729848	0.141194
1117.888740	0.140296
1118.047613	0.140359
1118.206468	0.134462
1118.365305	0.131473
1118.524124	0.136664
1118.682924	0.141875
1118.841707	0.145240
1119.000471	0.143792
1119.159216	0.135961
1119.317944	0.134686
1119.476653	0.130563
1119.635344	0.135147
1119.794017	0.139445
1119.952672	0.135843
1120.111308	0.131848
1120.269927	0.130192
1120.428527	0.136857
1120.587108	0.139871
1120.745672	0.139068
1120.904217	0.144438
1121.062744	0.140969
1121.221253	0.137913
1121.379744	0.135327
1121.538216	0.134772
1121.696671	0.134718
1121.855107	0.127180
1122.013524	0.126841
1122.171924	0.127999
1122.330305	0.125149
1122.488668	0.127072
1122.647013	0.129287
1122.805340	0.134940
1122.963648	0.131583
1123.121938	0.134530
1123.280210	0.138475
1123.438464	0.139430
1123.596700	0.144263
1123.754917	0.146244
1123.913116	0.145798
1124.071297	0.142918
1124.229459	0.139457
1124.387604	0.140949
1124.545730	0.140525
1124.703838	0.135911
1124.861928	0.133856
1125.019999	0.132220
1125.178052	0.135078
1125.336088	0.137485
1125.494104	0.134588
1125.652103	0.131555
1125.810083	0.136479
1125.968045	0.138241
1126.125989	0.142841
1126.283915	0.144829
1126.441823	0.139335
1126.599712	0.135284
1126.757583	0.132991
1126.915436	0.140077
1127.073270	0.142556
1127.231087	0.141506
1127.388885	0.135468
1127.546665	0.132690
1127.704426	0.133025
1127.862170	0.135722
1128.019895	0.130859
1128.177602	0.128044
1128.335291	0.122331
1128.492961	0.126658
1128.650614	0.127934
1128.808248	0.133110
1128.965864	0.134068
1129.123461	0.132814
1129.281041	0.130892
1129.438602	0.131280
1129.596145	0.134029
1129.753670	0.141090
1129.911176	0.135282
1130.068665	0.133772
1130.226135	0.130764
1130.383587	0.135291
1130.541020	0.131191
1130.698436	0.128206
1130.855833	0.132775
1131.013212	0.136733
1131.170573	0.138938
1131.327915	0.141837
1131.485239	0.143640
1131.642545	0.140759
1131.799833	0.134987
1131.957103	0.143096
1132.114354	0.144791
1132.271588	0.152686
1132.428803	0.150520
1132.585999	0.144444
1132.743178	0.147353
1132.900338	0.139120
1133.057480	0.141905
1133.214604	0.141682
1133.371710	0.139501
1133.528797	0.140210
1133.685866	0.130712
1133.842917	0.136999
1133.999950	0.134887
1134.156964	0.131919
1134.313960	0.136574
1134.470938	0.144981
1134.627898	0.145324
1134.784840	0.143598
1134.941763	0.140865
1135.098668	0.141191
1135.255555	0.128110
1135.412424	0.133784
1135.569274	0.137093
1135.726107	0.129343
1135.882921	0.124367
1136.039716	0.122252
1136.196494	0.123803
1136.353253	0.123065
1136.509995	0.125806
1136.666717	0.134733
1136.823422	0.127848
1136.980109	0.125513
1137.136777	0.138591
1137.293427	0.137083
1137.450059	0.145357
1137.606672	0.135788
1137.763267	0.144541
1137.919844	0.140189
1138.076403	0.134800
1138.232944	0.136383
1138.389466	0.135382
1138.545971	0.130455
1138.702457	0.128596
1138.858924	0.130245
1139.015374	0.133307
1139.171805	0.126777
1139.328218	0.132483
1139.484613	0.140413
1139.640990	0.141285
1139.797348	0.138929
1139.953688	0.139768
1140.110010	0.139373
1140.266314	0.127271
1140.422600	0.127544
1140.578867	0.128793
1140.735116	0.127058
1140.891347	0.121196
1141.047559	0.118142
1141.203754	0.124642
1141.359930	0.120674
1141.516088	0.121844
1141.672228	0.124738
1141.828349	0.127954
1141.984452	0.133450
1142.140537	0.133202
1142.296604	0.143408
1142.452653	0.154053
1142.608683	0.155928
1142.764695	0.164126
1142.920689	0.164194
1143.076665	0.167149
1143.232622	0.167738
1143.388562	0.158934
1143.544483	0.158421
1143.700385	0.142269
1143.856270	0.136978
1144.012136	0.126837
1144.167985	0.124589
1144.323814	0.126278
1144.479626	0.119358
1144.635420	0.121537
1144.791195	0.126312
1144.946952	0.119696
1145.102691	0.123628
1145.258411	0.125142
1145.414113	0.124194
1145.569798	0.120767
1145.725463	0.122383
1145.881111	0.119655
1146.036741	0.120472
1146.192352	0.122190
1146.347945	0.124084
1146.503519	0.127987
1146.659076	0.128784
1146.814614	0.127116
1146.970134	0.126165
1147.125636	0.118727
1147.281120	0.126905
1147.436585	0.121299
1147.592032	0.117245
1147.747461	0.114328
1147.902872	0.115107
1148.058265	0.112877
1148.213639	0.116285
1148.368995	0.128574
1148.524333	0.128645
1148.679653	0.135938
1148.834954	0.137021
1148.990237	0.140131
1149.145502	0.149043
1149.300749	0.145110
1149.455977	0.133189
1149.611188	0.132729
1149.766380	0.113513
1149.921553	0.125030
1150.076709	0.120504
1150.231846	0.129850
1150.386966	0.126240
1150.542066	0.119874
1150.697149	0.126175
1150.852214	0.137560
1151.007260	0.132267
1151.162288	0.137489
1151.317298	0.128445
1151.472289	0.120961
1151.627263	0.112653
1151.782218	0.113252
1151.937155	0.129613
1152.092073	0.127057
1152.246974	0.124083
1152.401856	0.123148
1152.556720	0.138483
1152.711566	0.140886
1152.866393	0.154733
1153.021203	0.159177
1153.175994	0.159514
1153.330767	0.147885
1153.485521	0.147031
1153.640258	0.146350
1153.794976	0.156274
1153.949676	0.141685
1154.104358	0.138976
1154.259021	0.132604
1154.413667	0.128714
1154.568294	0.131713
1154.722903	0.126357
1154.877493	0.124417
1155.032066	0.125740
1155.186620	0.120533
1155.341156	0.123070
1155.495674	0.115122
1155.650173	0.112161
1155.804654	0.111964
1155.959118	0.111952
1156.113562	0.113384
1156.267989	0.109075
1156.422397	0.107184
1156.576788	0.125492
1156.731160	0.121181
1156.885513	0.129699
1157.039849	0.128817
1157.194166	0.130665
1157.348465	0.124606
1157.502746	0.131200
1157.657009	0.135673
1157.811253	0.143293
1157.965479	0.130752
1158.119687	0.134069
1158.273877	0.131297
1158.428048	0.125261
1158.582201	0.118690
1158.736337	0.124252
1158.890453	0.122212
1159.044552	0.118481
1159.198632	0.109932
1159.352694	0.108315
1159.506738	0.111630
1159.660764	0.114555
1159.814771	0.118752
1159.968761	0.130911
1160.122732	0.126494
1160.276685	0.125097
1160.430619	0.125664
1160.584535	0.132874
1160.738434	0.130585
1160.892313	0.134252
1161.046175	0.140209
1161.200019	0.137326
1161.353844	0.128522
1161.507651	0.133108
1161.661440	0.130239
1161.815210	0.124567
1161.968962	0.118408
1162.122697	0.124837
1162.276412	0.129431
1162.430110	0.126585
1162.583789	0.122633
1162.737451	0.127375
1162.891094	0.125041
1163.044718	0.128138
1163.198325	0.144332
1163.351913	0.151452
1163.505483	0.143507
1163.659035	0.118715
1163.812569	0.115957
1163.966084	0.134073
1164.119581	0.136656
1164.273060	0.135531
1164.426521	0.122116
1164.579964	0.119090
1164.733388	0.123920
1164.886794	0.109543
1165.040182	0.104943
1165.193551	0.114934
1165.346903	0.106723
1165.500236	0.108254
1165.653551	0.110311
1165.806848	0.107073
1165.960126	0.107179
1166.113386	0.093582
1166.266628	0.101588
1166.419852	0.118868
1166.573058	0.103452
1166.726245	0.101199
1166.879414	0.083963
1167.032565	0.078988
1167.185698	0.091240
1167.338812	0.086235
1167.491909	0.097110
1167.644987	0.099157
1167.798046	0.091896
1167.951088	0.086724
1168.104111	0.087878
1168.257117	0.099755
1168.410103	0.099639
1168.563072	0.107898
1168.716023	0.110165
1168.868955	0.097251
1169.021869	0.102799
1169.174765	0.105271
1169.327642	0.113500
1169.480501	0.115819
1169.633343	0.115756
1169.786165	0.114792
1169.938970	0.120637
1170.091757	0.117223
1170.244525	0.128464
1170.397275	0.120256
1170.550007	0.126159
1170.702720	0.138647
1170.855415	0.136459
1171.008092	0.124075
1171.160751	0.119931
1171.313392	0.099041
1171.466014	0.111322
1171.618619	0.038150
1171.771205	0.038150
1171.923772	0.038150
