sample name	sample
index	1465
start time	 05-10-2021  02:07:04 PM


Wavelength (nm)	Absorbance
494.344910	-0.042748
494.563924	-0.042748
494.782919	-0.042748
495.001897	0.035087
495.220856	0.002113
495.439797	0.010712
495.658719	0.015246
495.877624	0.019468
496.096510	0.014976
496.315378	0.010178
496.534227	0.011185
496.753059	0.008031
496.971872	0.006272
497.190667	0.051435
497.409444	0.072536
497.628203	0.080080
497.846943	0.083275
498.065665	0.085506
498.284369	0.087194
498.503055	0.088137
498.721723	0.090291
498.940372	0.091730
499.159003	0.091418
499.377616	0.091397
499.596210	0.091968
499.814787	0.092971
500.033345	0.093729
500.251885	0.094293
500.470406	0.094122
500.688910	0.094218
500.907395	0.094072
501.125862	0.094042
501.344311	0.093875
501.562742	0.094214
501.781154	0.093808
501.999548	0.094485
502.217924	0.093851
502.436282	0.094289
502.654621	0.094083
502.872942	0.093769
503.091245	0.093617
503.309530	0.094079
503.527797	0.093961
503.746045	0.094585
503.964275	0.093364
504.182487	0.093857
504.400681	0.094334
504.618856	0.093952
504.837013	0.093775
505.055152	0.093806
505.273273	0.091871
505.491376	0.091064
505.709460	0.090310
505.927526	0.091210
506.145574	0.090819
506.363604	0.091368
506.581615	0.092291
506.799608	0.092328
507.017583	0.092681
507.235540	0.094169
507.453478	0.095122
507.671399	0.095427
507.889301	0.094172
508.107185	0.094263
508.325050	0.093632
508.542898	0.092379
508.760727	0.092691
508.978538	0.092248
509.196330	0.093159
509.414105	0.092687
509.631861	0.092929
509.849599	0.093676
510.067319	0.093686
510.285021	0.093034
510.502704	0.093403
510.720369	0.094309
510.938016	0.095242
511.155645	0.093730
511.373255	0.094234
511.590848	0.093306
511.808422	0.093373
512.025977	0.093689
512.243515	0.093471
512.461034	0.094131
512.678536	0.092730
512.896018	0.092734
513.113483	0.093672
513.330930	0.092945
513.548358	0.093366
513.765768	0.092987
513.983160	0.092539
514.200533	0.092698
514.417889	0.092115
514.635226	0.092890
514.852545	0.093109
515.069845	0.093094
515.287128	0.093367
515.504392	0.092892
515.721638	0.093657
515.938866	0.095252
516.156075	0.096657
516.373267	0.097056
516.590440	0.096345
516.807594	0.095548
517.024731	0.095326
517.241850	0.095727
517.458950	0.096936
517.676032	0.096875
517.893095	0.096234
518.110141	0.095525
518.327168	0.096025
518.544177	0.096730
518.761168	0.097169
518.978141	0.097580
519.195095	0.097303
519.412031	0.097371
519.628949	0.097067
519.845849	0.097113
520.062731	0.097434
520.279594	0.096871
520.496439	0.097166
520.713266	0.097180
520.930074	0.097738
521.146865	0.097867
521.363637	0.097651
521.580391	0.098251
521.797127	0.098375
522.013844	0.098091
522.230543	0.098409
522.447224	0.097785
522.663887	0.098166
522.880532	0.097508
523.097158	0.097558
523.313766	0.097953
523.530356	0.097931
523.746928	0.098012
523.963481	0.098045
524.180017	0.098050
524.396534	0.098242
524.613032	0.098144
524.829513	0.098605
525.045975	0.098592
525.262420	0.098896
525.478845	0.099219
525.695253	0.098702
525.911643	0.098367
526.128014	0.098383
526.344367	0.098570
526.560702	0.098454
526.777018	0.098442
526.993316	0.098965
527.209597	0.098473
527.425858	0.098668
527.642102	0.099394
527.858328	0.100552
528.074535	0.100881
528.290724	0.101619
528.506894	0.101882
528.723047	0.101929
528.939181	0.101815
529.155297	0.102740
529.371395	0.101618
529.587475	0.101050
529.803536	0.101043
530.019579	0.101115
530.235604	0.100704
530.451611	0.100778
530.667600	0.100479
530.883570	0.100276
531.099522	0.099533
531.315456	0.100530
531.531372	0.100619
531.747269	0.099990
531.963148	0.100274
532.179009	0.100680
532.394852	0.100866
532.610676	0.101316
532.826482	0.101792
533.042271	0.101975
533.258040	0.102205
533.473792	0.102853
533.689525	0.103481
533.905240	0.103616
534.120937	0.103591
534.336616	0.104125
534.552277	0.104244
534.767919	0.103940
534.983543	0.104445
535.199149	0.104598
535.414736	0.104603
535.630306	0.104771
535.845857	0.104797
536.061390	0.104838
536.276904	0.104649
536.492401	0.104361
536.707879	0.104851
536.923339	0.104905
537.138781	0.105015
537.354204	0.105066
537.569610	0.105061
537.784997	0.105185
538.000366	0.105944
538.215716	0.105835
538.431049	0.106784
538.646363	0.106950
538.861659	0.106571
539.076937	0.106007
539.292196	0.106120
539.507438	0.106546
539.722661	0.106570
539.937866	0.105806
540.153052	0.105757
540.368221	0.104879
540.583371	0.104826
540.798503	0.105299
541.013617	0.105268
541.228712	0.105039
541.443789	0.104662
541.658848	0.104439
541.873889	0.104272
542.088912	0.104589
542.303916	0.104938
542.518902	0.105024
542.733870	0.104715
542.948820	0.105278
543.163752	0.105677
543.378665	0.105964
543.593560	0.106129
543.808437	0.106159
544.023295	0.106188
544.238136	0.106339
544.452958	0.106514
544.667762	0.106809
544.882548	0.106980
545.097315	0.107043
545.312064	0.107081
545.526795	0.107048
545.741508	0.107585
545.956203	0.107803
546.170879	0.108178
546.385537	0.108356
546.600177	0.108504
546.814799	0.108246
547.029402	0.108613
547.243988	0.108798
547.458555	0.109279
547.673103	0.109227
547.887634	0.108939
548.102146	0.109124
548.316640	0.108989
548.531116	0.108701
548.745574	0.109110
548.960013	0.108918
549.174435	0.108955
549.388838	0.108485
549.603222	0.108805
549.817589	0.109155
550.031937	0.108792
550.246267	0.108950
550.460579	0.109005
550.674873	0.109087
550.889148	0.109118
551.103405	0.109316
551.317644	0.109811
551.531865	0.110014
551.746068	0.110038
551.960252	0.110030
552.174418	0.110047
552.388566	0.110361
552.602696	0.109748
552.816807	0.110099
553.030900	0.109699
553.244975	0.109862
553.459032	0.109594
553.673070	0.109700
553.887091	0.109965
554.101093	0.110069
554.315077	0.109970
554.529042	0.110581
554.742990	0.110584
554.956919	0.110936
555.170830	0.110894
555.384722	0.110837
555.598597	0.110740
555.812453	0.111055
556.026291	0.111164
556.240111	0.111412
556.453913	0.111540
556.667696	0.111507
556.881461	0.111455
557.095208	0.111153
557.308937	0.111473
557.522647	0.111403
557.736339	0.110935
557.950013	0.110992
558.163669	0.110739
558.377307	0.110922
558.590926	0.110353
558.804527	0.110680
559.018110	0.110782
559.231675	0.110363
559.445221	0.110437
559.658749	0.110330
559.872259	0.110331
560.085751	0.110107
560.299225	0.110130
560.512680	0.110350
560.726117	0.109885
560.939536	0.109792
561.152937	0.109967
561.366319	0.109739
561.579683	0.109981
561.793029	0.109914
562.006357	0.110599
562.219667	0.110190
562.432958	0.110303
562.646231	0.110329
562.859486	0.110452
563.072723	0.110737
563.285941	0.110869
563.499141	0.111006
563.712323	0.110852
563.925487	0.110752
564.138632	0.110684
564.351760	0.110993
564.564869	0.111116
564.777960	0.110951
564.991032	0.110949
565.204087	0.111352
565.417123	0.111310
565.630141	0.111820
565.843140	0.112036
566.056122	0.112103
566.269085	0.112039
566.482030	0.111935
566.694957	0.112563
566.907866	0.112336
567.120756	0.112062
567.333628	0.111877
567.546482	0.111280
567.759318	0.111190
567.972135	0.111449
568.184935	0.111381
568.397716	0.111607
568.610478	0.111153
568.823223	0.111388
569.035949	0.111698
569.248657	0.112054
569.461347	0.112133
569.674019	0.111909
569.886672	0.111601
570.099308	0.111488
570.311925	0.111259
570.524523	0.111443
570.737104	0.111409
570.949666	0.111354
571.162210	0.111191
571.374736	0.111585
571.587244	0.111747
571.799733	0.111848
572.012205	0.111966
572.224658	0.112079
572.437092	0.112483
572.649509	0.112500
572.861907	0.112732
573.074287	0.112783
573.286649	0.112376
573.498993	0.112447
573.711318	0.112775
573.923625	0.112783
574.135914	0.113108
574.348185	0.112904
574.560438	0.112651
574.772672	0.112440
574.984888	0.112788
575.197086	0.113378
575.409266	0.113533
575.621427	0.113681
575.833570	0.113902
576.045695	0.113977
576.257802	0.113876
576.469890	0.114235
576.681961	0.114363
576.894013	0.114379
577.106046	0.114328
577.318062	0.114142
577.530059	0.114285
577.742039	0.114100
577.954000	0.114118
578.165942	0.114161
578.377867	0.114244
578.589773	0.113983
578.801661	0.113918
579.013531	0.114080
579.225382	0.114297
579.437216	0.114328
579.649031	0.114694
579.860828	0.114660
580.072606	0.114945
580.284367	0.114902
580.496109	0.115495
580.707833	0.115447
580.919539	0.115203
581.131227	0.115147
581.342896	0.114669
581.554547	0.114262
581.766180	0.113945
581.977795	0.114007
582.189391	0.114038
582.400969	0.113462
582.612529	0.113362
582.824071	0.113385
583.035595	0.113326
583.247100	0.113713
583.458587	0.113782
583.670056	0.114267
583.881506	0.114330
584.092939	0.114238
584.304353	0.114880
584.515749	0.114879
584.727127	0.115132
584.938486	0.115162
585.149828	0.115086
585.361151	0.115577
585.572456	0.115594
585.783742	0.115596
585.995011	0.115971
586.206261	0.116235
586.417493	0.116650
586.628706	0.116903
586.839902	0.117021
587.051079	0.117204
587.262238	0.117078
587.473379	0.117081
587.684502	0.116990
587.895606	0.116742
588.106692	0.116290
588.317760	0.116268
588.528810	0.116193
588.739841	0.116436
588.950855	0.116606
589.161850	0.116425
589.372827	0.116587
589.583785	0.117012
589.794726	0.117116
590.005648	0.117186
590.216552	0.117367
590.427437	0.117274
590.638305	0.117239
590.849154	0.117137
591.059985	0.117598
591.270798	0.117658
591.481592	0.117555
591.692369	0.117673
591.903127	0.117702
592.113867	0.117569
592.324588	0.117805
592.535292	0.117744
592.745977	0.117564
592.956644	0.117176
593.167293	0.117089
593.377923	0.117068
593.588536	0.117245
593.799130	0.117416
594.009706	0.117568
594.220263	0.117462
594.430803	0.117490
594.641324	0.117639
594.851827	0.118065
595.062312	0.118225
595.272778	0.118033
595.483227	0.117780
595.693657	0.117909
595.904069	0.117869
596.114462	0.117822
596.324838	0.117786
596.535195	0.117783
596.745534	0.117785
596.955855	0.117554
597.166157	0.118060
597.376441	0.118379
597.586707	0.118326
597.796955	0.118185
598.007185	0.118020
598.217396	0.118226
598.427589	0.118553
598.637764	0.118598
598.847921	0.118662
599.058060	0.118357
599.268180	0.118404
599.478282	0.118357
599.688366	0.118884
599.898431	0.119152
600.108479	0.119157
600.318508	0.119039
600.528519	0.119301
600.738511	0.119348
600.948486	0.119233
601.158442	0.119243
601.368380	0.119333
601.578300	0.118772
601.788202	0.118635
601.998085	0.118932
602.207950	0.119318
602.417797	0.119141
602.627626	0.119336
602.837436	0.119686
603.047228	0.119792
603.257002	0.119640
603.466758	0.120067
603.676496	0.120653
603.886215	0.120578
604.095916	0.120201
604.305599	0.120206
604.515264	0.120178
604.724910	0.120081
604.934538	0.119959
605.144148	0.120133
605.353740	0.120040
605.563314	0.119936
605.772869	0.119914
605.982406	0.120112
606.191925	0.120153
606.401425	0.120083
606.610908	0.120389
606.820372	0.120814
607.029818	0.120789
607.239246	0.120892
607.448655	0.120944
607.658047	0.121131
607.867420	0.121134
608.076775	0.121180
608.286111	0.121584
608.495430	0.121513
608.704730	0.121351
608.914012	0.121601
609.123275	0.121635
609.332521	0.121349
609.541748	0.121392
609.750957	0.121424
609.960148	0.121463
610.169321	0.121415
610.378475	0.121279
610.587611	0.121279
610.796729	0.121289
611.005829	0.121311
611.214910	0.121484
611.423974	0.121521
611.633019	0.121695
611.842045	0.121986
612.051054	0.121979
612.260044	0.121921
612.469017	0.122153
612.677970	0.122172
612.886906	0.122196
613.095824	0.122074
613.304723	0.122064
613.513604	0.122106
613.722467	0.121688
613.931311	0.121731
614.140138	0.121925
614.348946	0.122123
614.557736	0.122308
614.766507	0.122611
614.975261	0.122866
615.183996	0.122920
615.392713	0.122896
615.601412	0.123307
615.810092	0.123359
616.018754	0.123706
616.227399	0.123691
616.436024	0.124103
616.644632	0.124140
616.853222	0.124180
617.061793	0.124340
617.270346	0.124483
617.478880	0.124471
617.687397	0.124838
617.895895	0.124803
618.104375	0.124952
618.312837	0.124626
618.521281	0.124658
618.729706	0.125112
618.938113	0.125237
619.146502	0.125427
619.354873	0.125703
619.563226	0.125660
619.771560	0.125799
619.979876	0.125424
620.188174	0.125511
620.396453	0.125702
620.604715	0.125503
620.812958	0.125420
621.021183	0.125358
621.229390	0.125149
621.437578	0.124950
621.645748	0.124908
621.853900	0.124947
622.062034	0.125111
622.270150	0.125028
622.478247	0.124955
622.686326	0.125149
622.894387	0.125245
623.102430	0.125418
623.310454	0.125636
623.518461	0.125709
623.726449	0.126078
623.934418	0.126178
624.142370	0.126229
624.350303	0.126479
624.558218	0.126265
624.766115	0.126353
624.973994	0.126153
625.181855	0.126026
625.389697	0.125956
625.597521	0.125798
625.805327	0.125657
626.013114	0.125599
626.220883	0.125435
626.428634	0.125488
626.636367	0.125026
626.844082	0.125094
627.051778	0.125383
627.259457	0.125353
627.467117	0.125499
627.674758	0.125414
627.882382	0.125203
628.089987	0.125239
628.297574	0.125632
628.505143	0.125982
628.712694	0.126175
628.920226	0.126019
629.127740	0.126048
629.335236	0.126193
629.542714	0.126240
629.750174	0.126505
629.957615	0.126600
630.165038	0.126288
630.372443	0.126236
630.579829	0.126084
630.787198	0.126065
630.994548	0.125925
631.201880	0.125933
631.409194	0.125839
631.616489	0.126008
631.823766	0.125927
632.031025	0.126052
632.238266	0.126212
632.445489	0.126448
632.652693	0.126548
632.859879	0.126946
633.067047	0.126725
633.274197	0.126989
633.481329	0.126911
633.688442	0.126993
633.895537	0.127178
634.102614	0.127352
634.309672	0.127512
634.516713	0.127671
634.723735	0.127679
634.930739	0.127941
635.137724	0.128189
635.344692	0.128261
635.551641	0.128519
635.758572	0.128466
635.965485	0.128409
636.172379	0.128561
636.379256	0.128474
636.586114	0.128538
636.792954	0.128653
636.999775	0.128606
637.206579	0.128738
637.413364	0.128709
637.620131	0.128829
637.826880	0.128985
638.033610	0.128694
638.240323	0.129145
638.447017	0.129427
638.653692	0.129393
638.860350	0.129561
639.066990	0.129693
639.273611	0.129873
639.480214	0.130044
639.686798	0.130070
639.893365	0.130285
640.099913	0.130216
640.306443	0.129885
640.512955	0.130147
640.719449	0.129984
640.925924	0.130073
641.132381	0.129874
641.338820	0.129964
641.545241	0.130042
641.751644	0.130195
641.958028	0.129980
642.164394	0.130155
642.370742	0.130222
642.577071	0.130582
642.783383	0.130628
642.989676	0.130834
643.195951	0.130716
643.402207	0.130824
643.608446	0.130835
643.814666	0.131063
644.020868	0.131272
644.227052	0.131191
644.433218	0.130968
644.639365	0.131074
644.845494	0.131091
645.051605	0.130878
645.257698	0.130864
645.463772	0.130812
645.669828	0.130765
645.875866	0.130680
646.081886	0.130762
646.287888	0.130831
646.493871	0.131057
646.699836	0.131031
646.905783	0.131410
647.111712	0.131544
647.317622	0.131702
647.523514	0.131590
647.729388	0.131592
647.935244	0.131598
648.141082	0.131551
648.346901	0.131255
648.552702	0.131573
648.758485	0.131691
648.964250	0.131683
649.169996	0.131720
649.375724	0.131882
649.581434	0.131863
649.787126	0.132082
649.992800	0.132208
650.198455	0.132454
650.404092	0.132087
650.609711	0.132075
650.815311	0.131986
651.020894	0.131852
651.226458	0.131650
651.432004	0.131782
651.637532	0.131388
651.843041	0.131410
652.048532	0.131364
652.254006	0.131476
652.459460	0.131481
652.664897	0.131576
652.870315	0.131726
653.075716	0.132164
653.281097	0.132148
653.486461	0.132425
653.691807	0.132433
653.897134	0.132472
654.102443	0.132598
654.307734	0.132641
654.513006	0.132730
654.718261	0.132957
654.923497	0.132998
655.128715	0.133304
655.333915	0.133219
655.539096	0.133524
655.744259	0.133466
655.949404	0.133856
656.154531	0.133994
656.359640	0.133976
656.564730	0.134005
656.769802	0.134308
656.974856	0.134198
657.179892	0.134682
657.384909	0.134580
657.589908	0.134675
657.794889	0.134496
657.999852	0.134678
658.204797	0.134913
658.409723	0.135054
658.614631	0.135015
658.819521	0.135003
659.024393	0.134629
659.229246	0.134748
659.434081	0.134711
659.638898	0.134943
659.843697	0.134841
660.048478	0.134858
660.253240	0.134886
660.457984	0.134735
660.662710	0.134835
660.867417	0.134936
661.072107	0.134861
661.276778	0.135147
661.481431	0.135066
661.686066	0.135118
661.890682	0.135150
662.095281	0.135100
662.299861	0.135295
662.504422	0.135316
662.708966	0.135593
662.913491	0.135671
663.117999	0.135353
663.322488	0.135229
663.526958	0.135472
663.731411	0.135617
663.935845	0.135714
664.140261	0.135821
664.344659	0.135817
664.549038	0.135630
664.753400	0.135634
664.957743	0.135914
665.162068	0.136060
665.366375	0.136014
665.570663	0.135759
665.774933	0.135756
665.979185	0.135672
666.183419	0.135911
666.387635	0.136039
666.591832	0.136205
666.796011	0.136370
667.000172	0.136487
667.204315	0.136364
667.408439	0.136778
667.612545	0.136725
667.816634	0.136760
668.020703	0.136615
668.224755	0.136677
668.428788	0.136817
668.632803	0.136765
668.836800	0.136741
669.040779	0.136557
669.244739	0.136383
669.448681	0.136506
669.652605	0.136528
669.856511	0.136594
670.060399	0.136732
670.264268	0.136749
670.468119	0.136731
670.671952	0.136952
670.875767	0.137398
671.079563	0.137404
671.283341	0.137513
671.487101	0.137558
671.690843	0.137604
671.894567	0.137673
672.098272	0.137627
672.301959	0.137758
672.505628	0.137638
672.709278	0.137648
672.912911	0.137744
673.116525	0.137896
673.320121	0.137882
673.523699	0.138118
673.727258	0.137960
673.930799	0.138060
674.134322	0.138101
674.337827	0.138223
674.541314	0.138285
674.744782	0.138545
674.948232	0.138592
675.151664	0.138723
675.355078	0.138821
675.558474	0.138931
675.761851	0.138868
675.965210	0.138882
676.168551	0.139024
676.371873	0.138937
676.575178	0.138902
676.778464	0.139090
676.981732	0.139222
677.184981	0.139298
677.388213	0.139470
677.591426	0.139630
677.794621	0.139785
677.997798	0.139562
678.200956	0.139708
678.404097	0.139672
678.607219	0.139395
678.810323	0.139317
679.013408	0.139294
679.216476	0.139261
679.419525	0.139219
679.622556	0.139352
679.825569	0.139629
680.028563	0.139842
680.231540	0.140180
680.434498	0.140274
680.637438	0.140376
680.840359	0.140405
681.043263	0.140528
681.246148	0.140738
681.449015	0.140791
681.651864	0.140884
681.854694	0.140624
682.057506	0.140431
682.260301	0.140527
682.463076	0.140683
682.665834	0.140761
682.868573	0.140703
683.071295	0.140544
683.273998	0.140411
683.476682	0.140573
683.679349	0.140900
683.881997	0.141036
684.084627	0.141114
684.287239	0.141198
684.489833	0.141138
684.692408	0.141023
684.894965	0.141238
685.097504	0.141325
685.300025	0.141123
685.502527	0.141122
685.705012	0.141081
685.907478	0.141159
686.109925	0.141054
686.312355	0.141422
686.514766	0.141712
686.717159	0.141702
686.919534	0.142082
687.121891	0.142143
687.324230	0.141994
687.526550	0.142034
687.728852	0.141788
687.931136	0.141973
688.133401	0.141680
688.335649	0.141848
688.537878	0.141884
688.740089	0.141604
688.942281	0.141700
689.144456	0.141765
689.346612	0.141865
689.548750	0.141848
689.750870	0.141922
689.952971	0.142058
690.155055	0.142030
690.357120	0.142025
690.559167	0.142078
690.761195	0.142239
690.963206	0.142302
691.165198	0.142365
691.367172	0.142723
691.569128	0.142644
691.771065	0.142647
691.972984	0.142702
692.174885	0.142951
692.376768	0.142930
692.578633	0.142970
692.780479	0.142907
692.982308	0.142826
693.184118	0.142763
693.385909	0.142802
693.587683	0.142855
693.789438	0.142964
693.991175	0.142757
694.192894	0.143021
694.394595	0.142946
694.596277	0.143099
694.797941	0.143230
694.999587	0.143303
695.201215	0.143238
695.402824	0.143262
695.604416	0.143048
695.805989	0.143268
696.007543	0.143221
696.209080	0.143119
696.410598	0.143120
696.612099	0.143225
696.813580	0.143298
697.015044	0.143469
697.216490	0.143483
697.417917	0.143489
697.619326	0.143475
697.820717	0.143280
698.022089	0.143506
698.223444	0.143608
698.424780	0.143431
698.626098	0.143426
698.827397	0.143304
699.028679	0.143253
699.229942	0.143381
699.431187	0.143523
699.632414	0.143580
699.833622	0.143595
700.034813	0.143619
700.235985	0.143760
700.437139	0.143858
700.638274	0.143871
700.839392	0.143993
701.040491	0.144315
701.241572	0.144460
701.442635	0.144546
701.643679	0.144427
701.844706	0.144469
702.045714	0.144503
702.246704	0.144526
702.447675	0.144932
702.648629	0.144924
702.849564	0.144841
703.050481	0.144621
703.251380	0.144744
703.452260	0.145083
703.653122	0.145132
703.853966	0.145165
704.054792	0.145280
704.255600	0.145171
704.456389	0.145359
704.657160	0.145356
704.857913	0.145325
705.058648	0.145459
705.259365	0.145288
705.460063	0.145193
705.660743	0.145133
705.861405	0.144910
706.062048	0.144779
706.262674	0.144529
706.463281	0.144327
706.663870	0.144284
706.864441	0.144018
707.064993	0.144068
707.265527	0.144042
707.466043	0.144043
707.666541	0.144162
707.867021	0.144179
708.067482	0.144310
708.267925	0.144276
708.468350	0.144493
708.668757	0.144625
708.869145	0.144612
709.069516	0.144764
709.269868	0.144732
709.470201	0.144824
709.670517	0.144830
709.870814	0.144853
710.071093	0.144835
710.271354	0.144700
710.471597	0.144965
710.671821	0.144845
710.872028	0.144896
711.072216	0.145206
711.272385	0.145282
711.472537	0.145427
711.672670	0.145547
711.872785	0.145785
712.072882	0.146052
712.272961	0.146028
712.473021	0.146157
712.673063	0.146387
712.873087	0.146421
713.073093	0.146414
713.273081	0.146551
713.473050	0.146625
713.673001	0.146860
713.872934	0.146814
714.072849	0.146735
714.272745	0.146864
714.472623	0.146850
714.672483	0.146681
714.872325	0.146688
715.072148	0.146383
715.271954	0.146380
715.471741	0.146482
715.671509	0.146215
715.871260	0.146222
716.070992	0.146232
716.270707	0.145999
716.470403	0.146031
716.670080	0.146029
716.869740	0.146336
717.069381	0.146430
717.269004	0.146220
717.468609	0.146534
717.668195	0.146562
717.867764	0.146512
718.067314	0.146643
718.266846	0.146545
718.466360	0.146509
718.665855	0.146499
718.865332	0.146333
719.064791	0.146178
719.264232	0.146083
719.463655	0.146043
719.663059	0.145924
719.862445	0.145784
720.061813	0.145720
720.261163	0.145739
720.460494	0.145535
720.659807	0.145455
720.859102	0.145399
721.058379	0.145419
721.257638	0.145235
721.456878	0.145160
721.656100	0.145131
721.855304	0.145126
722.054490	0.145067
722.253657	0.144811
722.452806	0.144910
722.651937	0.144864
722.851050	0.144880
723.050145	0.145060
723.249221	0.145075
723.448279	0.144968
723.647319	0.144875
723.846340	0.144744
724.045344	0.144805
724.244329	0.144604
724.443296	0.144602
724.642245	0.144372
724.841175	0.144326
725.040088	0.144386
725.238982	0.144559
725.437857	0.144531
725.636715	0.144656
725.835554	0.144463
726.034376	0.144528
726.233179	0.144479
726.431963	0.144291
726.630730	0.144084
726.829478	0.144005
727.028208	0.143840
727.226920	0.143822
727.425614	0.143679
727.624289	0.143884
727.822946	0.143793
728.021585	0.143847
728.220206	0.143854
728.418808	0.143894
728.617392	0.143768
728.815958	0.143673
729.014506	0.143709
729.213036	0.143479
729.411547	0.143377
729.610040	0.143371
729.808515	0.143175
730.006972	0.143280
730.205410	0.143116
730.403831	0.142977
730.602233	0.142849
730.800616	0.142770
730.998982	0.142903
731.197329	0.142851
731.395658	0.142631
731.593969	0.142721
731.792262	0.142620
731.990536	0.142584
732.188793	0.142717
732.387031	0.142787
732.585250	0.142732
732.783452	0.142437
732.981635	0.142505
733.179800	0.142700
733.377947	0.142523
733.576076	0.142538
733.774186	0.142582
733.972278	0.142464
734.170352	0.142314
734.368408	0.142237
734.566446	0.142319
734.764465	0.142101
734.962466	0.141879
735.160449	0.141762
735.358413	0.141552
735.556360	0.141473
735.754288	0.141431
735.952198	0.141450
736.150090	0.141448
736.347963	0.141368
736.545818	0.141376
736.743655	0.141249
736.941474	0.141113
737.139275	0.141136
737.337057	0.140904
737.534821	0.140958
737.732567	0.140839
737.930295	0.140679
738.128005	0.140443
738.325696	0.140554
738.523369	0.140534
738.721024	0.140595
738.918660	0.140457
739.116279	0.140633
739.313879	0.140433
739.511461	0.140327
739.709024	0.140389
739.906570	0.140606
740.104097	0.140444
740.301606	0.140486
740.499097	0.140508
740.696569	0.140590
740.894024	0.140304
741.091460	0.140243
741.288878	0.140359
741.486277	0.140279
741.683659	0.139975
741.881022	0.139713
742.078367	0.139734
742.275694	0.139613
742.473002	0.139275
742.670293	0.139306
742.867565	0.139091
743.064819	0.138956
743.262054	0.138796
743.459272	0.138966
743.656471	0.139145
743.853652	0.138907
744.050815	0.138987
744.247959	0.139159
744.445085	0.139039
744.642194	0.139204
744.839283	0.139233
745.036355	0.139166
745.233408	0.139296
745.430444	0.139214
745.627461	0.139084
745.824459	0.138918
746.021440	0.138734
746.218402	0.138657
746.415346	0.138629
746.612272	0.138577
746.809180	0.138549
747.006069	0.138449
747.202940	0.138479
747.399793	0.138847
747.596628	0.138944
747.793444	0.139213
747.990243	0.139211
748.187023	0.139191
748.383784	0.139304
748.580528	0.139416
748.777253	0.139519
748.973960	0.139578
749.170649	0.139393
749.367320	0.139356
749.563973	0.139180
749.760607	0.139452
749.957223	0.139660
750.153821	0.139566
750.350400	0.139775
750.546962	0.139306
750.743505	0.139173
750.940030	0.139028
751.136536	0.139010
751.333025	0.138942
751.529495	0.138836
751.725947	0.138445
751.922381	0.138079
752.118796	0.137624
752.315194	0.137803
752.511573	0.137703
752.707934	0.137796
752.904276	0.137543
753.100601	0.137446
753.296907	0.137029
753.493195	0.137152
753.689465	0.137283
753.885716	0.137494
754.081949	0.137231
754.278164	0.137015
754.474361	0.136885
754.670540	0.137033
754.866700	0.137215
755.062843	0.137329
755.258967	0.137066
755.455072	0.137116
755.651160	0.137073
755.847229	0.137142
756.043280	0.137473
756.239313	0.137351
756.435328	0.137204
756.631324	0.137256
756.827302	0.137148
757.023262	0.137236
757.219204	0.136918
757.415127	0.136784
757.611033	0.136869
757.806920	0.136557
758.002788	0.136482
758.198639	0.136462
758.394471	0.136149
758.590286	0.136131
758.786081	0.136046
758.981859	0.136242
759.177619	0.136173
759.373360	0.136021
759.569083	0.136118
759.764788	0.136202
759.960474	0.136294
760.156143	0.136320
760.351793	0.136285
760.547425	0.136200
760.743038	0.136033
760.938634	0.135824
761.134211	0.135712
761.329770	0.135440
761.525311	0.135478
761.720833	0.135429
761.916338	0.135421
762.111824	0.135658
762.307292	0.135830
762.502741	0.135795
762.698173	0.135820
762.893586	0.135795
763.088981	0.135944
763.284358	0.135892
763.479716	0.135872
763.675057	0.136089
763.870379	0.136189
764.065683	0.136108
764.260968	0.136280
764.456236	0.136213
764.651485	0.136424
764.846716	0.136470
765.041929	0.136399
765.237123	0.136389
765.432299	0.136137
765.627457	0.135922
765.822597	0.135818
766.017719	0.135580
766.212822	0.135804
766.407907	0.135667
766.602974	0.135576
766.798023	0.135471
766.993054	0.135531
767.188066	0.135473
767.383060	0.135476
767.578036	0.135684
767.772993	0.135785
767.967933	0.135806
768.162854	0.135772
768.357757	0.135547
768.552642	0.135413
768.747508	0.134963
768.942356	0.134799
769.137186	0.134543
769.331998	0.134153
769.526792	0.134025
769.721567	0.133864
769.916324	0.133880
770.111063	0.133945
770.305784	0.133909
770.500486	0.134207
770.695171	0.134057
770.889837	0.134010
771.084484	0.134059
771.279114	0.133977
771.473725	0.133799
771.668318	0.133824
771.862893	0.133817
772.057450	0.133995
772.251988	0.133782
772.446509	0.133783
772.641011	0.134016
772.835494	0.134006
773.029960	0.134189
773.224407	0.134288
773.418836	0.134360
773.613247	0.134489
773.807640	0.134246
774.002014	0.134152
774.196370	0.134302
774.390708	0.134130
774.585028	0.134234
774.779330	0.133890
774.973613	0.134032
775.167878	0.133876
775.362125	0.133636
775.556354	0.133761
775.750564	0.133922
775.944756	0.133864
776.138930	0.133892
776.333086	0.133837
776.527223	0.134039
776.721343	0.133837
776.915444	0.133765
777.109526	0.133934
777.303591	0.133978
777.497637	0.133938
777.691666	0.134173
777.885676	0.134218
778.079667	0.134083
778.273641	0.134083
778.467596	0.134055
778.661533	0.134018
778.855452	0.134063
779.049352	0.134009
779.243235	0.133952
779.437099	0.133605
779.630945	0.133670
779.824773	0.133974
780.018582	0.134060
780.212373	0.134049
780.406146	0.134105
780.599901	0.133989
780.793638	0.134011
780.987356	0.134114
781.181056	0.134117
781.374738	0.133916
781.568402	0.133649
781.762047	0.133443
781.955674	0.133474
782.149283	0.133489
782.342874	0.133548
782.536447	0.133525
782.730001	0.133255
782.923537	0.133466
783.117055	0.133505
783.310555	0.133602
783.504036	0.133796
783.697499	0.133827
783.890944	0.133753
784.084371	0.133751
784.277780	0.133656
784.471170	0.133799
784.664542	0.133747
784.857896	0.133904
785.051231	0.133993
785.244549	0.133970
785.437848	0.134151
785.631129	0.134186
785.824392	0.134158
786.017636	0.134346
786.210863	0.134595
786.404071	0.134742
786.597260	0.134743
786.790432	0.134512
786.983585	0.134548
787.176721	0.134487
787.369838	0.134665
787.562936	0.134911
787.756017	0.135010
787.949079	0.134931
788.142123	0.135071
788.335149	0.135008
788.528156	0.135322
788.721146	0.135378
788.914117	0.135540
789.107070	0.135369
789.300005	0.135272
789.492921	0.135302
789.685819	0.135125
789.878699	0.135051
790.071561	0.135221
790.264405	0.134843
790.457230	0.134771
790.650037	0.134580
790.842826	0.134693
791.035597	0.134710
791.228349	0.134630
791.421084	0.134963
791.613800	0.134853
791.806497	0.134718
791.999177	0.135063
792.191838	0.135268
792.384481	0.135713
792.577106	0.135758
792.769713	0.135740
792.962301	0.135758
793.154871	0.135580
793.347423	0.135606
793.539957	0.135769
793.732473	0.135945
793.924970	0.135948
794.117449	0.135693
794.309910	0.135808
794.502353	0.135752
794.694777	0.135828
794.887183	0.136102
795.079571	0.136350
795.271941	0.136465
795.464293	0.136447
795.656626	0.136659
795.848941	0.136743
796.041238	0.136757
796.233516	0.136879
796.425777	0.137063
796.618019	0.137135
796.810243	0.137326
797.002449	0.137292
797.194636	0.137392
797.386805	0.137399
797.578956	0.137409
797.771089	0.137428
797.963204	0.137661
798.155300	0.137594
798.347378	0.137627
798.539438	0.137277
798.731480	0.137405
798.923503	0.137350
799.115509	0.137345
799.307496	0.137516
799.499465	0.137735
799.691415	0.137886
799.883348	0.138154
800.075262	0.138236
800.267158	0.138644
800.459035	0.138750
800.650895	0.138872
800.842736	0.138726
801.034559	0.138793
801.226364	0.138719
801.418150	0.138803
801.609919	0.138794
801.801669	0.138731
801.993401	0.138639
802.185114	0.138591
802.376810	0.138586
802.568487	0.138956
802.760146	0.138933
802.951787	0.139147
803.143409	0.139028
803.335014	0.138965
803.526600	0.139047
803.718168	0.139249
803.909717	0.139428
804.101249	0.139562
804.292762	0.139526
804.484257	0.139833
804.675734	0.139876
804.867192	0.139973
805.058632	0.140427
805.250054	0.140740
805.441458	0.140888
805.632844	0.140940
805.824211	0.140857
806.015561	0.141031
806.206891	0.141178
806.398204	0.141497
806.589499	0.141684
806.780775	0.141552
806.972033	0.141515
807.163273	0.141676
807.354495	0.141937
807.545698	0.142484
807.736883	0.142591
807.928050	0.142709
808.119199	0.142785
808.310329	0.142940
808.501441	0.143144
808.692535	0.143771
808.883611	0.143912
809.074669	0.143995
809.265708	0.144178
809.456729	0.144328
809.647732	0.144504
809.838717	0.144732
810.029683	0.145134
810.220632	0.145539
810.411562	0.145401
810.602474	0.145592
810.793367	0.145597
810.984242	0.145562
811.175100	0.145786
811.365938	0.145617
811.556759	0.145628
811.747562	0.145467
811.938346	0.145471
812.129112	0.145452
812.319860	0.145426
812.510589	0.145615
812.701300	0.145919
812.891994	0.146033
813.082668	0.146348
813.273325	0.146721
813.463964	0.146945
813.654584	0.147082
813.845186	0.147142
814.035769	0.147400
814.226335	0.147960
814.416882	0.148017
814.607411	0.148139
814.797922	0.148315
814.988415	0.148235
815.178889	0.148233
815.369345	0.148196
815.559783	0.148284
815.750203	0.148111
815.940605	0.148162
816.130988	0.148256
816.321353	0.148359
816.511700	0.148339
816.702028	0.148675
816.892339	0.149003
817.082631	0.149174
817.272905	0.149664
817.463161	0.149874
817.653398	0.149799
817.843617	0.149916
818.033819	0.150133
818.224001	0.150154
818.414166	0.149865
818.604312	0.149840
818.794440	0.150070
818.984550	0.149784
819.174642	0.149904
819.364716	0.149847
819.554771	0.149842
819.744808	0.149736
819.934827	0.149756
820.124827	0.149598
820.314810	0.149662
820.504774	0.149394
820.694720	0.149472
820.884647	0.149390
821.074557	0.149675
821.264448	0.149503
821.454321	0.149723
821.644176	0.149983
821.834012	0.150336
822.023831	0.150512
822.213631	0.150798
822.403413	0.151161
822.593176	0.151555
822.782922	0.151456
822.972649	0.151703
823.162358	0.151810
823.352049	0.151725
823.541721	0.151783
823.731376	0.151640
823.921012	0.151634
824.110629	0.151661
824.300229	0.151827
824.489811	0.152230
824.679374	0.152552
824.868919	0.152801
825.058445	0.153250
825.247954	0.153724
825.437444	0.154126
825.626916	0.154652
825.816370	0.154924
826.005806	0.154947
826.195223	0.154908
826.384622	0.154982
826.574003	0.154838
826.763366	0.154903
826.952711	0.154955
827.142037	0.155058
827.331345	0.155132
827.520635	0.155030
827.709906	0.155363
827.899160	0.155375
828.088395	0.155714
828.277612	0.156274
828.466810	0.156484
828.655991	0.156499
828.845153	0.156660
829.034297	0.156794
829.223423	0.156975
829.412531	0.156857
829.601620	0.157371
829.790691	0.157213
829.979744	0.157003
830.168779	0.156896
830.357795	0.157115
830.546793	0.157380
830.735773	0.157346
830.924735	0.157264
831.113679	0.157369
831.302604	0.157190
831.491511	0.157296
831.680400	0.157333
831.869271	0.157481
832.058123	0.157465
832.246957	0.157504
832.435773	0.157570
832.624571	0.157967
832.813351	0.158395
833.002112	0.158650
833.190855	0.159137
833.379580	0.159380
833.568287	0.159659
833.756975	0.159792
833.945645	0.159832
834.134297	0.160278
834.322931	0.160478
834.511547	0.160361
834.700144	0.160732
834.888723	0.160612
835.077284	0.160786
835.265826	0.161323
835.454351	0.161761
835.642857	0.162094
835.831345	0.162278
836.019815	0.162580
836.208266	0.162991
836.396699	0.163141
836.585114	0.163542
836.773511	0.164105
836.961890	0.164068
837.150250	0.164134
837.338592	0.164293
837.526916	0.164135
837.715222	0.164171
837.903510	0.164183
838.091779	0.164312
838.280030	0.164596
838.468263	0.164554
838.656477	0.164682
838.844674	0.165019
839.032852	0.165328
839.221012	0.165792
839.409153	0.165954
839.597277	0.166192
839.785382	0.166248
839.973469	0.166480
840.161538	0.166523
840.349589	0.166843
840.537621	0.167019
840.725635	0.167015
840.913631	0.166921
841.101609	0.167326
841.289568	0.167797
841.477509	0.168023
841.665432	0.168190
841.853337	0.168568
842.041224	0.168714
842.229092	0.168895
842.416942	0.169278
842.604774	0.169843
842.792588	0.169994
842.980383	0.170241
843.168160	0.170708
843.355919	0.170883
843.543660	0.171023
843.731382	0.171255
843.919087	0.171518
844.106773	0.171526
844.294441	0.171583
844.482090	0.172034
844.669722	0.172026
844.857335	0.171851
845.044930	0.172159
845.232507	0.172619
845.420065	0.172797
845.607605	0.172865
845.795127	0.173116
845.982631	0.173379
846.170117	0.173506
846.357584	0.173555
846.545033	0.173878
846.732464	0.173869
846.919877	0.173845
847.107272	0.173985
847.294648	0.174181
847.482006	0.174431
847.669346	0.174381
847.856667	0.174249
848.043971	0.174663
848.231256	0.174857
848.418523	0.174573
848.605771	0.174599
848.793002	0.174755
848.980214	0.174640
849.167408	0.174512
849.354584	0.174767
849.541742	0.175197
849.728881	0.174984
849.916002	0.175245
850.103105	0.175622
850.290190	0.175892
850.477256	0.176316
850.664304	0.176833
850.851334	0.177183
851.038346	0.177259
851.225340	0.177213
851.412315	0.177682
851.599272	0.177760
851.786211	0.178096
851.973132	0.178338
852.160034	0.178427
852.346918	0.178674
852.533784	0.178851
852.720632	0.179381
852.907462	0.179747
853.094273	0.179873
853.281066	0.179859
853.467841	0.180211
853.654598	0.180160
853.841336	0.180443
854.028056	0.180532
854.214758	0.180868
854.401442	0.181190
854.588107	0.181388
854.774755	0.181449
854.961384	0.181751
855.147995	0.181514
855.334587	0.181959
855.521162	0.181965
855.707718	0.182158
855.894256	0.182293
856.080775	0.182156
856.267277	0.182013
856.453760	0.182148
856.640225	0.182551
856.826672	0.182912
857.013101	0.182953
857.199511	0.182862
857.385903	0.183043
857.572277	0.182972
857.758633	0.183198
857.944970	0.183519
858.131290	0.183558
858.317591	0.183269
858.503873	0.183438
858.690138	0.183349
858.876384	0.183603
859.062612	0.183627
859.248822	0.183927
859.435014	0.183746
859.621188	0.183710
859.807343	0.184032
859.993480	0.184670
860.179599	0.185066
860.365699	0.185557
860.551781	0.185651
860.737846	0.185866
860.923891	0.186187
861.109919	0.186456
861.295929	0.187164
861.481920	0.187657
861.667893	0.187613
861.853848	0.187573
862.039784	0.187652
862.225702	0.188124
862.411603	0.188264
862.597484	0.188553
862.783348	0.188887
862.969193	0.188943
863.155021	0.188959
863.340830	0.189332
863.526620	0.189801
863.712393	0.190193
863.898147	0.190383
864.083883	0.190619
864.269601	0.190639
864.455301	0.190707
864.640982	0.190863
864.826645	0.190853
865.012290	0.191071
865.197917	0.191072
865.383526	0.190843
865.569116	0.190962
865.754688	0.191092
865.940242	0.190898
866.125777	0.191065
866.311295	0.191011
866.496794	0.191422
866.682275	0.191526
866.867737	0.191588
867.053182	0.191949
867.238608	0.192280
867.424016	0.192113
867.609406	0.192692
867.794778	0.192869
867.980131	0.192443
868.165466	0.192287
868.350783	0.192099
868.536082	0.192038
868.721362	0.191916
868.906625	0.191684
869.091869	0.191775
869.277094	0.191505
869.462302	0.192151
869.647491	0.192652
869.832662	0.192984
870.017815	0.192826
870.202950	0.193209
870.388066	0.193700
870.573165	0.193882
870.758245	0.194248
870.943306	0.194683
871.128350	0.194594
871.313375	0.194784
871.498382	0.194847
871.683371	0.195300
871.868342	0.195621
872.053294	0.195569
872.238229	0.195616
872.423144	0.195897
872.608042	0.195719
872.792922	0.195616
872.977783	0.196141
873.162626	0.196278
873.347451	0.196424
873.532258	0.196361
873.717046	0.196863
873.901816	0.196950
874.086568	0.197113
874.271302	0.197353
874.456017	0.197535
874.640715	0.197404
874.825394	0.197329
875.010055	0.197603
875.194697	0.197846
875.379322	0.197373
875.563928	0.197735
875.748516	0.197938
875.933085	0.198225
876.117637	0.198258
876.302170	0.198603
876.486685	0.198764
876.671182	0.198541
876.855661	0.198405
877.040121	0.198704
877.224563	0.198641
877.408987	0.199142
877.593393	0.199446
877.777780	0.199669
877.962150	0.199413
878.146501	0.199777
878.330833	0.200310
878.515148	0.200569
878.699444	0.200741
878.883722	0.200940
879.067982	0.200350
879.252224	0.200059
879.436447	0.199709
879.620653	0.199852
879.804840	0.199465
879.989008	0.199277
880.173159	0.198987
880.357291	0.198909
880.541405	0.198889
880.725501	0.199066
880.909579	0.199009
881.093638	0.198873
881.277680	0.198878
881.461703	0.199131
881.645707	0.198797
881.829694	0.199164
882.013662	0.199195
882.197612	0.199079
882.381544	0.199121
882.565458	0.199410
882.749353	0.199656
882.933230	0.199650
883.117089	0.199585
883.300930	0.199848
883.484753	0.199815
883.668557	0.199967
883.852343	0.200443
884.036111	0.200532
884.219861	0.200419
884.403592	0.200643
884.587305	0.200611
884.771000	0.200873
884.954677	0.200905
885.138335	0.200928
885.321976	0.201067
885.505598	0.200869
885.689201	0.201029
885.872787	0.201306
886.056354	0.201122
886.239904	0.201155
886.423434	0.201137
886.606947	0.201198
886.790442	0.201227
886.973918	0.201245
887.157376	0.201227
887.340816	0.201080
887.524237	0.200980
887.707641	0.201313
887.891026	0.201388
888.074393	0.201026
888.257741	0.201520
888.441072	0.201470
888.624384	0.201648
888.807678	0.201877
888.990954	0.202346
889.174211	0.202611
889.357451	0.202914
889.540672	0.203162
889.723875	0.203848
889.907059	0.203496
890.090226	0.203690
890.273374	0.203511
890.456504	0.203358
890.639616	0.202882
890.822709	0.202700
891.005785	0.202644
891.188842	0.202642
891.371881	0.202906
891.554901	0.203113
891.737904	0.202790
891.920888	0.203183
892.103854	0.202907
892.286802	0.203115
892.469731	0.203707
892.652643	0.203722
892.835536	0.204035
893.018410	0.203593
893.201267	0.203629
893.384106	0.203707
893.566926	0.203476
893.749728	0.203881
893.932511	0.203851
894.115277	0.203300
894.298024	0.203087
894.480753	0.202262
894.663464	0.202506
894.846157	0.202223
895.028831	0.202497
895.211487	0.202157
895.394125	0.202251
895.576745	0.201986
895.759346	0.201778
895.941930	0.201621
896.124495	0.202285
896.307041	0.202339
896.489570	0.202147
896.672080	0.202281
896.854573	0.202018
897.037046	0.201887
897.219502	0.202085
897.401940	0.202247
897.584359	0.202401
897.766760	0.202025
897.949143	0.201765
898.131507	0.202111
898.313854	0.201620
898.496182	0.201821
898.678492	0.201780
898.860783	0.202009
899.043057	0.201731
899.225312	0.201752
899.407549	0.201629
899.589768	0.201142
899.771968	0.200741
899.954151	0.200669
900.136315	0.200553
900.318461	0.200429
900.500588	0.199662
900.682698	0.199662
900.864789	0.199258
901.046862	0.198998
901.228917	0.198800
901.410953	0.198318
901.592971	0.198160
901.774972	0.197942
901.956953	0.197383
902.138917	0.196930
902.320862	0.196603
902.502790	0.196582
902.684699	0.196603
902.866589	0.196681
903.048462	0.196730
903.230316	0.196005
903.412152	0.196176
903.593970	0.196340
903.775770	0.196514
903.957551	0.196218
904.139314	0.195506
904.321059	0.195087
904.502786	0.194529
904.684494	0.194145
904.866185	0.194267
905.047857	0.193338
905.229510	0.192691
905.411146	0.192304
905.592763	0.192242
905.774363	0.192196
905.955943	0.191809
906.137506	0.191838
906.319051	0.192046
906.500577	0.191508
906.682085	0.191895
906.863575	0.191738
907.045046	0.191922
907.226500	0.191749
907.407935	0.191492
907.589352	0.191872
907.770750	0.191810
907.952131	0.191471
908.133493	0.192069
908.314837	0.191828
908.496163	0.191968
908.677470	0.191522
908.858760	0.190848
909.040031	0.190748
909.221284	0.190455
909.402518	0.190099
909.583735	0.189579
909.764933	0.188746
909.946113	0.188488
910.127275	0.187986
910.308418	0.187733
910.489544	0.188060
910.670651	0.188074
910.851740	0.187581
911.032810	0.187167
911.213863	0.187125
911.394897	0.187060
911.575913	0.186550
911.756911	0.186298
911.937890	0.186074
912.118851	0.185779
912.299794	0.185443
912.480719	0.185149
912.661626	0.184962
912.842514	0.184506
913.023384	0.184398
913.204236	0.184112
913.385070	0.184038
913.565886	0.183427
913.746683	0.183092
913.927462	0.182438
914.108223	0.181866
914.288965	0.181728
914.469690	0.182121
914.650396	0.182002
914.831084	0.181899
915.011754	0.181447
915.192405	0.181635
915.373038	0.181178
915.553653	0.181070
915.734250	0.180661
915.914829	0.180390
916.095389	0.179601
916.275931	0.178813
916.456455	0.178089
916.636961	0.177466
916.817448	0.176863
916.997917	0.176570
917.178368	0.176061
917.358801	0.176114
917.539216	0.175816
917.719612	0.175641
917.899990	0.175947
918.080350	0.175641
918.260692	0.175038
918.441015	0.174839
918.621320	0.174432
918.801607	0.174247
918.981876	0.174280
919.162127	0.173631
919.342359	0.173105
919.522573	0.172710
919.702769	0.172624
919.882947	0.173003
920.063106	0.172595
920.243247	0.172361
920.423370	0.171723
920.603475	0.170848
920.783562	0.170403
920.963630	0.169934
921.143680	0.169263
921.323712	0.168588
921.503725	0.167912
921.683721	0.167266
921.863698	0.166478
922.043657	0.165893
922.223598	0.165125
922.403520	0.164674
922.583424	0.164533
922.763311	0.164092
922.943178	0.163898
923.123028	0.163950
923.302859	0.163554
923.482673	0.163120
923.662467	0.162840
923.842244	0.162176
924.022003	0.161857
924.201743	0.161365
924.381465	0.160414
924.561169	0.159875
924.740854	0.158943
924.920522	0.159240
925.100171	0.158564
925.279802	0.158645
925.459414	0.159528
925.639009	0.159261
925.818585	0.158496
925.998143	0.158823
926.177683	0.158512
926.357205	0.157735
926.536708	0.156214
926.716193	0.155934
926.895660	0.155038
927.075109	0.154229
927.254539	0.154108
927.433951	0.153726
927.613345	0.153309
927.792721	0.152924
927.972079	0.152656
928.151418	0.151473
928.330739	0.151358
928.510042	0.150929
928.689327	0.149685
928.868593	0.149205
929.047841	0.148468
929.227071	0.147649
929.406283	0.146808
929.585476	0.145704
929.764652	0.146341
929.943809	0.146049
930.122948	0.145319
930.302068	0.145299
930.481171	0.144351
930.660255	0.144450
930.839321	0.143571
931.018369	0.143026
931.197398	0.143435
931.376409	0.142993
931.555402	0.142152
931.734377	0.141865
931.913334	0.140946
932.092272	0.139939
932.271192	0.138850
932.450094	0.138251
932.628978	0.138521
932.807844	0.137338
932.986691	0.136388
933.165520	0.135750
933.344331	0.135961
933.523123	0.135598
933.701898	0.135913
933.880654	0.135473
934.059392	0.135041
934.238111	0.134408
934.416813	0.134066
934.595496	0.134591
934.774161	0.134220
934.952808	0.133009
935.131437	0.132804
935.310047	0.131723
935.488639	0.131263
935.667213	0.130770
935.845769	0.130462
936.024306	0.130274
936.202825	0.128868
936.381326	0.128428
936.559809	0.127777
936.738274	0.126738
936.916720	0.125694
937.095148	0.125078
937.273558	0.124749
937.451950	0.123487
937.630323	0.123036
937.808678	0.122851
937.987015	0.121687
938.165334	0.121603
938.343635	0.121859
938.521917	0.122810
938.700181	0.122125
938.878427	0.120926
939.056655	0.119984
939.234864	0.119580
939.413055	0.118386
939.591228	0.118317
939.769383	0.118572
939.947519	0.117918
940.125638	0.115718
940.303738	0.115778
940.481820	0.115960
940.659883	0.116114
940.837929	0.115246
941.015956	0.115263
941.193965	0.114942
941.371955	0.113621
941.549928	0.112619
941.727882	0.113214
941.905818	0.111911
942.083736	0.111364
942.261636	0.110545
942.439517	0.109773
942.617380	0.109690
942.795225	0.109167
942.973052	0.109102
943.150860	0.108228
943.328651	0.106541
943.506423	0.106175
943.684176	0.105926
943.861912	0.105365
944.039629	0.104857
944.217328	0.103217
944.395009	0.102924
944.572672	0.101434
944.750317	0.101237
944.927943	0.102023
945.105551	0.101537
945.283141	0.101436
945.460712	0.100690
945.638265	0.099573
945.815801	0.099492
945.993317	0.099544
946.170816	0.098935
946.348297	0.099077
946.525759	0.098154
946.703203	0.098043
946.880629	0.097364
947.058036	0.097981
947.235425	0.098571
947.412797	0.097797
947.590149	0.096952
947.767484	0.097076
947.944800	0.096756
948.122099	0.096437
948.299379	0.096182
948.476640	0.095459
948.653884	0.094614
948.831109	0.094776
949.008316	0.095234
949.185505	0.094904
949.362676	0.094940
949.539828	0.094270
949.716962	0.094094
949.894078	0.092741
950.071176	0.092760
950.248256	0.092646
950.425317	0.092121
950.602360	0.090921
950.779385	0.089125
950.956391	0.087454
951.133380	0.087026
951.310350	0.087413
951.487302	0.089022
951.664235	0.089019
951.841151	0.089032
952.018048	0.088791
952.194927	0.089586
952.371788	0.091038
952.548631	0.091514
952.725455	0.092051
952.902261	0.092566
953.079049	0.092015
953.255819	0.090721
953.432570	0.089755
953.609303	0.089618
953.786018	0.087986
953.962715	0.087806
954.139394	0.087603
954.316054	0.085662
954.492696	0.083959
954.669320	0.083581
954.845926	0.082234
955.022513	0.081686
955.199083	0.080535
955.375634	0.082584
955.552166	0.082262
955.728681	0.082204
955.905177	0.083057
956.081655	0.082160
956.258115	0.082260
956.434557	0.084328
956.610980	0.084728
956.787385	0.084761
956.963772	0.082468
957.140141	0.082807
957.316492	0.083449
957.492824	0.084136
957.669138	0.085162
957.845434	0.084463
958.021712	0.083071
958.197971	0.082593
958.374212	0.082617
958.550435	0.083071
958.726640	0.081063
958.902826	0.080739
959.078995	0.080171
959.255145	0.079457
959.431277	0.077628
959.607390	0.078479
959.783486	0.079042
959.959563	0.078524
960.135622	0.079584
960.311662	0.081395
960.487685	0.081619
960.663689	0.081461
960.839675	0.080072
961.015643	0.082031
961.191593	0.081497
961.367524	0.081083
961.543437	0.081763
961.719332	0.080171
961.895209	0.078344
962.071067	0.077306
962.246907	0.077703
962.422730	0.079196
962.598533	0.078730
962.774319	0.080219
962.950086	0.080923
963.125835	0.080705
963.301566	0.081615
963.477279	0.083108
963.652973	0.084124
963.828650	0.085540
964.004308	0.084969
964.179947	0.085231
964.355569	0.083392
964.531172	0.082729
964.706757	0.083745
964.882324	0.085638
965.057873	0.084517
965.233403	0.082739
965.408916	0.080211
965.584410	0.080794
965.759885	0.080761
965.935343	0.082231
966.110782	0.081882
966.286203	0.082501
966.461606	0.081177
966.636991	0.081454
966.812357	0.082864
966.987705	0.082987
967.163035	0.084493
967.338347	0.084960
967.513641	0.084593
967.688916	0.087593
967.864173	0.086406
968.039412	0.084198
968.214632	0.085509
968.389835	0.083456
968.565019	0.084561
968.740185	0.086535
968.915333	0.086116
969.090462	0.086543
969.265573	0.083584
969.440667	0.085048
969.615741	0.089319
969.790798	0.088550
969.965836	0.089955
970.140856	0.089470
970.315858	0.086455
970.490842	0.085492
970.665808	0.083427
970.840755	0.082069
971.015684	0.080169
971.190595	0.078823
971.365487	0.077640
971.540362	0.075906
971.715218	0.076098
971.890056	0.076138
972.064875	0.077340
972.239677	0.080066
972.414460	0.081673
972.589225	0.081300
972.763972	0.079263
972.938700	0.079026
973.113411	0.080548
973.288103	0.080617
973.462777	0.080279
973.637432	0.081411
973.812070	0.079431
973.986689	0.079284
974.161290	0.081749
974.335873	0.083839
974.510437	0.085997
974.684984	0.085895
974.859512	0.086629
975.034022	0.086598
975.208513	0.084415
975.382987	0.085828
975.557442	0.086684
975.731879	0.084168
975.906298	0.083397
976.080698	0.085531
976.255080	0.086447
976.429445	0.084555
976.603790	0.084716
976.778118	0.085693
976.952427	0.084367
977.126719	0.083405
977.300992	0.083067
977.475246	0.082389
977.649483	0.079377
977.823701	0.078703
977.997901	0.081193
978.172083	0.082292
978.346247	0.083477
978.520392	0.083469
978.694519	0.082688
978.868628	0.084250
979.042719	0.085669
979.216791	0.085369
979.390845	0.084564
979.564882	0.082864
979.738899	0.081972
979.912899	0.080598
980.086880	0.080489
980.260843	0.082329
980.434788	0.080540
980.608715	0.081369
980.782623	0.081895
980.956514	0.082813
981.130386	0.081592
981.304240	0.082258
981.478075	0.082905
981.651892	0.082114
981.825692	0.082809
981.999472	0.084764
982.173235	0.082985
982.346980	0.083029
982.520706	0.083289
982.694414	0.084313
982.868104	0.082442
983.041775	0.082112
983.215428	0.082475
983.389064	0.083281
983.562680	0.083078
983.736279	0.085385
983.909860	0.083531
984.083422	0.081741
984.256966	0.082878
984.430491	0.083322
984.603999	0.084018
984.777488	0.084461
984.950959	0.083339
985.124412	0.082741
985.297847	0.081735
985.471263	0.082378
985.644661	0.084999
985.818041	0.086002
985.991403	0.089034
986.164747	0.087385
986.338072	0.088231
986.511379	0.087849
986.684668	0.086847
986.857938	0.086078
987.031191	0.088108
987.204425	0.085683
987.377641	0.085184
987.550839	0.081957
987.724018	0.083917
987.897179	0.082551
988.070322	0.082441
988.243447	0.084556
988.416554	0.086347
988.589642	0.085863
988.762712	0.087708
988.935764	0.084795
989.108798	0.085457
989.281813	0.085493
989.454811	0.086101
989.627790	0.084760
989.800751	0.084799
989.973693	0.083116
990.146617	0.082819
990.319524	0.084503
990.492412	0.085634
990.665281	0.087112
990.838133	0.085690
991.010966	0.086735
991.183781	0.088025
991.356578	0.087140
991.529356	0.087414
991.702117	0.085599
991.874859	0.085316
992.047583	0.085787
992.220288	0.084468
992.392976	0.086224
992.565645	0.086114
992.738296	0.086402
992.910929	0.086327
993.083543	0.084622
993.256139	0.087254
993.428718	0.084975
993.601277	0.085496
993.773819	0.085212
993.946342	0.085996
994.118848	0.085782
994.291335	0.084756
994.463803	0.084397
994.636254	0.086061
994.808686	0.085298
994.981100	0.085710
995.153496	0.084243
995.325874	0.084720
995.498233	0.082797
995.670574	0.081400
995.842897	0.081537
996.015202	0.081448
996.187488	0.080538
996.359757	0.078987
996.532007	0.079804
996.704239	0.081249
996.876452	0.080016
997.048648	0.081327
997.220825	0.082820
997.392984	0.083314
997.565124	0.083837
997.737247	0.084285
997.909351	0.086078
998.081437	0.086645
998.253505	0.085950
998.425554	0.087608
998.597586	0.085174
998.769599	0.084029
998.941594	0.084060
999.113571	0.083418
999.285529	0.083327
999.457469	0.082689
999.629391	0.080418
999.801295	0.079750
999.973181	0.079382
1000.145048	0.078292
1000.316897	0.078951
1000.488728	0.079681
1000.660541	0.079549
1000.832335	0.077849
1001.004111	0.077608
1001.175869	0.079759
1001.347609	0.080356
1001.519331	0.080154
1001.691034	0.082593
1001.862719	0.080603
1002.034386	0.079549
1002.206035	0.080118
1002.377665	0.082390
1002.549277	0.082069
1002.720871	0.078962
1002.892447	0.079260
1003.064004	0.079871
1003.235544	0.078287
1003.407065	0.080728
1003.578568	0.080459
1003.750052	0.079020
1003.921519	0.078906
1004.092967	0.079581
1004.264397	0.080723
1004.435809	0.079509
1004.607202	0.078978
1004.778577	0.080233
1004.949934	0.078041
1005.121273	0.078293
1005.292594	0.079737
1005.463896	0.078252
1005.635180	0.077566
1005.806446	0.079102
1005.977694	0.080747
1006.148923	0.080618
1006.320135	0.080967
1006.491328	0.081107
1006.662503	0.079076
1006.833659	0.078835
1007.004798	0.079567
1007.175918	0.080519
1007.347020	0.078732
1007.518103	0.077861
1007.689169	0.078007
1007.860216	0.076717
1008.031245	0.078418
1008.202256	0.080201
1008.373248	0.081213
1008.544223	0.082422
1008.715179	0.080743
1008.886117	0.081990
1009.057036	0.081587
1009.227938	0.081701
1009.398821	0.082458
1009.569686	0.080936
1009.740533	0.081190
1009.911361	0.079066
1010.082172	0.077639
1010.252964	0.076998
1010.423738	0.076488
1010.594493	0.075018
1010.765231	0.074576
1010.935950	0.075359
1011.106651	0.076893
1011.277334	0.076390
1011.447998	0.077567
1011.618645	0.077200
1011.789273	0.078253
1011.959882	0.078604
1012.130474	0.079244
1012.301048	0.080051
1012.471603	0.078932
1012.642140	0.079438
1012.812658	0.079304
1012.983159	0.078730
1013.153641	0.079722
1013.324105	0.079678
1013.494551	0.078127
1013.664979	0.079317
1013.835388	0.077920
1014.005779	0.078620
1014.176152	0.076849
1014.346507	0.076312
1014.516843	0.076290
1014.687162	0.076930
1014.857462	0.077021
1015.027744	0.079056
1015.198007	0.077948
1015.368252	0.079220
1015.538480	0.078696
1015.708689	0.078345
1015.878879	0.079334
1016.049052	0.079235
1016.219206	0.078317
1016.389342	0.078997
1016.559460	0.078260
1016.729559	0.078668
1016.899641	0.078917
1017.069704	0.079001
1017.239749	0.081500
1017.409775	0.082200
1017.579784	0.082696
1017.749774	0.083317
1017.919746	0.083982
1018.089700	0.084726
1018.259635	0.084341
1018.429553	0.084110
1018.599452	0.083595
1018.769333	0.081616
1018.939195	0.080649
1019.109040	0.082253
1019.278866	0.079579
1019.448674	0.079591
1019.618464	0.078858
1019.788235	0.079938
1019.957989	0.079072
1020.127724	0.079741
1020.297441	0.080244
1020.467139	0.081139
1020.636820	0.080939
1020.806482	0.081140
1020.976126	0.078313
1021.145752	0.079042
1021.315359	0.080132
1021.484948	0.080793
1021.654519	0.081020
1021.824072	0.080379
1021.993607	0.079468
1022.163123	0.078419
1022.332621	0.080041
1022.502101	0.081064
1022.671563	0.081242
1022.841007	0.080137
1023.010432	0.079811
1023.179839	0.079627
1023.349228	0.079776
1023.518598	0.080097
1023.687951	0.079362
1023.857285	0.079221
1024.026601	0.079879
1024.195899	0.079356
1024.365178	0.079154
1024.534439	0.078358
1024.703682	0.077088
1024.872907	0.076760
1025.042114	0.076685
1025.211302	0.076675
1025.380472	0.075941
1025.549624	0.076362
1025.718758	0.074941
1025.887873	0.075034
1026.056970	0.074882
1026.226049	0.074888
1026.395110	0.073474
1026.564153	0.073661
1026.733177	0.073712
1026.902183	0.074066
1027.071171	0.073888
1027.240141	0.074249
1027.409092	0.073177
1027.578026	0.073474
1027.746940	0.074455
1027.915837	0.077320
1028.084716	0.078406
1028.253576	0.078465
1028.422418	0.078295
1028.591242	0.078092
1028.760048	0.078238
1028.928835	0.079400
1029.097604	0.080457
1029.266355	0.080997
1029.435088	0.079743
1029.603803	0.078346
1029.772499	0.077896
1029.941177	0.079335
1030.109837	0.079542
1030.278478	0.079456
1030.447102	0.078301
1030.615707	0.076751
1030.784294	0.075508
1030.952863	0.074864
1031.121413	0.076004
1031.289945	0.079487
1031.458460	0.078494
1031.626955	0.077126
1031.795433	0.077596
1031.963892	0.077835
1032.132334	0.079753
1032.300756	0.080037
1032.469161	0.081492
1032.637548	0.079395
1032.805916	0.075931
1032.974266	0.077048
1033.142598	0.078693
1033.310911	0.077786
1033.479207	0.078479
1033.647484	0.076244
1033.815743	0.075230
1033.983983	0.074333
1034.152206	0.075046
1034.320410	0.075524
1034.488596	0.074358
1034.656764	0.073662
1034.824914	0.074504
1034.993045	0.072945
1035.161158	0.073865
1035.329253	0.075343
1035.497330	0.075955
1035.665388	0.075225
1035.833428	0.075248
1036.001450	0.076242
1036.169454	0.074802
1036.337440	0.074953
1036.505407	0.076278
1036.673356	0.076514
1036.841287	0.075479
1037.009200	0.074562
1037.177094	0.073069
1037.344970	0.072502
1037.512828	0.071551
1037.680668	0.074056
1037.848489	0.072801
1038.016293	0.072028
1038.184078	0.071842
1038.351845	0.072168
1038.519593	0.072159
1038.687324	0.073270
1038.855036	0.074489
1039.022730	0.074174
1039.190406	0.073653
1039.358063	0.074383
1039.525702	0.075671
1039.693323	0.076794
1039.860926	0.077378
1040.028511	0.078458
1040.196077	0.079373
1040.363625	0.077878
1040.531155	0.078260
1040.698667	0.079145
1040.866161	0.080340
1041.033636	0.080063
1041.201093	0.079674
1041.368532	0.078877
1041.535952	0.078300
1041.703355	0.077588
1041.870739	0.079031
1042.038105	0.078671
1042.205452	0.076743
1042.372782	0.076023
1042.540093	0.075815
1042.707386	0.075961
1042.874661	0.076402
1043.041918	0.075960
1043.209156	0.076583
1043.376376	0.076126
1043.543578	0.075428
1043.710762	0.076506
1043.877927	0.076179
1044.045074	0.076766
1044.212203	0.075307
1044.379314	0.074302
1044.546407	0.074466
1044.713481	0.075273
1044.880537	0.074312
1045.047575	0.076576
1045.214595	0.076700
1045.381596	0.076577
1045.548579	0.076211
1045.715544	0.076148
1045.882491	0.077786
1046.049420	0.077261
1046.216330	0.076997
1046.383222	0.077607
1046.550096	0.076786
1046.716951	0.076014
1046.883789	0.075036
1047.050608	0.077017
1047.217409	0.077734
1047.384192	0.076000
1047.550956	0.077370
1047.717703	0.077229
1047.884431	0.077360
1048.051140	0.075935
1048.217832	0.076162
1048.384505	0.076793
1048.551161	0.073619
1048.717798	0.074731
1048.884416	0.075654
1049.051017	0.074388
1049.217599	0.074404
1049.384163	0.073022
1049.550709	0.072265
1049.717237	0.072592
1049.883746	0.073190
1050.050237	0.073592
1050.216710	0.071672
1050.383165	0.072915
1050.549601	0.072574
1050.716019	0.071456
1050.882420	0.072825
1051.048801	0.073888
1051.215165	0.072179
1051.381510	0.074216
1051.547837	0.074724
1051.714146	0.074764
1051.880437	0.071594
1052.046709	0.072938
1052.212964	0.072583
1052.379200	0.071616
1052.545417	0.072402
1052.711617	0.074486
1052.877798	0.071433
1053.043961	0.069902
1053.210106	0.070353
1053.376233	0.072254
1053.542341	0.072366
1053.708432	0.073039
1053.874504	0.073484
1054.040557	0.072520
1054.206593	0.070446
1054.372610	0.070426
1054.538609	0.071535
1054.704590	0.072081
1054.870553	0.070847
1055.036497	0.070337
1055.202424	0.069587
1055.368331	0.071708
1055.534221	0.073101
1055.700093	0.073566
1055.865946	0.074726
1056.031781	0.074892
1056.197598	0.074057
1056.363397	0.074505
1056.529177	0.074708
1056.694939	0.076310
1056.860683	0.072678
1057.026409	0.072298
1057.192116	0.071766
1057.357806	0.072105
1057.523477	0.072459
1057.689130	0.071732
1057.854764	0.073161
1058.020381	0.071814
1058.185979	0.070934
1058.351559	0.072846
1058.517120	0.071328
1058.682664	0.071249
1058.848189	0.069839
1059.013696	0.068162
1059.179185	0.069121
1059.344656	0.068293
1059.510108	0.069179
1059.675542	0.067563
1059.840958	0.068374
1060.006356	0.068675
1060.171735	0.068914
1060.337096	0.069983
1060.502439	0.069899
1060.667764	0.071667
1060.833071	0.071696
1060.998359	0.070200
1061.163629	0.072533
1061.328881	0.071322
1061.494115	0.071723
1061.659330	0.071881
1061.824527	0.071133
1061.989706	0.071155
1062.154867	0.068066
1062.320010	0.070297
1062.485134	0.070864
1062.650240	0.069680
1062.815328	0.071108
1062.980398	0.069773
1063.145449	0.069800
1063.310482	0.069634
1063.475497	0.071547
1063.640494	0.073877
1063.805473	0.070660
1063.970433	0.072692
1064.135375	0.072885
1064.300299	0.072352
1064.465204	0.075270
1064.630092	0.075313
1064.794961	0.076081
1064.959812	0.074413
1065.124645	0.073465
1065.289459	0.073358
1065.454256	0.071641
1065.619034	0.071035
1065.783793	0.070140
1065.948535	0.067831
1066.113258	0.070105
1066.277964	0.069011
1066.442651	0.070728
1066.607319	0.071118
1066.771970	0.071351
1066.936602	0.071679
1067.101216	0.072299
1067.265812	0.071456
1067.430389	0.072278
1067.594949	0.070855
1067.759490	0.071495
1067.924013	0.070638
1068.088518	0.070117
1068.253004	0.072400
1068.417472	0.071451
1068.581922	0.071992
1068.746354	0.074088
1068.910768	0.073270
1069.075163	0.072778
1069.239540	0.071845
1069.403899	0.071934
1069.568240	0.072468
1069.732562	0.071255
1069.896866	0.070644
1070.061152	0.070895
1070.225420	0.068714
1070.389670	0.071326
1070.553901	0.071799
1070.718114	0.073897
1070.882309	0.073430
1071.046486	0.069573
1071.210644	0.068846
1071.374784	0.070360
1071.538906	0.068432
1071.703010	0.071293
1071.867096	0.070036
1072.031163	0.069709
1072.195212	0.069462
1072.359243	0.069718
1072.523256	0.071952
1072.687250	0.072163
1072.851226	0.071950
1073.015184	0.073162
1073.179124	0.071206
1073.343045	0.070845
1073.506949	0.072295
1073.670834	0.070903
1073.834701	0.070824
1073.998549	0.071262
1074.162380	0.071049
1074.326192	0.072228
1074.489986	0.072984
1074.653761	0.075134
1074.817519	0.073787
1074.981258	0.074415
1075.144979	0.074806
1075.308682	0.075197
1075.472367	0.076709
1075.636033	0.074720
1075.799681	0.073864
1075.963311	0.075484
1076.126923	0.073669
1076.290516	0.074884
1076.454092	0.072253
1076.617649	0.071161
1076.781187	0.073048
1076.944708	0.073428
1077.108210	0.075972
1077.271695	0.076033
1077.435160	0.073612
1077.598608	0.073483
1077.762038	0.072357
1077.925449	0.072529
1078.088842	0.072684
1078.252217	0.070718
1078.415573	0.068908
1078.578912	0.070004
1078.742232	0.072506
1078.905534	0.073854
1079.068817	0.073087
1079.232083	0.073369
1079.395330	0.073385
1079.558559	0.072918
1079.721770	0.073335
1079.884962	0.076749
1080.048136	0.074421
1080.211293	0.071946
1080.374430	0.071312
1080.537550	0.073636
1080.700651	0.075277
1080.863735	0.075216
1081.026800	0.074319
1081.189846	0.073029
1081.352875	0.068893
1081.515885	0.071266
1081.678877	0.073700
1081.841851	0.074843
1082.004807	0.073917
1082.167744	0.072875
1082.330663	0.073541
1082.493564	0.075506
1082.656447	0.078635
1082.819312	0.077725
1082.982158	0.073139
1083.144986	0.071558
1083.307796	0.071602
1083.470587	0.070707
1083.633361	0.069310
1083.796116	0.068052
1083.958853	0.068232
1084.121571	0.065747
1084.284272	0.069091
1084.446954	0.072747
1084.609618	0.070286
1084.772264	0.068179
1084.934892	0.067662
1085.097501	0.068282
1085.260092	0.068101
1085.422665	0.069362
1085.585220	0.071376
1085.747756	0.070337
1085.910274	0.069296
1086.072774	0.070386
1086.235256	0.072395
1086.397720	0.073209
1086.560165	0.073640
1086.722592	0.074910
1086.885001	0.074310
1087.047392	0.074084
1087.209764	0.072876
1087.372119	0.075155
1087.534455	0.076004
1087.696772	0.075894
1087.859072	0.074422
1088.021353	0.076861
1088.183616	0.077138
1088.345861	0.077758
1088.508088	0.077760
1088.670296	0.080138
1088.832486	0.080468
1088.994658	0.080841
1089.156812	0.082027
1089.318948	0.083238
1089.481065	0.080555
1089.643164	0.078904
1089.805245	0.077513
1089.967308	0.075445
1090.129352	0.075599
1090.291378	0.074951
1090.453386	0.074872
1090.615376	0.069446
1090.777347	0.071653
1090.939301	0.070748
1091.101236	0.073260
1091.263153	0.073007
1091.425051	0.074434
1091.586932	0.073235
1091.748794	0.072840
1091.910638	0.069950
1092.072463	0.074774
1092.234271	0.073300
1092.396060	0.073309
1092.557831	0.072268
1092.719584	0.073156
1092.881319	0.072902
1093.043035	0.074346
1093.204733	0.073968
1093.366413	0.077214
1093.528075	0.072828
1093.689718	0.073389
1093.851343	0.075063
1094.012950	0.076626
1094.174539	0.076976
1094.336110	0.075849
1094.497662	0.073140
1094.659196	0.072974
1094.820712	0.073091
1094.982210	0.075494
1095.143689	0.075434
1095.305151	0.077577
1095.466594	0.076967
1095.628018	0.075681
1095.789425	0.075988
1095.950813	0.075764
1096.112183	0.074780
1096.273535	0.072938
1096.434869	0.071617
1096.596184	0.073403
1096.757482	0.072010
1096.918761	0.070820
1097.080021	0.069718
1097.241264	0.070102
1097.402488	0.069810
1097.563694	0.068202
1097.724882	0.065947
1097.886052	0.067561
1098.047203	0.067205
1098.208336	0.066463
1098.369451	0.066719
1098.530548	0.068870
1098.691627	0.069836
1098.852687	0.071942
1099.013729	0.074509
1099.174753	0.079582
1099.335758	0.080003
1099.496746	0.075292
1099.657715	0.075546
1099.818666	0.074871
1099.979599	0.073414
1100.140513	0.072310
1100.301409	0.067933
1100.462287	0.066590
1100.623147	0.061318
1100.783989	0.060479
1100.944812	0.063566
1101.105617	0.063750
1101.266404	0.064178
1101.427173	0.065382
1101.587923	0.065158
1101.748656	0.070348
1101.909370	0.074252
1102.070066	0.077147
1102.230743	0.076187
1102.391403	0.075257
1102.552044	0.074998
1102.712667	0.073303
1102.873271	0.072820
1103.033858	0.071081
1103.194426	0.070963
1103.354976	0.064787
1103.515508	0.065242
1103.676021	0.064622
1103.836517	0.064260
1103.996994	0.060545
1104.157453	0.060702
1104.317893	0.058597
1104.478316	0.059356
1104.638720	0.056807
1104.799106	0.059491
1104.959474	0.059748
1105.119823	0.061540
1105.280155	0.061159
1105.440468	0.062160
1105.600763	0.064079
1105.761039	0.066258
1105.921298	0.064921
1106.081538	0.066928
1106.241760	0.068662
1106.401964	0.067315
1106.562149	0.066570
1106.722316	0.069641
1106.882465	0.070589
1107.042596	0.065713
1107.202709	0.063664
1107.362803	0.063994
1107.522879	0.063650
1107.682937	0.059732
1107.842977	0.060884
1108.002999	0.063596
1108.163002	0.059846
1108.322987	0.061606
1108.482954	0.065745
1108.642902	0.070894
1108.802833	0.074441
1108.962745	0.073331
1109.122639	0.077347
1109.282515	0.080604
1109.442372	0.074250
1109.602211	0.073886
1109.762032	0.072944
1109.921835	0.073689
1110.081620	0.071393
1110.241386	0.066905
1110.401134	0.064387
1110.560864	0.063437
1110.720576	0.059323
1110.880269	0.061613
1111.039945	0.061460
1111.199602	0.059204
1111.359240	0.054666
1111.518861	0.056583
1111.678463	0.060875
1111.838047	0.065032
1111.997613	0.063969
1112.157161	0.061850
1112.316690	0.064558
1112.476202	0.064928
1112.635695	0.070106
1112.795169	0.070671
1112.954626	0.069762
1113.114064	0.068467
1113.273484	0.064470
1113.432886	0.063113
1113.592270	0.066846
1113.751635	0.065809
1113.910983	0.068461
1114.070312	0.065579
1114.229622	0.065781
1114.388915	0.062276
1114.548189	0.064210
1114.707445	0.068261
1114.866683	0.069147
1115.025903	0.065642
1115.185104	0.064982
1115.344287	0.063744
1115.503452	0.062063
1115.662599	0.064224
1115.821727	0.063569
1115.980838	0.059464
1116.139930	0.059044
1116.299004	0.061229
1116.458059	0.063647
1116.617097	0.064934
1116.776116	0.060336
1116.935117	0.062990
1117.094099	0.063948
1117.253064	0.065893
1117.412010	0.068597
1117.570938	0.067794
1117.729848	0.068602
1117.888740	0.069255
1118.047613	0.070912
1118.206468	0.070797
1118.365305	0.067233
1118.524124	0.069526
1118.682924	0.068878
1118.841707	0.064134
1119.000471	0.065768
1119.159216	0.065883
1119.317944	0.060308
1119.476653	0.057674
1119.635344	0.063623
1119.794017	0.065024
1119.952672	0.064694
1120.111308	0.062997
1120.269927	0.064248
1120.428527	0.063198
1120.587108	0.062719
1120.745672	0.066554
1120.904217	0.065568
1121.062744	0.066530
1121.221253	0.062875
1121.379744	0.059474
1121.538216	0.061402
1121.696671	0.068340
1121.855107	0.066714
1122.013524	0.063589
1122.171924	0.066178
1122.330305	0.067831
1122.488668	0.066919
1122.647013	0.072469
1122.805340	0.073025
1122.963648	0.071118
1123.121938	0.068729
1123.280210	0.067092
1123.438464	0.067918
1123.596700	0.069595
1123.754917	0.068874
1123.913116	0.067995
1124.071297	0.067951
1124.229459	0.064843
1124.387604	0.066556
1124.545730	0.063541
1124.703838	0.066251
1124.861928	0.068824
1125.019999	0.065529
1125.178052	0.062993
1125.336088	0.059601
1125.494104	0.057384
1125.652103	0.061452
1125.810083	0.060831
1125.968045	0.060070
1126.125989	0.059016
1126.283915	0.056991
1126.441823	0.059349
1126.599712	0.060939
1126.757583	0.064109
1126.915436	0.064569
1127.073270	0.063593
1127.231087	0.063648
1127.388885	0.063522
1127.546665	0.066410
1127.704426	0.063185
1127.862170	0.060161
1128.019895	0.061752
1128.177602	0.056546
1128.335291	0.054169
1128.492961	0.056602
1128.650614	0.058636
1128.808248	0.058177
1128.965864	0.055307
1129.123461	0.056493
1129.281041	0.055523
1129.438602	0.050709
1129.596145	0.052027
1129.753670	0.055144
1129.911176	0.050308
1130.068665	0.052041
1130.226135	0.050538
1130.383587	0.048969
1130.541020	0.050511
1130.698436	0.049780
1130.855833	0.051679
1131.013212	0.053859
1131.170573	0.052618
1131.327915	0.057120
1131.485239	0.055122
1131.642545	0.055228
1131.799833	0.053867
1131.957103	0.053604
1132.114354	0.057238
1132.271588	0.061772
1132.428803	0.062820
1132.585999	0.063522
1132.743178	0.059567
1132.900338	0.064176
1133.057480	0.069505
1133.214604	0.072995
1133.371710	0.072755
1133.528797	0.069242
1133.685866	0.062488
1133.842917	0.062196
1133.999950	0.061908
1134.156964	0.063527
1134.313960	0.051548
1134.470938	0.048056
1134.627898	0.047105
1134.784840	0.046713
1134.941763	0.046447
1135.098668	0.051648
1135.255555	0.051680
1135.412424	0.053948
1135.569274	0.053046
1135.726107	0.064265
1135.882921	0.062856
1136.039716	0.062711
1136.196494	0.059121
1136.353253	0.059891
1136.509995	0.057346
1136.666717	0.055124
1136.823422	0.056752
1136.980109	0.061746
1137.136777	0.054253
1137.293427	0.052472
1137.450059	0.051310
1137.606672	0.055584
1137.763267	0.055036
1137.919844	0.053063
1138.076403	0.053660
1138.232944	0.054272
1138.389466	0.048085
1138.545971	0.050597
1138.702457	0.057197
1138.858924	0.056920
1139.015374	0.059068
1139.171805	0.066499
1139.328218	0.066085
1139.484613	0.066574
1139.640990	0.063820
1139.797348	0.068170
1139.953688	0.070744
1140.110010	0.063409
1140.266314	0.063804
1140.422600	0.063839
1140.578867	0.056907
1140.735116	0.060678
1140.891347	0.062104
1141.047559	0.064007
1141.203754	0.060838
1141.359930	0.058961
1141.516088	0.062950
1141.672228	0.061931
1141.828349	0.058833
1141.984452	0.062265
1142.140537	0.061319
1142.296604	0.061406
1142.452653	0.061827
1142.608683	0.058922
1142.764695	0.055507
1142.920689	0.054656
1143.076665	0.054773
1143.232622	0.052963
1143.388562	0.050075
1143.544483	0.046966
1143.700385	0.045012
1143.856270	0.041732
1144.012136	0.044407
1144.167985	0.045495
1144.323814	0.044914
1144.479626	0.048703
1144.635420	0.050876
1144.791195	0.052358
1144.946952	0.055260
1145.102691	0.056598
1145.258411	0.059335
1145.414113	0.054562
1145.569798	0.054609
1145.725463	0.055901
1145.881111	0.055422
1146.036741	0.050042
1146.192352	0.043567
1146.347945	0.043616
1146.503519	0.041208
1146.659076	0.036875
1146.814614	0.038709
1146.970134	0.036276
1147.125636	0.039232
1147.281120	0.038385
1147.436585	0.041440
1147.592032	0.043632
1147.747461	0.044201
1147.902872	0.045626
1148.058265	0.043985
1148.213639	0.044500
1148.368995	0.050599
1148.524333	0.051571
1148.679653	0.051283
1148.834954	0.049835
1148.990237	0.053659
1149.145502	0.048181
1149.300749	0.052555
1149.455977	0.054392
1149.611188	0.064371
1149.766380	0.060289
1149.921553	0.053903
1150.076709	0.049800
1150.231846	0.049936
1150.386966	0.045960
1150.542066	0.052680
1150.697149	0.046946
1150.852214	0.048890
1151.007260	0.040194
1151.162288	0.038719
1151.317298	0.039701
1151.472289	0.045095
1151.627263	0.050664
1151.782218	0.051812
1151.937155	0.050114
1152.092073	0.048646
1152.246974	0.047620
1152.401856	0.045165
1152.556720	0.047430
1152.711566	0.050625
1152.866393	0.053342
1153.021203	0.050735
1153.175994	0.049454
1153.330767	0.047817
1153.485521	0.046003
1153.640258	0.045169
1153.794976	0.049303
1153.949676	0.046376
1154.104358	0.051371
1154.259021	0.049042
1154.413667	0.048733
1154.568294	0.053901
1154.722903	0.054290
1154.877493	0.052011
1155.032066	0.053180
1155.186620	0.056703
1155.341156	0.063800
1155.495674	0.060897
1155.650173	0.047656
1155.804654	0.042121
1155.959118	0.035856
1156.113562	0.040232
1156.267989	0.044800
1156.422397	0.043637
1156.576788	0.037245
1156.731160	0.041277
1156.885513	0.038362
1157.039849	0.052559
1157.194166	0.059703
1157.348465	0.061481
1157.502746	0.056699
1157.657009	0.059179
1157.811253	0.058569
1157.965479	0.060935
1158.119687	0.051606
1158.273877	0.050836
1158.428048	0.048094
1158.582201	0.044984
1158.736337	0.045426
1158.890453	0.048480
1159.044552	0.042355
1159.198632	0.044331
1159.352694	0.040650
1159.506738	0.040359
1159.660764	0.033493
1159.814771	0.030225
1159.968761	0.033635
1160.122732	0.037363
1160.276685	0.034768
1160.430619	0.042002
1160.584535	0.040409
1160.738434	0.042303
1160.892313	0.040884
1161.046175	0.043684
1161.200019	0.045401
1161.353844	0.043871
1161.507651	0.041021
1161.661440	0.043376
1161.815210	0.036430
1161.968962	0.035422
1162.122697	0.039398
1162.276412	0.037465
1162.430110	0.039191
1162.583789	0.034886
1162.737451	0.030310
1162.891094	0.029601
1163.044718	0.023180
1163.198325	0.029717
1163.351913	0.023762
1163.505483	0.024508
1163.659035	0.028774
1163.812569	0.028321
1163.966084	0.031542
1164.119581	0.031509
1164.273060	0.032470
1164.426521	0.031374
1164.579964	0.028105
1164.733388	0.032357
1164.886794	0.024715
1165.040182	0.026062
1165.193551	0.026571
1165.346903	0.025563
1165.500236	0.024903
1165.653551	0.023799
1165.806848	0.033422
1165.960126	0.035742
1166.113386	0.043881
1166.266628	0.042671
1166.419852	0.035396
1166.573058	0.035556
1166.726245	0.039368
1166.879414	0.043904
1167.032565	0.044027
1167.185698	0.033316
1167.338812	0.027581
1167.491909	0.012224
1167.644987	0.013628
1167.798046	0.021450
1167.951088	0.022516
1168.104111	0.019870
1168.257117	0.021938
1168.410103	0.021483
1168.563072	0.019631
1168.716023	0.025779
1168.868955	0.033131
1169.021869	0.035471
1169.174765	0.033665
1169.327642	0.024982
1169.480501	0.024431
1169.633343	0.021652
1169.786165	0.023018
1169.938970	0.031381
1170.091757	0.026665
1170.244525	0.023898
1170.397275	0.024618
1170.550007	0.022147
1170.702720	0.034305
1170.855415	0.028936
1171.008092	0.029834
1171.160751	0.029758
1171.313392	0.030435
1171.466014	-0.010948
1171.618619	0.048383
1171.771205	0.048383
1171.923772	0.048383
