sample name	sample
index	17
start time	 02-11-2021  11:53:55 AM
880	0.039760
Peak Time (s)	81.037
Peak Height 	0.03976
calc peak height	80,83
Baseline Time (s)	10.037
Baseline Value 	-0.004039
subtract baseline	10,4
Abs	0.008877
Peak Time (s)	82.038
Peak Height 	0.008877
calc peak height	80,83
Baseline Time (s)	9.036
Baseline Value 	0.001011
subtract baseline	10,3
PK_550	0.006396
Peak Time (s)	82.038
Peak Height 	0.006396
calc peak height	80,83
Baseline Time (s)	9.54
Baseline Value 	4.1827E-4
subtract baseline	10,2
PK_880	-0.005047
Peak Time (s)	82.038
Peak Height 	-0.005047
calc peak height	80,83
Baseline Time (s)	10.537
Baseline Value 	0.001818
subtract baseline	10,1


Time (s)	A880-A510	A880-A775	A880-A975	A880	I510	I775	I975	I880	
0.039500	0.001311	-0.000701	-0.006356	0.001954	4474.690045	19169.736439	3219.480669	10273.396543
0.537000	-0.004350	-0.001148	0.007458	0.003797	4448.123812	19084.657666	3229.504179	10242.200284
1.072000	-0.003513	0.000381	0.005419	0.001812	4458.063458	19215.418084	3229.458580	10275.816198
1.535500	-0.002744	0.002192	-0.001645	0.006543	4444.127854	19106.661590	3219.581198	10195.948701
2.035000	0.000583	0.001637	0.003758	0.002613	4469.745543	19232.394006	3227.374405	10262.228507
2.536000	-0.000822	-0.000333	-0.005184	0.001768	4467.749689	19190.362594	3220.603679	10276.550617
3.035500	-0.001566	0.001125	0.010468	0.004638	4454.957100	19137.805948	3231.349736	10228.003942
3.536000	-0.002016	0.000344	0.009268	0.004557	4453.659288	19111.789972	3230.396386	10229.371590
4.036500	0.003118	0.000650	-0.004792	0.004802	4470.973047	19114.058537	3218.421678	10225.232734
4.537000	-0.001978	-0.000033	0.010582	0.003604	4457.152515	19133.164704	3232.329922	10245.452571
5.037000	-0.002443	0.001006	0.001015	0.004099	4453.769814	19153.447461	3223.822361	10237.102218
5.537500	0.003851	-0.000712	-0.000589	-0.000772	4493.604440	19271.179081	3226.562741	10319.787489
6.037500	0.002415	0.000508	-0.000922	0.000851	4482.589221	19256.107799	3224.920273	10292.139452
6.535000	-0.000846	-0.000483	-0.006813	0.002658	4464.506172	19151.633056	3218.522654	10261.457060
7.035500	-0.002849	-0.000046	0.006501	0.003566	4454.213799	19134.121730	3228.888322	10246.100478
7.563000	0.004296	0.000404	-0.005000	0.001077	4488.540321	19243.711855	3221.329463	10288.286152
8.036000	-0.000668	0.001580	0.002809	0.001390	4469.641588	19276.051314	3227.604984	10282.965159
8.536500	0.000403	-0.000559	-0.000545	-0.000331	4479.613004	19260.406890	3226.229380	10312.271181
9.036000	-0.003943	-0.000393	0.000000	-0.000016	4463.007762	19254.828780	3226.422845	10306.900826
9.540000	-0.002043	0.000000	0.011658	-0.001903	4476.482435	19340.395551	3238.004080	10339.115915
10.037000	0.000844	0.000211	0.003473	0.000000	4480.009260	19276.844972	3229.344073	10306.623213
10.537500	0.000000	-0.001858	-0.003338	0.000660	4474.626604	19174.809907	3223.059017	10295.377090
11.035000	0.000199	0.002717	-0.007209	0.003385	4465.635304	19243.918234	3217.599807	10249.164911
11.535000	-0.000158	0.000719	0.003659	0.002383	4467.926818	19206.677519	3227.485073	10266.124700
12.035500	0.001340	0.000176	-0.001381	0.002021	4474.555061	19199.930382	3223.556615	10272.263584
12.535500	-0.001649	-0.000032	-0.004429	0.001707	4465.033163	19203.915097	3221.280851	10277.596156
13.036000	0.001070	-0.000435	0.000909	0.001777	4474.458813	19186.245988	3225.679417	10276.398949
13.536500	-0.002783	-0.000963	0.001391	0.000765	4464.349548	19204.321410	3226.936986	10293.600287
14.036500	-0.002759	-0.000529	0.011067	0.001387	4462.232593	19197.296812	3234.648961	10283.025893
14.537000	-0.001075	-0.000029	0.003741	0.002593	4463.925425	19170.981840	3227.376505	10262.567817
15.037500	-0.002722	0.000057	-0.000021	0.002064	4459.965783	19193.906040	3224.658881	10271.539575
15.534500	-0.000536	-0.001353	-0.004159	0.001433	4469.964275	19164.869113	3221.732472	10282.250895
16.035000	-0.000316	0.000512	-0.004631	0.001605	4470.132560	19228.013432	3221.197450	10279.325583
16.535000	-0.005272	-0.000400	-0.010643	0.001757	4452.052426	19188.286346	3216.118941	10276.738320
17.035500	0.001945	-0.000155	-0.001171	0.001454	4478.740797	19208.723133	3224.205987	10281.878859
17.536500	0.003159	-0.000213	0.002915	0.001481	4482.999311	19205.566518	3227.618427	10281.424732
18.036500	0.000715	-0.000761	0.003356	0.001261	4475.034570	19193.316784	3228.176739	10285.158580
18.536000	0.001546	-0.000135	-0.006900	0.001783	4476.141715	19197.242649	3219.173077	10276.308436
19.039500	-0.000138	-0.000705	-0.003604	0.001508	4471.113861	19186.228373	3222.131349	10280.974273
19.534000	-0.000422	-0.000471	-0.001072	0.001883	4468.767256	19180.957040	3223.930550	10274.607107
20.035000	0.003571	0.001294	0.014476	-0.000297	4490.881689	19328.696950	3239.059095	10311.694173
20.535000	0.001388	-0.000591	0.007009	0.000578	4479.887518	19225.208365	3231.863274	10296.785072
21.040500	0.001147	0.000427	0.009345	0.001563	4475.499454	19226.414105	3233.018886	10280.033500
21.535500	0.003381	0.001533	0.009505	0.001236	4484.677469	19280.071185	3233.436854	10285.597034
22.035500	0.002656	-0.000728	0.007950	-0.000298	4487.584317	19252.827258	3233.418211	10311.699138
22.535500	0.001598	-0.000365	-0.002367	0.001314	4478.003079	19206.139258	3223.324005	10284.265726
23.036500	0.001326	-0.000305	0.010007	0.000453	4480.111140	19240.540555	3234.540394	10298.907952
23.539500	-0.002589	0.001031	-0.000660	0.003372	4455.816065	19181.441266	3223.031371	10249.384920
24.037000	-0.001100	-0.002533	-0.007850	0.001288	4468.470558	19126.342860	3218.796973	10284.701414
24.537000	0.000169	0.000269	0.016907	0.000818	4474.668453	19248.375658	3240.206289	10292.694166
25.086500	0.000665	0.000691	-0.005941	0.005332	4460.389510	19095.937795	3217.042701	10216.320595
25.535000	0.006023	0.000765	-0.006650	0.001239	4494.188448	19251.160602	3219.828835	10285.537835
26.035000	-0.001366	-0.000313	0.006217	-0.000060	4472.324961	19259.468687	3231.731417	10307.650918
26.538500	-0.002656	-0.000821	0.002515	-0.000673	4469.910765	19263.401803	3229.102151	10318.101711
27.035500	0.001956	-0.000447	0.000944	0.000614	4481.790682	19229.221479	3226.687007	10296.165141
27.536500	-0.003154	-0.000108	-0.004654	0.003007	4455.110562	19152.614636	3220.016741	10255.552414
28.036500	-0.000185	-0.000778	-0.000476	0.001051	4472.571954	19200.552798	3225.125908	10288.736971
28.537000	-0.001078	-0.000856	0.005125	0.001349	4468.330436	19186.481353	3229.601178	10283.664262
29.037000	-0.001063	0.000805	0.013351	0.004190	4458.314157	19142.583681	3234.202901	10235.566633
29.534500	-0.003170	-0.000671	-0.007606	0.001888	4459.005085	19173.300228	3218.504322	10274.521497
30.036000	-0.001088	-0.001716	0.012795	0.001307	4468.445261	19156.032874	3236.208563	10284.384124
30.534500	0.000702	0.000176	0.011830	0.002215	4471.585119	19192.694459	3234.593137	10268.969665
31.035000	-0.001386	-0.001032	0.000967	0.002582	4462.863391	19134.068171	3225.052733	10262.757085
31.535500	0.000030	-0.001960	0.009542	0.000848	4474.065917	19164.034439	3233.801545	10292.191610
32.036000	-0.001442	0.000056	0.008222	0.002275	4463.749284	19185.981985	3231.448698	10267.946955
32.536500	-0.000690	0.000221	0.000857	0.001818	4468.043817	19209.179618	3225.600974	10275.702191
33.039000	0.001415	-0.000427	-0.000196	0.001912	4475.210464	19181.521210	3224.639051	10274.113785
33.537000	0.002702	-0.000598	-0.002860	0.001478	4481.370068	19191.288858	3222.775609	10281.473881
34.037500	0.002265	0.000636	-0.001420	0.002505	4476.129461	19199.070329	3223.120693	10264.062372
34.537500	-0.003120	-0.000748	0.001434	0.001813	4459.447735	19173.261171	3226.090086	10275.794630
35.035000	0.001320	-0.000164	0.008450	0.002384	4473.185953	19173.726226	3231.551171	10266.106171
35.535500	-0.001041	-0.000512	-0.009967	0.002037	4466.017231	19173.678289	3216.443059	10271.989279
36.035500	0.000644	-0.001734	-0.000451	0.000744	4476.631550	19176.349982	3225.405253	10293.962486
36.535500	-0.002013	-0.000755	0.015043	0.001617	4464.062237	19180.295585	3237.887405	10279.124614
37.036000	-0.003186	-0.000415	0.003600	-0.002026	4472.842860	19329.401728	3231.175739	10341.226192
37.536500	-0.000155	-0.000331	0.003296	-0.000860	4479.507814	19288.752077	3229.923954	10321.288902
38.036500	-0.002928	-0.001064	-0.001629	-0.002029	4473.776235	19305.136344	3226.745844	10341.284971
38.537000	0.000446	0.000558	0.000070	0.000302	4477.498174	19278.509468	3226.213904	10301.470851
39.037500	0.003201	0.000272	0.007679	-0.000196	4489.183026	19286.493766	3233.098603	10309.970764
39.534500	0.005011	0.001008	0.003792	-0.000308	4496.122937	19318.300073	3229.876392	10311.865394
40.034500	0.002079	-0.000353	0.013666	-0.000557	4486.440610	19276.561395	3238.579450	10316.115003
40.553000	0.003756	-0.000312	0.004658	0.000039	4490.337059	19255.801718	3230.317787	10305.960595
41.035500	-0.002798	-0.001155	0.013370	0.003861	4453.358390	19082.049017	3234.502076	10241.124179
41.536000	-0.001245	-0.002054	0.009552	0.001271	4468.014963	19144.820952	3233.446545	10284.998671
42.036000	0.001226	0.000365	0.016831	-0.000424	4482.896937	19298.528697	3241.225396	10313.845121
42.539000	-0.000378	-0.000569	0.013536	-0.000019	4475.701881	19248.317832	3237.998606	10306.942489
43.037000	0.001719	-0.000729	-0.004894	0.002638	4473.702123	19143.226019	3220.123655	10261.798776
43.537500	0.001445	-0.001305	0.000308	-0.001286	4486.784493	19268.229102	3227.753298	10328.574401
44.037500	0.006292	0.000519	-0.001013	-0.004100	4514.598734	19442.973198	3229.017253	10376.829022
44.535000	0.006033	-0.000598	0.006164	-0.008129	4528.463684	19553.625910	3238.640680	10446.456921
45.035500	-0.034489	-0.019960	0.008431	0.191606	3846.711485	12992.295912	3100.610415	7666.462902
45.535000	-0.039900	-0.025751	0.003663	0.194485	3829.264224	12794.627890	3096.424939	7635.005122
46.035500	-0.030591	-0.024062	0.018384	-0.024830	4456.520630	19297.720482	3264.655557	10742.091166
46.536000	-0.018975	-0.016687	0.008650	-0.174652	5146.527104	26409.167109	3418.373057	13970.403583
47.036500	-0.015884	-0.010959	0.000251	-0.146342	5021.144906	25222.715055	3373.184794	13272.146243
47.536500	-0.015248	-0.009882	-0.002365	-0.107291	4843.606997	23361.491998	3326.314161	12380.677901
48.037000	-0.023228	-0.012267	0.001362	-0.088192	4727.572285	22378.387279	3310.126556	11973.026763
48.534500	-0.019438	-0.008297	0.002888	-0.078080	4701.505670	22106.119045	3301.331680	11764.337206
49.037500	-0.017045	-0.007791	-0.000214	-0.082843	4731.037448	22339.443433	3303.019455	11862.033639
49.534500	-0.012553	-0.006021	-0.011295	-0.080067	4738.193818	22294.674666	3289.133607	11804.972555
50.035000	-0.013872	-0.005238	0.001775	-0.064221	4667.884405	21636.670421	3286.404260	11486.098677
50.535500	-0.012993	-0.002712	0.004654	-0.052584	4625.218230	21249.614723	3277.909403	11259.250886
51.036000	-0.009996	0.000746	0.007628	-0.039596	4586.526224	20853.346099	3268.402272	11013.125865
51.536500	-0.002765	0.004310	0.006523	-0.039696	4614.827484	21004.662597	3267.459439	11014.982382
52.039000	0.001604	-0.000017	0.005052	-0.027145	4583.270553	20318.047057	3254.540384	10783.970830
52.567000	-0.002327	0.002263	-0.008527	-0.021922	4548.664280	20201.084138	3237.860208	10689.800629
53.037500	-0.006558	0.000868	0.007046	-0.020277	4526.828363	20081.001463	3250.146931	10660.365562
53.538000	-0.007030	0.001164	-0.010085	-0.022772	4534.312904	20191.202451	3237.246295	10705.051415
54.037500	-0.007872	0.000545	-0.011929	-0.022064	4528.575990	20138.754533	3235.041384	10692.351346
54.544000	-0.005218	0.000808	0.000370	-0.019264	4528.037586	20038.890968	3243.316025	10642.308642
55.038000	-0.008653	0.001964	-0.009259	-0.015433	4501.422092	19934.203693	3231.643369	10574.359808
55.536000	-0.006204	0.002965	0.005123	-0.012337	4499.073215	19852.655640	3241.405487	10519.885207
56.035500	-0.009065	0.002515	-0.009387	-0.010695	4482.828358	19771.662547	3227.512047	10491.152465
56.539000	-0.008292	0.004788	-0.005597	-0.006354	4470.074851	19691.942705	3227.047498	10415.708563
57.036500	-0.010464	0.003412	-0.004204	-0.000781	4442.741453	19426.840850	3223.538730	10319.937981
57.537500	-0.009177	0.003792	0.000661	-0.005353	4463.371359	19615.299277	3231.506244	10398.408685
58.037000	-0.002914	0.005592	0.003345	-0.001854	4473.199491	19550.409895	3230.811117	10338.280365
58.534500	-0.007651	0.005801	0.009762	0.000115	4449.462583	19483.428317	3234.620490	10304.661022
59.035000	-0.007960	0.005240	0.000642	0.007976	4421.031428	19166.694358	3220.287444	10171.937743
59.535500	-0.007452	0.005328	0.003111	0.003224	4439.273622	19347.988531	3226.313675	10251.883029
60.035500	-0.006378	0.005133	-0.001996	0.004943	4437.026328	19276.034761	3220.614575	10222.857781
60.536000	-0.008318	0.004495	0.006754	0.008097	4419.380198	19134.489042	3225.280229	10169.908684
61.036500	-0.006722	0.004986	-0.006019	0.014329	4403.504274	18922.496430	3209.676171	10066.417938
61.536500	-0.006987	0.005831	0.004858	0.011479	4412.336677	19058.603805	3220.877687	10113.562825
62.037000	-0.007308	0.004429	0.015491	0.012082	4409.172609	18984.613411	3229.289833	10103.558069
62.534000	-0.009426	0.004468	0.014968	0.013998	4395.440024	18915.638917	3227.226539	10071.871527
63.037500	-0.012662	0.004642	0.011201	0.020508	4362.791067	18685.045311	3218.658798	9965.266445
63.534500	-0.009578	0.004706	0.020334	0.016110	4387.788977	18847.093331	3229.981947	10037.108517
64.035000	-0.009159	0.006605	0.007378	0.017193	4385.552850	18876.889584	3218.239780	10019.345485
64.535500	-0.005737	0.006037	0.001475	0.017773	4395.148910	18834.983308	3212.943913	10009.854445
65.036000	-0.010547	0.004345	0.012903	0.022858	4362.010266	18589.693387	3218.124448	9927.160726
65.536000	-0.006030	0.005710	0.009592	0.017981	4393.455781	18815.494008	3219.415309	10006.459395
66.039000	-0.005253	0.006807	0.021052	0.019524	4390.865147	18799.248627	3227.697921	9981.279955
66.536500	-0.005175	0.006095	0.005501	0.019476	4391.289517	18775.062913	3214.832745	9982.050501
67.037000	-0.008839	0.004686	0.011666	0.025075	4360.324103	18522.448152	3215.294212	9891.410803
67.537000	-0.007003	0.006231	0.013820	0.021736	4377.543887	18698.115454	3219.806595	9945.330446
68.035000	-0.003863	0.005745	0.011254	0.021599	4388.551893	18685.484273	3217.804461	9947.548773
68.534500	-0.007871	0.005197	0.001567	0.021530	4375.328759	18668.156713	3209.985416	9948.662898
69.035500	-0.005743	0.004981	0.015799	0.026637	4365.409320	18477.221583	3217.399577	9866.335892
69.536000	-0.007553	0.004626	0.021580	0.021855	4375.305685	18635.845232	3226.177687	9943.392863
70.036000	-0.003982	0.007723	0.004423	0.024942	4376.925195	18636.234792	3209.539132	9893.556543
70.536500	-0.004472	0.006004	0.006840	0.023926	4378.684235	18610.898141	3212.306263	9909.910897
71.036500	-0.001407	0.006504	0.007952	0.025261	4384.492050	18580.902796	3212.125794	9888.414920
71.536500	-0.006982	0.007963	0.016140	0.026611	4361.386583	18584.814341	3217.700404	9866.744536
72.037000	-0.008165	0.006240	0.004921	0.026035	4359.377981	18543.682881	3209.061364	9875.976310
72.536500	-0.006310	0.005577	0.005921	0.025945	4365.824203	18523.208009	3209.936581	9877.435281
73.034500	-0.007393	0.005741	0.013627	0.032049	4342.157357	18312.227593	3211.226684	9780.124059
73.534500	-0.010984	0.005128	0.001812	0.026603	4348.230051	18483.676957	3206.126158	9866.881463
74.035500	-0.006930	0.006985	0.009886	0.029467	4352.135739	18447.781692	3210.292786	9821.114329
74.535500	-0.007181	0.005262	0.019308	0.028049	4355.982335	18436.964860	3219.125067	9843.741730
75.036000	-0.013020	0.007244	0.014064	0.035795	4311.880055	18233.326715	3208.567742	9721.089173
75.539000	-0.006308	0.006283	0.013315	0.030258	4351.580981	18394.759918	3212.421733	9808.532055
76.036500	-0.009540	0.006950	0.012044	0.031324	4337.521806	18380.601497	3210.534863	9791.613746
76.537000	-0.007548	0.005417	-0.000115	0.031044	4344.938064	18336.275648	3201.099858	9796.052233
77.037000	-0.012295	0.004058	0.006713	0.036020	4313.475058	18114.044877	3202.553681	9717.548352
77.537500	-0.011280	0.004558	0.002286	0.030290	4335.226240	18332.576397	3203.580965	9808.031454
78.037500	-0.006005	0.005822	0.004085	0.033184	4342.983219	18275.087220	3202.717694	9762.183070
78.535500	-0.009881	0.003783	0.014603	0.031187	4336.856966	18273.611654	3212.712800	9793.781718
79.035500	-0.010489	0.006065	0.020542	0.033534	4327.277062	18271.342174	3215.635544	9756.664148
79.536000	-0.008443	0.004261	0.011488	0.032418	4337.533071	18247.147359	3209.208920	9774.286372
80.036500	-0.010621	0.005096	0.004505	0.034573	4323.498551	18200.852745	3201.955778	9740.294029
80.536000	-0.005618	0.005466	-0.000361	0.035108	4337.973795	18195.070270	3197.739558	9731.877198
81.036500	-0.012752	0.003575	-0.009477	0.039760	4300.113333	17967.732723	3187.226782	9659.138301
81.539500	-0.006516	0.004059	0.005726	0.035383	4334.157486	18136.314049	3202.278468	9727.556147
82.037500	-0.005047	0.006396	0.008877	0.037009	4333.647591	18161.112769	3203.480144	9702.064588
82.537500	-0.007884	0.005802	0.003822	0.038493	4319.692519	18088.711211	3198.359925	9678.880457
83.035000	-0.007032	0.003506	0.004484	0.040941	4314.572717	17924.678532	3196.974182	9640.798773
83.538000	-0.006890	0.004922	0.020716	0.038067	4324.262307	18072.928010	3212.091607	9685.515161
84.052500	-0.007167	0.004642	0.016343	0.039111	4320.010858	18027.050423	3207.737832	9669.246836
84.538500	-0.006359	0.004713	0.001030	0.039596	4321.050313	18012.692690	3195.345760	9661.694341
85.066000	-0.009874	0.003771	0.005022	0.041521	4303.656809	17913.886182	3196.941803	9631.815764
85.536500	-0.011061	0.004904	0.007425	0.040146	4304.257418	18000.298576	3199.878730	9653.148495
86.036500	-0.006804	0.004171	0.022526	0.040116	4317.946523	17975.998511	3211.897918	9653.602232
86.537000	-0.007125	0.005262	0.005030	0.042154	4310.398197	17943.411620	3196.458699	9622.024641
87.035000	-0.007043	0.003430	0.000971	0.044622	4302.800165	17796.081594	3191.451644	9583.950656
87.535000	-0.003674	0.004317	0.020820	0.041913	4322.231718	17919.168556	3209.077889	9625.740952
