sample name	sample
index	971
start time	 04-14-2021  02:32:56 PM


Wavelength (nm)	Absorbance
494.344910	0.235862
494.563924	0.235862
494.782919	0.235862
495.001897	0.015739
495.220856	0.030719
495.439797	0.005653
495.658719	-0.003580
495.877624	-0.022709
496.096510	-0.035336
496.315378	-0.029238
496.534227	-0.018901
496.753059	-0.017085
496.971872	-0.004890
497.190667	0.093284
497.409444	0.106603
497.628203	0.113055
497.846943	0.115745
498.065665	0.119387
498.284369	0.120110
498.503055	0.120073
498.721723	0.121918
498.940372	0.122075
499.159003	0.122055
499.377616	0.123803
499.596210	0.123789
499.814787	0.124988
500.033345	0.125206
500.251885	0.125367
500.470406	0.126772
500.688910	0.125836
500.907395	0.126114
501.125862	0.126420
501.344311	0.127288
501.562742	0.126986
501.781154	0.127752
501.999548	0.127556
502.217924	0.127913
502.436282	0.126953
502.654621	0.127483
502.872942	0.127855
503.091245	0.127250
503.309530	0.126375
503.527797	0.127087
503.746045	0.125818
503.964275	0.126107
504.182487	0.126046
504.400681	0.127096
504.618856	0.128188
504.837013	0.127984
505.055152	0.128685
505.273273	0.128321
505.491376	0.128079
505.709460	0.129135
505.927526	0.128770
506.145574	0.127990
506.363604	0.127864
506.581615	0.126812
506.799608	0.126337
507.017583	0.126078
507.235540	0.125586
507.453478	0.124671
507.671399	0.123958
507.889301	0.123947
508.107185	0.124233
508.325050	0.124572
508.542898	0.124516
508.760727	0.124853
508.978538	0.124604
509.196330	0.124982
509.414105	0.126125
509.631861	0.126267
509.849599	0.126495
510.067319	0.127473
510.285021	0.127217
510.502704	0.127839
510.720369	0.127446
510.938016	0.127861
511.155645	0.128402
511.373255	0.128599
511.590848	0.128072
511.808422	0.128412
512.025977	0.127336
512.243515	0.127132
512.461034	0.126349
512.678536	0.127201
512.896018	0.127365
513.113483	0.127822
513.330930	0.126933
513.548358	0.128206
513.765768	0.127666
513.983160	0.128359
514.200533	0.128821
514.417889	0.128933
514.635226	0.129098
514.852545	0.129022
515.069845	0.128416
515.287128	0.128718
515.504392	0.127693
515.721638	0.128693
515.938866	0.128995
516.156075	0.128594
516.373267	0.128023
516.590440	0.127002
516.807594	0.126753
517.024731	0.126803
517.241850	0.128267
517.458950	0.128290
517.676032	0.128255
517.893095	0.128261
518.110141	0.128034
518.327168	0.129138
518.544177	0.130492
518.761168	0.130937
518.978141	0.131971
519.195095	0.131179
519.412031	0.132498
519.628949	0.133030
519.845849	0.133179
520.062731	0.133801
520.279594	0.133609
520.496439	0.133647
520.713266	0.134158
520.930074	0.133278
521.146865	0.133759
521.363637	0.132557
521.580391	0.131887
521.797127	0.131697
522.013844	0.132063
522.230543	0.131851
522.447224	0.130963
522.663887	0.130824
522.880532	0.131808
523.097158	0.131589
523.313766	0.132372
523.530356	0.132305
523.746928	0.131936
523.963481	0.131787
524.180017	0.132832
524.396534	0.133564
524.613032	0.133590
524.829513	0.133299
525.045975	0.133040
525.262420	0.133470
525.478845	0.133938
525.695253	0.134149
525.911643	0.134101
526.128014	0.133533
526.344367	0.133735
526.560702	0.133132
526.777018	0.133191
526.993316	0.133848
527.209597	0.133220
527.425858	0.133851
527.642102	0.134070
527.858328	0.134526
528.074535	0.134857
528.290724	0.135504
528.506894	0.136635
528.723047	0.136823
528.939181	0.137267
529.155297	0.137865
529.371395	0.136726
529.587475	0.137693
529.803536	0.137477
530.019579	0.137267
530.235604	0.136576
530.451611	0.136888
530.667600	0.137381
530.883570	0.137752
531.099522	0.137808
531.315456	0.138933
531.531372	0.138523
531.747269	0.139050
531.963148	0.139650
532.179009	0.140220
532.394852	0.140706
532.610676	0.140730
532.826482	0.140056
533.042271	0.139803
533.258040	0.140136
533.473792	0.140037
533.689525	0.139656
533.905240	0.139845
534.120937	0.139580
534.336616	0.138972
534.552277	0.138829
534.767919	0.139023
534.983543	0.139360
535.199149	0.139016
535.414736	0.139754
535.630306	0.140039
535.845857	0.139947
536.061390	0.140370
536.276904	0.140688
536.492401	0.141109
536.707879	0.141195
536.923339	0.141655
537.138781	0.142586
537.354204	0.142271
537.569610	0.143301
537.784997	0.143711
538.000366	0.143918
538.215716	0.143707
538.431049	0.143089
538.646363	0.143412
538.861659	0.143446
539.076937	0.142823
539.292196	0.142994
539.507438	0.142508
539.722661	0.142699
539.937866	0.142972
540.153052	0.143219
540.368221	0.143819
540.583371	0.144337
540.798503	0.144107
541.013617	0.144388
541.228712	0.144776
541.443789	0.144982
541.658848	0.144634
541.873889	0.144511
542.088912	0.145098
542.303916	0.145338
542.518902	0.145498
542.733870	0.146121
542.948820	0.145857
543.163752	0.146149
543.378665	0.146053
543.593560	0.146593
543.808437	0.147073
544.023295	0.146827
544.238136	0.147238
544.452958	0.147064
544.667762	0.147309
544.882548	0.148224
545.097315	0.148412
545.312064	0.149497
545.526795	0.149768
545.741508	0.149848
545.956203	0.150473
546.170879	0.150651
546.385537	0.151029
546.600177	0.150742
546.814799	0.150590
547.029402	0.150272
547.243988	0.149473
547.458555	0.149505
547.673103	0.149161
547.887634	0.148990
548.102146	0.148965
548.316640	0.149092
548.531116	0.149482
548.745574	0.149709
548.960013	0.150174
549.174435	0.150224
549.388838	0.150211
549.603222	0.150943
549.817589	0.150695
550.031937	0.150440
550.246267	0.150413
550.460579	0.150206
550.674873	0.150226
550.889148	0.150490
551.103405	0.151010
551.317644	0.151910
551.531865	0.151535
551.746068	0.151650
551.960252	0.151909
552.174418	0.151943
552.388566	0.152233
552.602696	0.152144
552.816807	0.152085
553.030900	0.151853
553.244975	0.151561
553.459032	0.151995
553.673070	0.151849
553.887091	0.151990
554.101093	0.151990
554.315077	0.151788
554.529042	0.151865
554.742990	0.151806
554.956919	0.151834
555.170830	0.151819
555.384722	0.151768
555.598597	0.151989
555.812453	0.152209
556.026291	0.152381
556.240111	0.152921
556.453913	0.153276
556.667696	0.153520
556.881461	0.153973
557.095208	0.153719
557.308937	0.153858
557.522647	0.153897
557.736339	0.153792
557.950013	0.154018
558.163669	0.154251
558.377307	0.154212
558.590926	0.154076
558.804527	0.154295
559.018110	0.154198
559.231675	0.154281
559.445221	0.154916
559.658749	0.155494
559.872259	0.155718
560.085751	0.155351
560.299225	0.155598
560.512680	0.156054
560.726117	0.155811
560.939536	0.155951
561.152937	0.156124
561.366319	0.156257
561.579683	0.155390
561.793029	0.155289
562.006357	0.155499
562.219667	0.155416
562.432958	0.155258
562.646231	0.155121
562.859486	0.155485
563.072723	0.155653
563.285941	0.155434
563.499141	0.155999
563.712323	0.155678
563.925487	0.156037
564.138632	0.155848
564.351760	0.156415
564.564869	0.157154
564.777960	0.157274
564.991032	0.157011
565.204087	0.157270
565.417123	0.157443
565.630141	0.157810
565.843140	0.157937
566.056122	0.158162
566.269085	0.157980
566.482030	0.157951
566.694957	0.158234
566.907866	0.158670
567.120756	0.158589
567.333628	0.158983
567.546482	0.159203
567.759318	0.158833
567.972135	0.159320
568.184935	0.159172
568.397716	0.158732
568.610478	0.158539
568.823223	0.158237
569.035949	0.158478
569.248657	0.158118
569.461347	0.157960
569.674019	0.158200
569.886672	0.157734
570.099308	0.157807
570.311925	0.157949
570.524523	0.157940
570.737104	0.158115
570.949666	0.158117
571.162210	0.158235
571.374736	0.158231
571.587244	0.158194
571.799733	0.158276
572.012205	0.158420
572.224658	0.158597
572.437092	0.158683
572.649509	0.158957
572.861907	0.159236
573.074287	0.159298
573.286649	0.159431
573.498993	0.159598
573.711318	0.160261
573.923625	0.160341
574.135914	0.160725
574.348185	0.160937
574.560438	0.160887
574.772672	0.160851
574.984888	0.160923
575.197086	0.161385
575.409266	0.161451
575.621427	0.161375
575.833570	0.161060
576.045695	0.160793
576.257802	0.160840
576.469890	0.160400
576.681961	0.160477
576.894013	0.160611
577.106046	0.160463
577.318062	0.160235
577.530059	0.159903
577.742039	0.160613
577.954000	0.160711
578.165942	0.160901
578.377867	0.161361
578.589773	0.161080
578.801661	0.161084
579.013531	0.160910
579.225382	0.161727
579.437216	0.162152
579.649031	0.162362
579.860828	0.162295
580.072606	0.162356
580.284367	0.162315
580.496109	0.162748
580.707833	0.163149
580.919539	0.163319
581.131227	0.163150
581.342896	0.163040
581.554547	0.162647
581.766180	0.162851
581.977795	0.162604
582.189391	0.162943
582.400969	0.163065
582.612529	0.163096
582.824071	0.163431
583.035595	0.163681
583.247100	0.164052
583.458587	0.164140
583.670056	0.164342
583.881506	0.164602
584.092939	0.164595
584.304353	0.164663
584.515749	0.164391
584.727127	0.164120
584.938486	0.163665
585.149828	0.163434
585.361151	0.163603
585.572456	0.163726
585.783742	0.163941
585.995011	0.164066
586.206261	0.164199
586.417493	0.164455
586.628706	0.164785
586.839902	0.165393
587.051079	0.165609
587.262238	0.165809
587.473379	0.166045
587.684502	0.166186
587.895606	0.166494
588.106692	0.166272
588.317760	0.166239
588.528810	0.166038
588.739841	0.165914
588.950855	0.165864
589.161850	0.165759
589.372827	0.165979
589.583785	0.166315
589.794726	0.166454
590.005648	0.166765
590.216552	0.167071
590.427437	0.167555
590.638305	0.167648
590.849154	0.167962
591.059985	0.168116
591.270798	0.167972
591.481592	0.167758
591.692369	0.167599
591.903127	0.167413
592.113867	0.167358
592.324588	0.166869
592.535292	0.167075
592.745977	0.167200
592.956644	0.167164
593.167293	0.167697
593.377923	0.167869
593.588536	0.168163
593.799130	0.168467
594.009706	0.168948
594.220263	0.169262
594.430803	0.168926
594.641324	0.168640
594.851827	0.168677
595.062312	0.168277
595.272778	0.168061
595.483227	0.168000
595.693657	0.168006
595.904069	0.167995
596.114462	0.168193
596.324838	0.168317
596.535195	0.168623
596.745534	0.168631
596.955855	0.168753
597.166157	0.168622
597.376441	0.168590
597.586707	0.168304
597.796955	0.168121
598.007185	0.168235
598.217396	0.168572
598.427589	0.168571
598.637764	0.168920
598.847921	0.168737
599.058060	0.169239
599.268180	0.169233
599.478282	0.169817
599.688366	0.169686
599.898431	0.169784
600.108479	0.169658
600.318508	0.169734
600.528519	0.169739
600.738511	0.170036
600.948486	0.170103
601.158442	0.170180
601.368380	0.170103
601.578300	0.170546
601.788202	0.170256
601.998085	0.170671
602.207950	0.170979
602.417797	0.171263
602.627626	0.170929
602.837436	0.170982
603.047228	0.171130
603.257002	0.171100
603.466758	0.170911
603.676496	0.171561
603.886215	0.171298
604.095916	0.170956
604.305599	0.170820
604.515264	0.171231
604.724910	0.171354
604.934538	0.171472
605.144148	0.171758
605.353740	0.171973
605.563314	0.171761
605.772869	0.171913
605.982406	0.172025
606.191925	0.172079
606.401425	0.172029
606.610908	0.171852
606.820372	0.171911
607.029818	0.171884
607.239246	0.171688
607.448655	0.171857
607.658047	0.171961
607.867420	0.172145
608.076775	0.172039
608.286111	0.172009
608.495430	0.172117
608.704730	0.172291
608.914012	0.171885
609.123275	0.172157
609.332521	0.172296
609.541748	0.172041
609.750957	0.171984
609.960148	0.172419
610.169321	0.172807
610.378475	0.173082
610.587611	0.172872
610.796729	0.173251
611.005829	0.173508
611.214910	0.173688
611.423974	0.174013
611.633019	0.174182
611.842045	0.173941
612.051054	0.174024
612.260044	0.174230
612.469017	0.174186
612.677970	0.174198
612.886906	0.173912
613.095824	0.173830
613.304723	0.173580
613.513604	0.173495
613.722467	0.173260
613.931311	0.173169
614.140138	0.172739
614.348946	0.173100
614.557736	0.173226
614.766507	0.173085
614.975261	0.172831
615.183996	0.173337
615.392713	0.173405
615.601412	0.173834
615.810092	0.173885
616.018754	0.174233
616.227399	0.174138
616.436024	0.174239
616.644632	0.174525
616.853222	0.174762
617.061793	0.174696
617.270346	0.174779
617.478880	0.174825
617.687397	0.175065
617.895895	0.174893
618.104375	0.175197
618.312837	0.175311
618.521281	0.175470
618.729706	0.175637
618.938113	0.175764
619.146502	0.175882
619.354873	0.175668
619.563226	0.175397
619.771560	0.175554
619.979876	0.175414
620.188174	0.175485
620.396453	0.175558
620.604715	0.175368
620.812958	0.175299
621.021183	0.175027
621.229390	0.175411
621.437578	0.175508
621.645748	0.175679
621.853900	0.175708
622.062034	0.175657
622.270150	0.175443
622.478247	0.175680
622.686326	0.175655
622.894387	0.176140
623.102430	0.175873
623.310454	0.175889
623.518461	0.176060
623.726449	0.176094
623.934418	0.176304
624.142370	0.176530
624.350303	0.176335
624.558218	0.176405
624.766115	0.176269
624.973994	0.176573
625.181855	0.176762
625.389697	0.176492
625.597521	0.176444
625.805327	0.176375
626.013114	0.176603
626.220883	0.176768
626.428634	0.176853
626.636367	0.177003
626.844082	0.176939
627.051778	0.176974
627.259457	0.177194
627.467117	0.177334
627.674758	0.177338
627.882382	0.177408
628.089987	0.177486
628.297574	0.177650
628.505143	0.177715
628.712694	0.178226
628.920226	0.178265
629.127740	0.178309
629.335236	0.178421
629.542714	0.178536
629.750174	0.178659
629.957615	0.178775
630.165038	0.178938
630.372443	0.179147
630.579829	0.179147
630.787198	0.179442
630.994548	0.179573
631.201880	0.179774
631.409194	0.179719
631.616489	0.179612
631.823766	0.179831
632.031025	0.180023
632.238266	0.180066
632.445489	0.179907
632.652693	0.179773
632.859879	0.179705
633.067047	0.179813
633.274197	0.180334
633.481329	0.180507
633.688442	0.180521
633.895537	0.180483
634.102614	0.180568
634.309672	0.180695
634.516713	0.180755
634.723735	0.180959
634.930739	0.180929
635.137724	0.180905
635.344692	0.180673
635.551641	0.180723
635.758572	0.180606
635.965485	0.180755
636.172379	0.180649
636.379256	0.180912
636.586114	0.180874
636.792954	0.181013
636.999775	0.180861
637.206579	0.181105
637.413364	0.181046
637.620131	0.181288
637.826880	0.181106
638.033610	0.181415
638.240323	0.181521
638.447017	0.181791
638.653692	0.181757
638.860350	0.181889
639.066990	0.182006
639.273611	0.182301
639.480214	0.182532
639.686798	0.182508
639.893365	0.182478
640.099913	0.182537
640.306443	0.182467
640.512955	0.182563
640.719449	0.182636
640.925924	0.182776
641.132381	0.182776
641.338820	0.182517
641.545241	0.182952
641.751644	0.182935
641.958028	0.182937
642.164394	0.183090
642.370742	0.183163
642.577071	0.183407
642.783383	0.183344
642.989676	0.183412
643.195951	0.183630
643.402207	0.183610
643.608446	0.183870
643.814666	0.183960
644.020868	0.183969
644.227052	0.184099
644.433218	0.184031
644.639365	0.184172
644.845494	0.184457
645.051605	0.184695
645.257698	0.184460
645.463772	0.184481
645.669828	0.184659
645.875866	0.184819
646.081886	0.184907
646.287888	0.184984
646.493871	0.185012
646.699836	0.184919
646.905783	0.184847
647.111712	0.185437
647.317622	0.185436
647.523514	0.185301
647.729388	0.185456
647.935244	0.185667
648.141082	0.185639
648.346901	0.185826
648.552702	0.185949
648.758485	0.185765
648.964250	0.185653
649.169996	0.185605
649.375724	0.185854
649.581434	0.185791
649.787126	0.185623
649.992800	0.185805
650.198455	0.185838
650.404092	0.185944
650.609711	0.185969
650.815311	0.186152
651.020894	0.186383
651.226458	0.186409
651.432004	0.186828
651.637532	0.187009
651.843041	0.187419
652.048532	0.187667
652.254006	0.187762
652.459460	0.188189
652.664897	0.188049
652.870315	0.188295
653.075716	0.188544
653.281097	0.188538
653.486461	0.188827
653.691807	0.188936
653.897134	0.189173
654.102443	0.189399
654.307734	0.189568
654.513006	0.190067
654.718261	0.190010
654.923497	0.190033
655.128715	0.189964
655.333915	0.190001
655.539096	0.189806
655.744259	0.189894
655.949404	0.190189
656.154531	0.190284
656.359640	0.190189
656.564730	0.190298
656.769802	0.190462
656.974856	0.190492
657.179892	0.190761
657.384909	0.190955
657.589908	0.190880
657.794889	0.190822
657.999852	0.190934
658.204797	0.190946
658.409723	0.191213
658.614631	0.191207
658.819521	0.191544
659.024393	0.191313
659.229246	0.191370
659.434081	0.191505
659.638898	0.191437
659.843697	0.191271
660.048478	0.191483
660.253240	0.191542
660.457984	0.191565
660.662710	0.191526
660.867417	0.191675
661.072107	0.192063
661.276778	0.191914
661.481431	0.192112
661.686066	0.192464
661.890682	0.192355
662.095281	0.192480
662.299861	0.192670
662.504422	0.192718
662.708966	0.192962
662.913491	0.192760
663.117999	0.192880
663.322488	0.192847
663.526958	0.192859
663.731411	0.193001
663.935845	0.192785
664.140261	0.192821
664.344659	0.192982
664.549038	0.192728
664.753400	0.192844
664.957743	0.193353
665.162068	0.193376
665.366375	0.193485
665.570663	0.193565
665.774933	0.194065
665.979185	0.194329
666.183419	0.194254
666.387635	0.194642
666.591832	0.194604
666.796011	0.194397
667.000172	0.194527
667.204315	0.194629
667.408439	0.194832
667.612545	0.194736
667.816634	0.194834
668.020703	0.194855
668.224755	0.194736
668.428788	0.194937
668.632803	0.195174
668.836800	0.195291
669.040779	0.195401
669.244739	0.195786
669.448681	0.195872
669.652605	0.195877
669.856511	0.196149
670.060399	0.196470
670.264268	0.196427
670.468119	0.196583
670.671952	0.196615
670.875767	0.196576
671.079563	0.196339
671.283341	0.196571
671.487101	0.196641
671.690843	0.196881
671.894567	0.197004
672.098272	0.197373
672.301959	0.197190
672.505628	0.197381
672.709278	0.197598
672.912911	0.197803
673.116525	0.197904
673.320121	0.198111
673.523699	0.198147
673.727258	0.198326
673.930799	0.198349
674.134322	0.198602
674.337827	0.198657
674.541314	0.198816
674.744782	0.198794
674.948232	0.198639
675.151664	0.198587
675.355078	0.198524
675.558474	0.198355
675.761851	0.198473
675.965210	0.198708
676.168551	0.198976
676.371873	0.199020
676.575178	0.198941
676.778464	0.199317
676.981732	0.199621
677.184981	0.199908
677.388213	0.200275
677.591426	0.200168
677.794621	0.200333
677.997798	0.200361
678.200956	0.200545
678.404097	0.201049
678.607219	0.201071
678.810323	0.200879
679.013408	0.200838
679.216476	0.200750
679.419525	0.200823
679.622556	0.200561
679.825569	0.200685
680.028563	0.200575
680.231540	0.200584
680.434498	0.200650
680.637438	0.200849
680.840359	0.201044
681.043263	0.201370
681.246148	0.201937
681.449015	0.202109
681.651864	0.202153
681.854694	0.202252
682.057506	0.202335
682.260301	0.202579
682.463076	0.202767
682.665834	0.202958
682.868573	0.202957
683.071295	0.202969
683.273998	0.203342
683.476682	0.203484
683.679349	0.203895
683.881997	0.203950
684.084627	0.204075
684.287239	0.204174
684.489833	0.204205
684.692408	0.204301
684.894965	0.204225
685.097504	0.204441
685.300025	0.204542
685.502527	0.204472
685.705012	0.204550
685.907478	0.204508
686.109925	0.204674
686.312355	0.204719
686.514766	0.204922
686.717159	0.205181
686.919534	0.204958
687.121891	0.204987
687.324230	0.205070
687.526550	0.205210
687.728852	0.205328
687.931136	0.205148
688.133401	0.205195
688.335649	0.205343
688.537878	0.205261
688.740089	0.205500
688.942281	0.205666
689.144456	0.205781
689.346612	0.205791
689.548750	0.205847
689.750870	0.206169
689.952971	0.206369
690.155055	0.206092
690.357120	0.206186
690.559167	0.206234
690.761195	0.206604
690.963206	0.206849
691.165198	0.206934
691.367172	0.207049
691.569128	0.207009
691.771065	0.207067
691.972984	0.207473
692.174885	0.207689
692.376768	0.207874
692.578633	0.207640
692.780479	0.207726
692.982308	0.208079
693.184118	0.208351
693.385909	0.208677
693.587683	0.208895
693.789438	0.208961
693.991175	0.208787
694.192894	0.208845
694.394595	0.209032
694.596277	0.208904
694.797941	0.208768
694.999587	0.208756
695.201215	0.208589
695.402824	0.208545
695.604416	0.208385
695.805989	0.208454
696.007543	0.208635
696.209080	0.208571
696.410598	0.208560
696.612099	0.208517
696.813580	0.208417
697.015044	0.208564
697.216490	0.208702
697.417917	0.209004
697.619326	0.209265
697.820717	0.209151
698.022089	0.209233
698.223444	0.209286
698.424780	0.209465
698.626098	0.209667
698.827397	0.209729
699.028679	0.209551
699.229942	0.209380
699.431187	0.209245
699.632414	0.209295
699.833622	0.209566
700.034813	0.209756
700.235985	0.209849
700.437139	0.209830
700.638274	0.209971
700.839392	0.210155
701.040491	0.210372
701.241572	0.210492
701.442635	0.210446
701.643679	0.210454
701.844706	0.210678
702.045714	0.210552
702.246704	0.210719
702.447675	0.210839
702.648629	0.211105
702.849564	0.211019
703.050481	0.211119
703.251380	0.211161
703.452260	0.211164
703.653122	0.211114
703.853966	0.211339
704.054792	0.211304
704.255600	0.211046
704.456389	0.211145
704.657160	0.211363
704.857913	0.211454
705.058648	0.211604
705.259365	0.211322
705.460063	0.211108
705.660743	0.211078
705.861405	0.210986
706.062048	0.211127
706.262674	0.210832
706.463281	0.210879
706.663870	0.211012
706.864441	0.210887
707.064993	0.211146
707.265527	0.211159
707.466043	0.211314
707.666541	0.211415
707.867021	0.211611
708.067482	0.211550
708.267925	0.211461
708.468350	0.211458
708.668757	0.211613
708.869145	0.211640
709.069516	0.211948
709.269868	0.212019
709.470201	0.212157
709.670517	0.212043
709.870814	0.212275
710.071093	0.212273
710.271354	0.212459
710.471597	0.212328
710.671821	0.212339
710.872028	0.212198
711.072216	0.212079
711.272385	0.212074
711.472537	0.211883
711.672670	0.211800
711.872785	0.211573
712.072882	0.211263
712.272961	0.211017
712.473021	0.210828
712.673063	0.210935
712.873087	0.210790
713.073093	0.210518
713.273081	0.210739
713.473050	0.210635
713.673001	0.210597
713.872934	0.210640
714.072849	0.210821
714.272745	0.210890
714.472623	0.210729
714.672483	0.210734
714.872325	0.210751
715.072148	0.210664
715.271954	0.210478
715.471741	0.210711
715.671509	0.210682
715.871260	0.210555
716.070992	0.210433
716.270707	0.210434
716.470403	0.210469
716.670080	0.210473
716.869740	0.210319
717.069381	0.210233
717.269004	0.210019
717.468609	0.209766
717.668195	0.209825
717.867764	0.209751
718.067314	0.209755
718.266846	0.209744
718.466360	0.209678
718.665855	0.209836
718.865332	0.210324
719.064791	0.210613
719.264232	0.210763
719.463655	0.210594
719.663059	0.210716
719.862445	0.210422
720.061813	0.210489
720.261163	0.210588
720.460494	0.210574
720.659807	0.210137
720.859102	0.209826
721.058379	0.209764
721.257638	0.209906
721.456878	0.209815
721.656100	0.210201
721.855304	0.209987
722.054490	0.210078
722.253657	0.209837
722.452806	0.210130
722.651937	0.210297
722.851050	0.210254
723.050145	0.210207
723.249221	0.210204
723.448279	0.209926
723.647319	0.209833
723.846340	0.209582
724.045344	0.209491
724.244329	0.209219
724.443296	0.209210
724.642245	0.209284
724.841175	0.209262
725.040088	0.209293
725.238982	0.209306
725.437857	0.209575
725.636715	0.209471
725.835554	0.209581
726.034376	0.209427
726.233179	0.209072
726.431963	0.208798
726.630730	0.208674
726.829478	0.208487
727.028208	0.208253
727.226920	0.207856
727.425614	0.207936
727.624289	0.207691
727.822946	0.207812
728.021585	0.207794
728.220206	0.207903
728.418808	0.207977
728.617392	0.207961
728.815958	0.207887
729.014506	0.208125
729.213036	0.208134
729.411547	0.208146
729.610040	0.208283
729.808515	0.208011
730.006972	0.207828
730.205410	0.207581
730.403831	0.207494
730.602233	0.207431
730.800616	0.207013
730.998982	0.206760
731.197329	0.206675
731.395658	0.206428
731.593969	0.206448
731.792262	0.206274
731.990536	0.206357
732.188793	0.206245
732.387031	0.206381
732.585250	0.206106
732.783452	0.205961
732.981635	0.205883
733.179800	0.205659
733.377947	0.205563
733.576076	0.205564
733.774186	0.205703
733.972278	0.205696
734.170352	0.205446
734.368408	0.205549
734.566446	0.205342
734.764465	0.205350
734.962466	0.205254
735.160449	0.205121
735.358413	0.204888
735.556360	0.204579
735.754288	0.204626
735.952198	0.204668
736.150090	0.204586
736.347963	0.204664
736.545818	0.204671
736.743655	0.204709
736.941474	0.204749
737.139275	0.204760
737.337057	0.204496
737.534821	0.204079
737.732567	0.204011
737.930295	0.203928
738.128005	0.203727
738.325696	0.203270
738.523369	0.203122
738.721024	0.203060
738.918660	0.203127
739.116279	0.202887
739.313879	0.202829
739.511461	0.202676
739.709024	0.202825
739.906570	0.202770
740.104097	0.202678
740.301606	0.202133
740.499097	0.201927
740.696569	0.201516
740.894024	0.201772
741.091460	0.201348
741.288878	0.201160
741.486277	0.200557
741.683659	0.200254
741.881022	0.199930
742.078367	0.200171
742.275694	0.199738
742.473002	0.199689
742.670293	0.199404
742.867565	0.199650
743.064819	0.199313
743.262054	0.199504
743.459272	0.199373
743.656471	0.199407
743.853652	0.199201
744.050815	0.199371
744.247959	0.199366
744.445085	0.199228
744.642194	0.199035
744.839283	0.199258
745.036355	0.198953
745.233408	0.198937
745.430444	0.198886
745.627461	0.198788
745.824459	0.198668
746.021440	0.198437
746.218402	0.198383
746.415346	0.198381
746.612272	0.198188
746.809180	0.198247
747.006069	0.198442
747.202940	0.198529
747.399793	0.198442
747.596628	0.198432
747.793444	0.198210
747.990243	0.197972
748.187023	0.197613
748.383784	0.197358
748.580528	0.197252
748.777253	0.196983
748.973960	0.196574
749.170649	0.196536
749.367320	0.196403
749.563973	0.196460
749.760607	0.196556
749.957223	0.196637
750.153821	0.196718
750.350400	0.196584
750.546962	0.196349
750.743505	0.196440
750.940030	0.196402
751.136536	0.196327
751.333025	0.196068
751.529495	0.195756
751.725947	0.195563
751.922381	0.195284
752.118796	0.195218
752.315194	0.195425
752.511573	0.195444
752.707934	0.195380
752.904276	0.195485
753.100601	0.195604
753.296907	0.195702
753.493195	0.195714
753.689465	0.195706
753.885716	0.195393
754.081949	0.194961
754.278164	0.194787
754.474361	0.194489
754.670540	0.194389
754.866700	0.194133
755.062843	0.193780
755.258967	0.193553
755.455072	0.193269
755.651160	0.193220
755.847229	0.193226
756.043280	0.193054
756.239313	0.192949
756.435328	0.192641
756.631324	0.192571
756.827302	0.192601
757.023262	0.192631
757.219204	0.192779
757.415127	0.192895
757.611033	0.192740
757.806920	0.192589
758.002788	0.192469
758.198639	0.192439
758.394471	0.192459
758.590286	0.192155
758.786081	0.191979
758.981859	0.191635
759.177619	0.191161
759.373360	0.191090
759.569083	0.191200
759.764788	0.191036
759.960474	0.190610
760.156143	0.190492
760.351793	0.190372
760.547425	0.190067
760.743038	0.190084
760.938634	0.190163
761.134211	0.189989
761.329770	0.189629
761.525311	0.189588
761.720833	0.189577
761.916338	0.189431
762.111824	0.189576
762.307292	0.189660
762.502741	0.189610
762.698173	0.189664
762.893586	0.189576
763.088981	0.189584
763.284358	0.189665
763.479716	0.189801
763.675057	0.189820
763.870379	0.189580
764.065683	0.189545
764.260968	0.189332
764.456236	0.189344
764.651485	0.189279
764.846716	0.189308
765.041929	0.189142
765.237123	0.189001
765.432299	0.188888
765.627457	0.188984
765.822597	0.188933
766.017719	0.188828
766.212822	0.188783
766.407907	0.188657
766.602974	0.188424
766.798023	0.188363
766.993054	0.188264
767.188066	0.188217
767.383060	0.188270
767.578036	0.188408
767.772993	0.188633
767.967933	0.188256
768.162854	0.188370
768.357757	0.188449
768.552642	0.188401
768.747508	0.188504
768.942356	0.188227
769.137186	0.188008
769.331998	0.187687
769.526792	0.187575
769.721567	0.187645
769.916324	0.187487
770.111063	0.187407
770.305784	0.187375
770.500486	0.187279
770.695171	0.187437
770.889837	0.187323
771.084484	0.187288
771.279114	0.187182
771.473725	0.187252
771.668318	0.187334
771.862893	0.187238
772.057450	0.187152
772.251988	0.186890
772.446509	0.186623
772.641011	0.186640
772.835494	0.186694
773.029960	0.186538
773.224407	0.186625
773.418836	0.186406
773.613247	0.186216
773.807640	0.186263
774.002014	0.186457
774.196370	0.186820
774.390708	0.186766
774.585028	0.186665
774.779330	0.186920
774.973613	0.186855
775.167878	0.187073
775.362125	0.187444
775.556354	0.187447
775.750564	0.187446
775.944756	0.187237
776.138930	0.187282
776.333086	0.187203
776.527223	0.187005
776.721343	0.186889
776.915444	0.186827
777.109526	0.186639
777.303591	0.186547
777.497637	0.186348
777.691666	0.186275
777.885676	0.186188
778.079667	0.186470
778.273641	0.186744
778.467596	0.186849
778.661533	0.186850
778.855452	0.186768
779.049352	0.186787
779.243235	0.187062
779.437099	0.187252
779.630945	0.187376
779.824773	0.187666
780.018582	0.187456
780.212373	0.187174
780.406146	0.187212
780.599901	0.187306
780.793638	0.187498
780.987356	0.187701
781.181056	0.187522
781.374738	0.187599
781.568402	0.187248
781.762047	0.187448
781.955674	0.187756
782.149283	0.187890
782.342874	0.187944
782.536447	0.187981
782.730001	0.187909
782.923537	0.188251
783.117055	0.188177
783.310555	0.188324
783.504036	0.188148
783.697499	0.188114
783.890944	0.188141
784.084371	0.188016
784.277780	0.188084
784.471170	0.187887
784.664542	0.187436
784.857896	0.187694
785.051231	0.187581
785.244549	0.187577
785.437848	0.187495
785.631129	0.187335
785.824392	0.187560
786.017636	0.187473
786.210863	0.187564
786.404071	0.187693
786.597260	0.187686
786.790432	0.187279
786.983585	0.187291
787.176721	0.187289
787.369838	0.187496
787.562936	0.187431
787.756017	0.187308
787.949079	0.187196
788.142123	0.187286
788.335149	0.187177
788.528156	0.187592
788.721146	0.187825
788.914117	0.188014
789.107070	0.188072
789.300005	0.188041
789.492921	0.188343
789.685819	0.188567
789.878699	0.188952
790.071561	0.189413
790.264405	0.189714
790.457230	0.190090
790.650037	0.190618
790.842826	0.190757
791.035597	0.191146
791.228349	0.191171
791.421084	0.191564
791.613800	0.191792
791.806497	0.191501
791.999177	0.191667
792.191838	0.191535
792.384481	0.191370
792.577106	0.191444
792.769713	0.191640
792.962301	0.191905
793.154871	0.191882
793.347423	0.191838
793.539957	0.192126
793.732473	0.192239
793.924970	0.192557
794.117449	0.192942
794.309910	0.193263
794.502353	0.193433
794.694777	0.193523
794.887183	0.193522
795.079571	0.193590
795.271941	0.193582
795.464293	0.193440
795.656626	0.193341
795.848941	0.193098
796.041238	0.192946
796.233516	0.192706
796.425777	0.192860
796.618019	0.192898
796.810243	0.193044
797.002449	0.193108
797.194636	0.193239
797.386805	0.193111
797.578956	0.193137
797.771089	0.193132
797.963204	0.193588
798.155300	0.193528
798.347378	0.193607
798.539438	0.193807
798.731480	0.194003
798.923503	0.194340
799.115509	0.194603
799.307496	0.194770
799.499465	0.195020
799.691415	0.195339
799.883348	0.195289
800.075262	0.195628
800.267158	0.195503
800.459035	0.195682
800.650895	0.195597
800.842736	0.195841
801.034559	0.195925
801.226364	0.195936
801.418150	0.195698
801.609919	0.195962
801.801669	0.196093
801.993401	0.196426
802.185114	0.196500
802.376810	0.196646
802.568487	0.196692
802.760146	0.196801
802.951787	0.197167
803.143409	0.197350
803.335014	0.197350
803.526600	0.197502
803.718168	0.197478
803.909717	0.197646
804.101249	0.197745
804.292762	0.198005
804.484257	0.198096
804.675734	0.198272
804.867192	0.198378
805.058632	0.198646
805.250054	0.198766
805.441458	0.198968
805.632844	0.198940
805.824211	0.199165
806.015561	0.199401
806.206891	0.199661
806.398204	0.199618
806.589499	0.199618
806.780775	0.199948
806.972033	0.199978
807.163273	0.200159
807.354495	0.200789
807.545698	0.201009
807.736883	0.201184
807.928050	0.201575
808.119199	0.201826
808.310329	0.202310
808.501441	0.202409
808.692535	0.202789
808.883611	0.203044
809.074669	0.203110
809.265708	0.203441
809.456729	0.203664
809.647732	0.203721
809.838717	0.204171
810.029683	0.204238
810.220632	0.204507
810.411562	0.204373
810.602474	0.204745
810.793367	0.204733
810.984242	0.205216
811.175100	0.205494
811.365938	0.205746
811.556759	0.205724
811.747562	0.205940
811.938346	0.205964
812.129112	0.206492
812.319860	0.206319
812.510589	0.206630
812.701300	0.206752
812.891994	0.206624
813.082668	0.206717
813.273325	0.206949
813.463964	0.207254
813.654584	0.207613
813.845186	0.207589
814.035769	0.207850
814.226335	0.207965
814.416882	0.208091
814.607411	0.208173
814.797922	0.208263
814.988415	0.208311
815.178889	0.208333
815.369345	0.208577
815.559783	0.208811
815.750203	0.209065
815.940605	0.209151
816.130988	0.208960
816.321353	0.209205
816.511700	0.209446
816.702028	0.209443
816.892339	0.209774
817.082631	0.209775
817.272905	0.210209
817.463161	0.210359
817.653398	0.210843
817.843617	0.211295
818.033819	0.211701
818.224001	0.211985
818.414166	0.212523
818.604312	0.212571
818.794440	0.213137
818.984550	0.213420
819.174642	0.213904
819.364716	0.214015
819.554771	0.214186
819.744808	0.214483
819.934827	0.214922
820.124827	0.215234
820.314810	0.215540
820.504774	0.215748
820.694720	0.215892
820.884647	0.216003
821.074557	0.216435
821.264448	0.216586
821.454321	0.216715
821.644176	0.216838
821.834012	0.217054
822.023831	0.217244
822.213631	0.217045
822.403413	0.217223
822.593176	0.217450
822.782922	0.217386
822.972649	0.217855
823.162358	0.218139
823.352049	0.218449
823.541721	0.218654
823.731376	0.218835
823.921012	0.219377
824.110629	0.219565
824.300229	0.219954
824.489811	0.220459
824.679374	0.220711
824.868919	0.221216
825.058445	0.221390
825.247954	0.221793
825.437444	0.222276
825.626916	0.222400
825.816370	0.222790
826.005806	0.222819
826.195223	0.223157
826.384622	0.223309
826.574003	0.223116
826.763366	0.223246
826.952711	0.223216
827.142037	0.223443
827.331345	0.224036
827.520635	0.224216
827.709906	0.224606
827.899160	0.224712
828.088395	0.225343
828.277612	0.225901
828.466810	0.226419
828.655991	0.226907
828.845153	0.227177
829.034297	0.227444
829.223423	0.227856
829.412531	0.228087
829.601620	0.228335
829.790691	0.227837
829.979744	0.227854
830.168779	0.227987
830.357795	0.228113
830.546793	0.228449
830.735773	0.228511
830.924735	0.228623
831.113679	0.229053
831.302604	0.229576
831.491511	0.230299
831.680400	0.230618
831.869271	0.231006
832.058123	0.231215
832.246957	0.231623
832.435773	0.232075
832.624571	0.232202
832.813351	0.232676
833.002112	0.232599
833.190855	0.233095
833.379580	0.233511
833.568287	0.233858
833.756975	0.234364
833.945645	0.234346
834.134297	0.234338
834.322931	0.234575
834.511547	0.234360
834.700144	0.234525
834.888723	0.234459
835.077284	0.234680
835.265826	0.234618
835.454351	0.234848
835.642857	0.235183
835.831345	0.235337
836.019815	0.235804
836.208266	0.236100
836.396699	0.236523
836.585114	0.236637
836.773511	0.236825
836.961890	0.237170
837.150250	0.237045
837.338592	0.237367
837.526916	0.237929
837.715222	0.237877
837.903510	0.238101
838.091779	0.238534
838.280030	0.239101
838.468263	0.239506
838.656477	0.239966
838.844674	0.240469
839.032852	0.240691
839.221012	0.240964
839.409153	0.241436
839.597277	0.241820
839.785382	0.241863
839.973469	0.242107
840.161538	0.242485
840.349589	0.242773
840.537621	0.243330
840.725635	0.243629
840.913631	0.244327
841.101609	0.244804
841.289568	0.245308
841.477509	0.245789
841.665432	0.246103
841.853337	0.246384
842.041224	0.246738
842.229092	0.246972
842.416942	0.247410
842.604774	0.247187
842.792588	0.247475
842.980383	0.247589
843.168160	0.247898
843.355919	0.248129
843.543660	0.248185
843.731382	0.248255
843.919087	0.248441
844.106773	0.248767
844.294441	0.249075
844.482090	0.249229
844.669722	0.249360
844.857335	0.249579
845.044930	0.249817
845.232507	0.250545
845.420065	0.251017
845.607605	0.251563
845.795127	0.251989
845.982631	0.252494
846.170117	0.253110
846.357584	0.253672
846.545033	0.254039
846.732464	0.254588
846.919877	0.254367
847.107272	0.254721
847.294648	0.254596
847.482006	0.254532
847.669346	0.254994
847.856667	0.254994
848.043971	0.255164
848.231256	0.255343
848.418523	0.255411
848.605771	0.256150
848.793002	0.256492
848.980214	0.257246
849.167408	0.257691
849.354584	0.257828
849.541742	0.258498
849.728881	0.258699
849.916002	0.259278
850.103105	0.259631
850.290190	0.259512
850.477256	0.259191
850.664304	0.259136
850.851334	0.259590
851.038346	0.259629
851.225340	0.259649
851.412315	0.260206
851.599272	0.260516
851.786211	0.261114
851.973132	0.261619
852.160034	0.262433
852.346918	0.262910
852.533784	0.262901
852.720632	0.263721
852.907462	0.264322
853.094273	0.264441
853.281066	0.264659
853.467841	0.264711
853.654598	0.265029
853.841336	0.265303
854.028056	0.265569
854.214758	0.266031
854.401442	0.265619
854.588107	0.265411
854.774755	0.265878
854.961384	0.265858
855.147995	0.265862
855.334587	0.266219
855.521162	0.266563
855.707718	0.266831
855.894256	0.267095
856.080775	0.267668
856.267277	0.267950
856.453760	0.268197
856.640225	0.268588
856.826672	0.268972
857.013101	0.269244
857.199511	0.269274
857.385903	0.269508
857.572277	0.269571
857.758633	0.269842
857.944970	0.270030
858.131290	0.269776
858.317591	0.270267
858.503873	0.270644
858.690138	0.270494
858.876384	0.270896
859.062612	0.271083
859.248822	0.271134
859.435014	0.271185
859.621188	0.271521
859.807343	0.272247
859.993480	0.272363
860.179599	0.272419
860.365699	0.272700
860.551781	0.272917
860.737846	0.273339
860.923891	0.273841
861.109919	0.274511
861.295929	0.274743
861.481920	0.274852
861.667893	0.275318
861.853848	0.275687
862.039784	0.276682
862.225702	0.276980
862.411603	0.277425
862.597484	0.277560
862.783348	0.277679
862.969193	0.278512
863.155021	0.278859
863.340830	0.279083
863.526620	0.279384
863.712393	0.279326
863.898147	0.279647
864.083883	0.279769
864.269601	0.280287
864.455301	0.280700
864.640982	0.280218
864.826645	0.280805
865.012290	0.280927
865.197917	0.281112
865.383526	0.281372
865.569116	0.281670
865.754688	0.282112
865.940242	0.282270
866.125777	0.282398
866.311295	0.282974
866.496794	0.283115
866.682275	0.283447
866.867737	0.283773
867.053182	0.283770
867.238608	0.284221
867.424016	0.284462
867.609406	0.284798
867.794778	0.285238
867.980131	0.285387
868.165466	0.285425
868.350783	0.285485
868.536082	0.285562
868.721362	0.285854
868.906625	0.285674
869.091869	0.285889
869.277094	0.285800
869.462302	0.285865
869.647491	0.286424
869.832662	0.286890
870.017815	0.287037
870.202950	0.287529
870.388066	0.287717
870.573165	0.287885
870.758245	0.287915
870.943306	0.288490
871.128350	0.288672
871.313375	0.288894
871.498382	0.289147
871.683371	0.289712
871.868342	0.289997
872.053294	0.290669
872.238229	0.290941
872.423144	0.291323
872.608042	0.291518
872.792922	0.291658
872.977783	0.291758
873.162626	0.291806
873.347451	0.291782
873.532258	0.291722
873.717046	0.291481
873.901816	0.291890
874.086568	0.291800
874.271302	0.292174
874.456017	0.292504
874.640715	0.292816
874.825394	0.292534
875.010055	0.292518
875.194697	0.292954
875.379322	0.293209
875.563928	0.293852
875.748516	0.294097
875.933085	0.293645
876.117637	0.294039
876.302170	0.294033
876.486685	0.294815
876.671182	0.294932
876.855661	0.295317
877.040121	0.295502
877.224563	0.294688
877.408987	0.294329
877.593393	0.294962
877.777780	0.294807
877.962150	0.295156
878.146501	0.295529
878.330833	0.296223
878.515148	0.295806
878.699444	0.296029
878.883722	0.296545
879.067982	0.297333
879.252224	0.297476
879.436447	0.297852
879.620653	0.297584
879.804840	0.297271
879.989008	0.297188
880.173159	0.297488
880.357291	0.297221
880.541405	0.297608
880.725501	0.297674
880.909579	0.297943
881.093638	0.298054
881.277680	0.298455
881.461703	0.298776
881.645707	0.298845
881.829694	0.298617
882.013662	0.299155
882.197612	0.299048
882.381544	0.299207
882.565458	0.299041
882.749353	0.299021
882.933230	0.298856
883.117089	0.298642
883.300930	0.298757
883.484753	0.299297
883.668557	0.299189
883.852343	0.299375
884.036111	0.298879
884.219861	0.298880
884.403592	0.299241
884.587305	0.299419
884.771000	0.299585
884.954677	0.299028
885.138335	0.298918
885.321976	0.298636
885.505598	0.298312
885.689201	0.298386
885.872787	0.298720
886.056354	0.298403
886.239904	0.298874
886.423434	0.298539
886.606947	0.298961
886.790442	0.299026
886.973918	0.299385
887.157376	0.299667
887.340816	0.299661
887.524237	0.299840
887.707641	0.299649
887.891026	0.299413
888.074393	0.299738
888.257741	0.299934
888.441072	0.299394
888.624384	0.299559
888.807678	0.299789
888.990954	0.300127
889.174211	0.299250
889.357451	0.299232
889.540672	0.299313
889.723875	0.299513
889.907059	0.299579
890.090226	0.300086
890.273374	0.299874
890.456504	0.299928
890.639616	0.299804
890.822709	0.300414
891.005785	0.300356
891.188842	0.300045
891.371881	0.299757
891.554901	0.299899
891.737904	0.299841
891.920888	0.299774
892.103854	0.299230
892.286802	0.299303
892.469731	0.299315
892.652643	0.299863
892.835536	0.299976
893.018410	0.300077
893.201267	0.299582
893.384106	0.299513
893.566926	0.299539
893.749728	0.299530
893.932511	0.299951
894.115277	0.299706
894.298024	0.299119
894.480753	0.298624
894.663464	0.298666
894.846157	0.298779
895.028831	0.299160
895.211487	0.299456
895.394125	0.299555
895.576745	0.299360
895.759346	0.299656
895.941930	0.298959
896.124495	0.299492
896.307041	0.299105
896.489570	0.299048
896.672080	0.298864
896.854573	0.298483
897.037046	0.298465
897.219502	0.297843
897.401940	0.297830
897.584359	0.298625
897.766760	0.298492
897.949143	0.298629
898.131507	0.298850
898.313854	0.298392
898.496182	0.298395
898.678492	0.298074
898.860783	0.298095
899.043057	0.297635
899.225312	0.297473
899.407549	0.297150
899.589768	0.297614
899.771968	0.297095
899.954151	0.297277
900.136315	0.297200
900.318461	0.297492
900.500588	0.297648
900.682698	0.297367
900.864789	0.296826
901.046862	0.296862
901.228917	0.295841
901.410953	0.295648
901.592971	0.295208
901.774972	0.294748
901.956953	0.294317
902.138917	0.293291
902.320862	0.293354
902.502790	0.293525
902.684699	0.293240
902.866589	0.293100
903.048462	0.292807
903.230316	0.292696
903.412152	0.292541
903.593970	0.291972
903.775770	0.292101
903.957551	0.291525
904.139314	0.291330
904.321059	0.290912
904.502786	0.290424
904.684494	0.290560
904.866185	0.290466
905.047857	0.289959
905.229510	0.289891
905.411146	0.290055
905.592763	0.289711
905.774363	0.289072
905.955943	0.288920
906.137506	0.289148
906.319051	0.289019
906.500577	0.288641
906.682085	0.288475
906.863575	0.287943
907.045046	0.287542
907.226500	0.287640
907.407935	0.287843
907.589352	0.287439
907.770750	0.287018
907.952131	0.286086
908.133493	0.285644
908.314837	0.285340
908.496163	0.285263
908.677470	0.285073
908.858760	0.284560
909.040031	0.284278
909.221284	0.284469
909.402518	0.284609
909.583735	0.284372
909.764933	0.284004
909.946113	0.284004
910.127275	0.284293
910.308418	0.284432
910.489544	0.284292
910.670651	0.283222
910.851740	0.282660
911.032810	0.281848
911.213863	0.281686
911.394897	0.281319
911.575913	0.280831
911.756911	0.279751
911.937890	0.278454
912.118851	0.277737
912.299794	0.278044
912.480719	0.277528
912.661626	0.277387
912.842514	0.277112
913.023384	0.276789
913.204236	0.276051
913.385070	0.275754
913.565886	0.276342
913.746683	0.275995
913.927462	0.275133
914.108223	0.274986
914.288965	0.274287
914.469690	0.274587
914.650396	0.274057
914.831084	0.274398
915.011754	0.274620
915.192405	0.273881
915.373038	0.273944
915.553653	0.273410
915.734250	0.272670
915.914829	0.272417
916.095389	0.271204
916.275931	0.270841
916.456455	0.269526
916.636961	0.268789
916.817448	0.268042
916.997917	0.267112
917.178368	0.267297
917.358801	0.266994
917.539216	0.266675
917.719612	0.266291
917.899990	0.266434
918.080350	0.266048
918.260692	0.265704
918.441015	0.265168
918.621320	0.265260
918.801607	0.264625
918.981876	0.264056
919.162127	0.263524
919.342359	0.263008
919.522573	0.262689
919.702769	0.263072
919.882947	0.262042
920.063106	0.261538
920.243247	0.260954
920.423370	0.260410
920.603475	0.259840
920.783562	0.259541
920.963630	0.259219
921.143680	0.258101
921.323712	0.257768
921.503725	0.257434
921.683721	0.257574
921.863698	0.257197
922.043657	0.256795
922.223598	0.256359
922.403520	0.255217
922.583424	0.254981
922.763311	0.254521
922.943178	0.253742
923.123028	0.253330
923.302859	0.252405
923.482673	0.251970
923.662467	0.250600
923.842244	0.250052
924.022003	0.249687
924.201743	0.248386
924.381465	0.247702
924.561169	0.247048
924.740854	0.247140
924.920522	0.246553
925.100171	0.245657
925.279802	0.245964
925.459414	0.245478
925.639009	0.244956
925.818585	0.245171
925.998143	0.244630
926.177683	0.243852
926.357205	0.242736
926.536708	0.241694
926.716193	0.241387
926.895660	0.240464
927.075109	0.240513
927.254539	0.239963
927.433951	0.238928
927.613345	0.238465
927.792721	0.238056
927.972079	0.237326
928.151418	0.237659
928.330739	0.236615
928.510042	0.236792
928.689327	0.235429
928.868593	0.234952
929.047841	0.234603
929.227071	0.234322
929.406283	0.233291
929.585476	0.232466
929.764652	0.231450
929.943809	0.231047
930.122948	0.229517
930.302068	0.228475
930.481171	0.228586
930.660255	0.227493
930.839321	0.226124
931.018369	0.225220
931.197398	0.224367
931.376409	0.223879
931.555402	0.222871
931.734377	0.222235
931.913334	0.222334
932.092272	0.220801
932.271192	0.219979
932.450094	0.220281
932.628978	0.219637
932.807844	0.219660
932.986691	0.219112
933.165520	0.219227
933.344331	0.219036
933.523123	0.218097
933.701898	0.217122
933.880654	0.216933
934.059392	0.216107
934.238111	0.216082
934.416813	0.215132
934.595496	0.213781
934.774161	0.212768
934.952808	0.211296
935.131437	0.210792
935.310047	0.210790
935.488639	0.210014
935.667213	0.208376
935.845769	0.207561
936.024306	0.206941
936.202825	0.207301
936.381326	0.206483
936.559809	0.207245
936.738274	0.206223
936.916720	0.206044
937.095148	0.204406
937.273558	0.203624
937.451950	0.203914
937.630323	0.203528
937.808678	0.201940
937.987015	0.201426
938.165334	0.199757
938.343635	0.198950
938.521917	0.196521
938.700181	0.196610
938.878427	0.196425
939.056655	0.194745
939.234864	0.193391
939.413055	0.192239
939.591228	0.190449
939.769383	0.190691
939.947519	0.190478
940.125638	0.190501
940.303738	0.189281
940.481820	0.188288
940.659883	0.187338
940.837929	0.187566
941.015956	0.187000
941.193965	0.187261
941.371955	0.184749
941.549928	0.182857
941.727882	0.182406
941.905818	0.182986
942.083736	0.183076
942.261636	0.182622
942.439517	0.181310
942.617380	0.180714
942.795225	0.180507
942.973052	0.179896
943.150860	0.180004
943.328651	0.179294
943.506423	0.178567
943.684176	0.177664
943.861912	0.177292
944.039629	0.176199
944.217328	0.176232
944.395009	0.174958
944.572672	0.175714
944.750317	0.175112
944.927943	0.174918
945.105551	0.173778
945.283141	0.172640
945.460712	0.171175
945.638265	0.170995
945.815801	0.170564
945.993317	0.169763
946.170816	0.168161
946.348297	0.167595
946.525759	0.166712
946.703203	0.165339
946.880629	0.163358
947.058036	0.162344
947.235425	0.161817
947.412797	0.161562
947.590149	0.160419
947.767484	0.159628
947.944800	0.156675
948.122099	0.155494
948.299379	0.154955
948.476640	0.156850
948.653884	0.157205
948.831109	0.156535
949.008316	0.153376
949.185505	0.153844
949.362676	0.154456
949.539828	0.157105
949.716962	0.157216
949.894078	0.156909
950.071176	0.156121
950.248256	0.155607
950.425317	0.154190
950.602360	0.154751
950.779385	0.152692
950.956391	0.151806
951.133380	0.150082
951.310350	0.147783
951.487302	0.146257
951.664235	0.144521
951.841151	0.145466
952.018048	0.145328
952.194927	0.143554
952.371788	0.144192
952.548631	0.142677
952.725455	0.142498
952.902261	0.142512
953.079049	0.144035
953.255819	0.143377
953.432570	0.140735
953.609303	0.139939
953.786018	0.140876
953.962715	0.139170
954.139394	0.139941
954.316054	0.138200
954.492696	0.137722
954.669320	0.136630
954.845926	0.135214
955.022513	0.135343
955.199083	0.134021
955.375634	0.131539
955.552166	0.131162
955.728681	0.129264
955.905177	0.128768
956.081655	0.128797
956.258115	0.128023
956.434557	0.127880
956.610980	0.126419
956.787385	0.125613
956.963772	0.128873
957.140141	0.129545
957.316492	0.129370
957.492824	0.130924
957.669138	0.129919
957.845434	0.129131
958.021712	0.129772
958.197971	0.131143
958.374212	0.132362
958.550435	0.130809
958.726640	0.128230
958.902826	0.128317
959.078995	0.125921
959.255145	0.125556
959.431277	0.125018
959.607390	0.124481
959.783486	0.121501
959.959563	0.120524
960.135622	0.119208
960.311662	0.120259
960.487685	0.119680
960.663689	0.118249
960.839675	0.120062
961.015643	0.121223
961.191593	0.121290
961.367524	0.122895
961.543437	0.123418
961.719332	0.125283
961.895209	0.124975
962.071067	0.124627
962.246907	0.126648
962.422730	0.124686
962.598533	0.123706
962.774319	0.123735
962.950086	0.124049
963.125835	0.123583
963.301566	0.121323
963.477279	0.121320
963.652973	0.119990
963.828650	0.118722
964.004308	0.117315
964.179947	0.116365
964.355569	0.118125
964.531172	0.116996
964.706757	0.118543
964.882324	0.121619
965.057873	0.121072
965.233403	0.122502
965.408916	0.123392
965.584410	0.125384
965.759885	0.124153
965.935343	0.121961
966.110782	0.122959
966.286203	0.122386
966.461606	0.120320
966.636991	0.120852
966.812357	0.121948
966.987705	0.120197
967.163035	0.118647
967.338347	0.119741
967.513641	0.120373
967.688916	0.118347
967.864173	0.119043
968.039412	0.120235
968.214632	0.119964
968.389835	0.118924
968.565019	0.122344
968.740185	0.121582
968.915333	0.122312
969.090462	0.120157
969.265573	0.120223
969.440667	0.119018
969.615741	0.116251
969.790798	0.117610
969.965836	0.118181
970.140856	0.117673
970.315858	0.120635
970.490842	0.120568
970.665808	0.120807
970.840755	0.120609
971.015684	0.120377
971.190595	0.120773
971.365487	0.120242
971.540362	0.120067
971.715218	0.119464
971.890056	0.118654
972.064875	0.119138
972.239677	0.122264
972.414460	0.122505
972.589225	0.121308
972.763972	0.123336
972.938700	0.123679
973.113411	0.122081
973.288103	0.123497
973.462777	0.122014
973.637432	0.120341
973.812070	0.119653
973.986689	0.121365
974.161290	0.121286
974.335873	0.120845
974.510437	0.119118
974.684984	0.120735
974.859512	0.118574
975.034022	0.120632
975.208513	0.120845
975.382987	0.117937
975.557442	0.117675
975.731879	0.117181
975.906298	0.114630
976.080698	0.115975
976.255080	0.116017
976.429445	0.117084
976.603790	0.115676
976.778118	0.116325
976.952427	0.117311
977.126719	0.115670
977.300992	0.116864
977.475246	0.118503
977.649483	0.116962
977.823701	0.116406
977.997901	0.114304
978.172083	0.113633
978.346247	0.112985
978.520392	0.115192
978.694519	0.115311
978.868628	0.116254
979.042719	0.117276
979.216791	0.118043
979.390845	0.117975
979.564882	0.117172
979.738899	0.117178
979.912899	0.118833
980.086880	0.118809
980.260843	0.119733
980.434788	0.118071
980.608715	0.115537
980.782623	0.115676
980.956514	0.117046
981.130386	0.121010
981.304240	0.122533
981.478075	0.122658
981.651892	0.120655
981.825692	0.120481
981.999472	0.122512
982.173235	0.122704
982.346980	0.120650
982.520706	0.119457
982.694414	0.119142
982.868104	0.120564
983.041775	0.118504
983.215428	0.120643
983.389064	0.120162
983.562680	0.117812
983.736279	0.119989
983.909860	0.120886
984.083422	0.120242
984.256966	0.117105
984.430491	0.115560
984.603999	0.116039
984.777488	0.117355
984.950959	0.117179
985.124412	0.117280
985.297847	0.117405
985.471263	0.117042
985.644661	0.116057
985.818041	0.116880
985.991403	0.115771
986.164747	0.116794
986.338072	0.115225
986.511379	0.115770
986.684668	0.115144
986.857938	0.115547
987.031191	0.115892
987.204425	0.119178
987.377641	0.121061
987.550839	0.122888
987.724018	0.124029
987.897179	0.123494
988.070322	0.123879
988.243447	0.127793
988.416554	0.126957
988.589642	0.127789
988.762712	0.126859
988.935764	0.126019
989.108798	0.124890
989.281813	0.124481
989.454811	0.122339
989.627790	0.122643
989.800751	0.118892
989.973693	0.120195
990.146617	0.118527
990.319524	0.118324
990.492412	0.117860
990.665281	0.117874
990.838133	0.115529
991.010966	0.117594
991.183781	0.116201
991.356578	0.116337
991.529356	0.114672
991.702117	0.116689
991.874859	0.116257
992.047583	0.116595
992.220288	0.116454
992.392976	0.116763
992.565645	0.116040
992.738296	0.116511
992.910929	0.117409
993.083543	0.118011
993.256139	0.117410
993.428718	0.118108
993.601277	0.118830
993.773819	0.120021
993.946342	0.121742
994.118848	0.120128
994.291335	0.121035
994.463803	0.120633
994.636254	0.120411
994.808686	0.120738
994.981100	0.120105
995.153496	0.120553
995.325874	0.119446
995.498233	0.117468
995.670574	0.118775
995.842897	0.119497
996.015202	0.121813
996.187488	0.120361
996.359757	0.120603
996.532007	0.120266
996.704239	0.118773
996.876452	0.118595
997.048648	0.119308
997.220825	0.118292
997.392984	0.114905
997.565124	0.113799
997.737247	0.112255
997.909351	0.112353
998.081437	0.111573
998.253505	0.111672
998.425554	0.111410
998.597586	0.113882
998.769599	0.115192
998.941594	0.118204
999.113571	0.118606
999.285529	0.120166
999.457469	0.119077
999.629391	0.121668
999.801295	0.122426
999.973181	0.124480
1000.145048	0.121112
1000.316897	0.123255
1000.488728	0.122844
1000.660541	0.120867
1000.832335	0.121368
1001.004111	0.121844
1001.175869	0.120155
1001.347609	0.120325
1001.519331	0.118050
1001.691034	0.118582
1001.862719	0.117471
1002.034386	0.117271
1002.206035	0.120733
1002.377665	0.119917
1002.549277	0.120519
1002.720871	0.120172
1002.892447	0.118269
1003.064004	0.118959
1003.235544	0.120323
1003.407065	0.118994
1003.578568	0.118025
1003.750052	0.115338
1003.921519	0.115030
1004.092967	0.115222
1004.264397	0.116022
1004.435809	0.115705
1004.607202	0.115682
1004.778577	0.114714
1004.949934	0.113926
1005.121273	0.114261
1005.292594	0.115407
1005.463896	0.118281
1005.635180	0.117648
1005.806446	0.116899
1005.977694	0.117177
1006.148923	0.119188
1006.320135	0.118553
1006.491328	0.119570
1006.662503	0.121229
1006.833659	0.119353
1007.004798	0.119637
1007.175918	0.119698
1007.347020	0.121021
1007.518103	0.120678
1007.689169	0.117481
1007.860216	0.118067
1008.031245	0.118124
1008.202256	0.116682
1008.373248	0.116657
1008.544223	0.115052
1008.715179	0.115188
1008.886117	0.111106
1009.057036	0.113597
1009.227938	0.114246
1009.398821	0.113925
1009.569686	0.113423
1009.740533	0.112432
1009.911361	0.113806
1010.082172	0.113116
1010.252964	0.112695
1010.423738	0.114421
1010.594493	0.113334
1010.765231	0.112319
1010.935950	0.111751
1011.106651	0.113101
1011.277334	0.114080
1011.447998	0.110793
1011.618645	0.110428
1011.789273	0.110719
1011.959882	0.112300
1012.130474	0.112354
1012.301048	0.113954
1012.471603	0.113934
1012.642140	0.113269
1012.812658	0.113342
1012.983159	0.115606
1013.153641	0.116649
1013.324105	0.115058
1013.494551	0.114141
1013.664979	0.114232
1013.835388	0.114539
1014.005779	0.114633
1014.176152	0.114412
1014.346507	0.114943
1014.516843	0.115217
1014.687162	0.115532
1014.857462	0.116099
1015.027744	0.117327
1015.198007	0.115194
1015.368252	0.115171
1015.538480	0.116195
1015.708689	0.115256
1015.878879	0.114996
1016.049052	0.115521
1016.219206	0.114256
1016.389342	0.115394
1016.559460	0.114058
1016.729559	0.116424
1016.899641	0.116832
1017.069704	0.117061
1017.239749	0.115125
1017.409775	0.115121
1017.579784	0.113985
1017.749774	0.116223
1017.919746	0.115606
1018.089700	0.116771
1018.259635	0.116251
1018.429553	0.115755
1018.599452	0.114985
1018.769333	0.115611
1018.939195	0.113812
1019.109040	0.115805
1019.278866	0.114053
1019.448674	0.113518
1019.618464	0.113301
1019.788235	0.112943
1019.957989	0.112598
1020.127724	0.112305
1020.297441	0.114969
1020.467139	0.117227
1020.636820	0.116538
1020.806482	0.117030
1020.976126	0.117475
1021.145752	0.117893
1021.315359	0.118968
1021.484948	0.119059
1021.654519	0.121055
1021.824072	0.121822
1021.993607	0.119517
1022.163123	0.119118
1022.332621	0.119559
1022.502101	0.118976
1022.671563	0.118592
1022.841007	0.118533
1023.010432	0.116692
1023.179839	0.114981
1023.349228	0.112051
1023.518598	0.114152
1023.687951	0.114631
1023.857285	0.112490
1024.026601	0.113327
1024.195899	0.113894
1024.365178	0.112166
1024.534439	0.113106
1024.703682	0.112466
1024.872907	0.112966
1025.042114	0.111371
1025.211302	0.110505
1025.380472	0.111150
1025.549624	0.110916
1025.718758	0.108536
1025.887873	0.109549
1026.056970	0.111170
1026.226049	0.111860
1026.395110	0.111695
1026.564153	0.111957
1026.733177	0.111146
1026.902183	0.112245
1027.071171	0.112763
1027.240141	0.113640
1027.409092	0.113496
1027.578026	0.113354
1027.746940	0.114714
1027.915837	0.115357
1028.084716	0.114118
1028.253576	0.114101
1028.422418	0.114942
1028.591242	0.114308
1028.760048	0.114805
1028.928835	0.114947
1029.097604	0.113786
1029.266355	0.112352
1029.435088	0.110701
1029.603803	0.112746
1029.772499	0.114182
1029.941177	0.112544
1030.109837	0.113683
1030.278478	0.111008
1030.447102	0.110298
1030.615707	0.109019
1030.784294	0.109069
1030.952863	0.110954
1031.121413	0.110634
1031.289945	0.110411
1031.458460	0.109863
1031.626955	0.107743
1031.795433	0.110954
1031.963892	0.111611
1032.132334	0.112639
1032.300756	0.111450
1032.469161	0.112552
1032.637548	0.113429
1032.805916	0.115025
1032.974266	0.116186
1033.142598	0.117928
1033.310911	0.115060
1033.479207	0.114184
1033.647484	0.114606
1033.815743	0.116658
1033.983983	0.116020
1034.152206	0.115548
1034.320410	0.112104
1034.488596	0.111375
1034.656764	0.109141
1034.824914	0.113252
1034.993045	0.114397
1035.161158	0.115070
1035.329253	0.115256
1035.497330	0.116081
1035.665388	0.115192
1035.833428	0.115692
1036.001450	0.116839
1036.169454	0.115648
1036.337440	0.113886
1036.505407	0.112789
1036.673356	0.110407
1036.841287	0.109566
1037.009200	0.108873
1037.177094	0.108520
1037.344970	0.109605
1037.512828	0.110467
1037.680668	0.111651
1037.848489	0.112588
1038.016293	0.111953
1038.184078	0.113659
1038.351845	0.113515
1038.519593	0.114915
1038.687324	0.116185
1038.855036	0.116622
1039.022730	0.112919
1039.190406	0.114881
1039.358063	0.114502
1039.525702	0.114697
1039.693323	0.114062
1039.860926	0.112149
1040.028511	0.111424
1040.196077	0.111611
1040.363625	0.111171
1040.531155	0.112199
1040.698667	0.112869
1040.866161	0.111634
1041.033636	0.110300
1041.201093	0.110436
1041.368532	0.112215
1041.535952	0.110108
1041.703355	0.108940
1041.870739	0.108767
1042.038105	0.111870
1042.205452	0.109484
1042.372782	0.109935
1042.540093	0.112059
1042.707386	0.111509
1042.874661	0.110510
1043.041918	0.111631
1043.209156	0.111924
1043.376376	0.112500
1043.543578	0.110707
1043.710762	0.111956
1043.877927	0.112317
1044.045074	0.111435
1044.212203	0.114158
1044.379314	0.114209
1044.546407	0.111928
1044.713481	0.112853
1044.880537	0.113043
1045.047575	0.112733
1045.214595	0.112961
1045.381596	0.113070
1045.548579	0.113111
1045.715544	0.110848
1045.882491	0.112422
1046.049420	0.113093
1046.216330	0.112774
1046.383222	0.111997
1046.550096	0.112767
1046.716951	0.112832
1046.883789	0.110236
1047.050608	0.112153
1047.217409	0.111716
1047.384192	0.110378
1047.550956	0.111943
1047.717703	0.110142
1047.884431	0.110228
1048.051140	0.110456
1048.217832	0.110748
1048.384505	0.112094
1048.551161	0.111728
1048.717798	0.111891
1048.884416	0.113866
1049.051017	0.115052
1049.217599	0.116113
1049.384163	0.117680
1049.550709	0.114412
1049.717237	0.112727
1049.883746	0.112745
1050.050237	0.112456
1050.216710	0.113257
1050.383165	0.111191
1050.549601	0.110237
1050.716019	0.110185
1050.882420	0.108446
1051.048801	0.111137
1051.215165	0.111519
1051.381510	0.111370
1051.547837	0.110625
1051.714146	0.111186
1051.880437	0.112278
1052.046709	0.111745
1052.212964	0.112608
1052.379200	0.114922
1052.545417	0.114922
1052.711617	0.116258
1052.877798	0.117243
1053.043961	0.118027
1053.210106	0.117267
1053.376233	0.116426
1053.542341	0.115200
1053.708432	0.114662
1053.874504	0.111170
1054.040557	0.109148
1054.206593	0.109207
1054.372610	0.108901
1054.538609	0.107308
1054.704590	0.106503
1054.870553	0.106158
1055.036497	0.107911
1055.202424	0.106708
1055.368331	0.107470
1055.534221	0.110023
1055.700093	0.107496
1055.865946	0.108145
1056.031781	0.107983
1056.197598	0.109227
1056.363397	0.110722
1056.529177	0.111555
1056.694939	0.111223
1056.860683	0.112595
1057.026409	0.110882
1057.192116	0.113400
1057.357806	0.113706
1057.523477	0.115788
1057.689130	0.115929
1057.854764	0.115891
1058.020381	0.114273
1058.185979	0.115568
1058.351559	0.115031
1058.517120	0.116058
1058.682664	0.116133
1058.848189	0.114888
1059.013696	0.114615
1059.179185	0.114688
1059.344656	0.114790
1059.510108	0.112646
1059.675542	0.112090
1059.840958	0.111817
1060.006356	0.111025
1060.171735	0.110013
1060.337096	0.107922
1060.502439	0.108088
1060.667764	0.108476
1060.833071	0.108168
1060.998359	0.111512
1061.163629	0.113106
1061.328881	0.113903
1061.494115	0.113906
1061.659330	0.112201
1061.824527	0.113671
1061.989706	0.112359
1062.154867	0.109968
1062.320010	0.109269
1062.485134	0.107999
1062.650240	0.106942
1062.815328	0.108656
1062.980398	0.111290
1063.145449	0.114280
1063.310482	0.116256
1063.475497	0.118359
1063.640494	0.119291
1063.805473	0.118050
1063.970433	0.120354
1064.135375	0.118864
1064.300299	0.116955
1064.465204	0.116315
1064.630092	0.115466
1064.794961	0.117156
1064.959812	0.117406
1065.124645	0.117360
1065.289459	0.117268
1065.454256	0.112731
1065.619034	0.114565
1065.783793	0.113185
1065.948535	0.111635
1066.113258	0.109695
1066.277964	0.105524
1066.442651	0.102358
1066.607319	0.100583
1066.771970	0.101100
1066.936602	0.104509
1067.101216	0.101987
1067.265812	0.103890
1067.430389	0.103411
1067.594949	0.103844
1067.759490	0.103542
1067.924013	0.104210
1068.088518	0.106014
1068.253004	0.109327
1068.417472	0.107417
1068.581922	0.108998
1068.746354	0.107836
1068.910768	0.107462
1069.075163	0.107739
1069.239540	0.109746
1069.403899	0.112219
1069.568240	0.110701
1069.732562	0.108302
1069.896866	0.108221
1070.061152	0.108333
1070.225420	0.105569
1070.389670	0.105965
1070.553901	0.106274
1070.718114	0.105177
1070.882309	0.103653
1071.046486	0.107008
1071.210644	0.105875
1071.374784	0.107625
1071.538906	0.106685
1071.703010	0.109803
1071.867096	0.109494
1072.031163	0.109187
1072.195212	0.107639
1072.359243	0.104906
1072.523256	0.102542
1072.687250	0.103998
1072.851226	0.102801
1073.015184	0.104247
1073.179124	0.104911
1073.343045	0.107486
1073.506949	0.107531
1073.670834	0.110291
1073.834701	0.112600
1073.998549	0.112581
1074.162380	0.110532
1074.326192	0.109894
1074.489986	0.108769
1074.653761	0.108132
1074.817519	0.106254
1074.981258	0.106229
1075.144979	0.105777
1075.308682	0.105755
1075.472367	0.107075
1075.636033	0.108919
1075.799681	0.110345
1075.963311	0.111321
1076.126923	0.109190
1076.290516	0.107253
1076.454092	0.107920
1076.617649	0.105771
1076.781187	0.105844
1076.944708	0.104988
1077.108210	0.105260
1077.271695	0.102557
1077.435160	0.102324
1077.598608	0.102137
1077.762038	0.104740
1077.925449	0.106579
1078.088842	0.107435
1078.252217	0.107062
1078.415573	0.107932
1078.578912	0.107377
1078.742232	0.110321
1078.905534	0.110612
1079.068817	0.114381
1079.232083	0.111451
1079.395330	0.108431
1079.558559	0.108537
1079.721770	0.108085
1079.884962	0.111404
1080.048136	0.109037
1080.211293	0.106603
1080.374430	0.108602
1080.537550	0.106285
1080.700651	0.108864
1080.863735	0.109290
1081.026800	0.110186
1081.189846	0.109640
1081.352875	0.104969
1081.515885	0.106874
1081.678877	0.108761
1081.841851	0.106704
1082.004807	0.107854
1082.167744	0.107276
1082.330663	0.108857
1082.493564	0.109564
1082.656447	0.112192
1082.819312	0.111145
1082.982158	0.112652
1083.144986	0.111698
1083.307796	0.112691
1083.470587	0.107931
1083.633361	0.106672
1083.796116	0.105698
1083.958853	0.105402
1084.121571	0.104878
1084.284272	0.106463
1084.446954	0.106095
1084.609618	0.108037
1084.772264	0.106881
1084.934892	0.111948
1085.097501	0.116492
1085.260092	0.116142
1085.422665	0.115912
1085.585220	0.116217
1085.747756	0.115740
1085.910274	0.114880
1086.072774	0.116134
1086.235256	0.116053
1086.397720	0.117466
1086.560165	0.113997
1086.722592	0.113966
1086.885001	0.114226
1087.047392	0.116424
1087.209764	0.119275
1087.372119	0.119015
1087.534455	0.117170
1087.696772	0.118605
1087.859072	0.115560
1088.021353	0.117645
1088.183616	0.116872
1088.345861	0.118296
1088.508088	0.113572
1088.670296	0.111055
1088.832486	0.110513
1088.994658	0.107727
1089.156812	0.108619
1089.318948	0.111671
1089.481065	0.111001
1089.643164	0.110095
1089.805245	0.107022
1089.967308	0.106385
1090.129352	0.106476
1090.291378	0.105888
1090.453386	0.108752
1090.615376	0.107373
1090.777347	0.101557
1090.939301	0.100506
1091.101236	0.103056
1091.263153	0.101863
1091.425051	0.102221
1091.586932	0.101780
1091.748794	0.104241
1091.910638	0.105024
1092.072463	0.104447
1092.234271	0.104990
1092.396060	0.107587
1092.557831	0.107802
1092.719584	0.112611
1092.881319	0.113838
1093.043035	0.112514
1093.204733	0.111247
1093.366413	0.108280
1093.528075	0.106554
1093.689718	0.107389
1093.851343	0.103112
1094.012950	0.103156
1094.174539	0.097398
1094.336110	0.095704
1094.497662	0.098899
1094.659196	0.099333
1094.820712	0.099869
1094.982210	0.099506
1095.143689	0.101447
1095.305151	0.104319
1095.466594	0.101277
1095.628018	0.106146
1095.789425	0.109817
1095.950813	0.108124
1096.112183	0.108024
1096.273535	0.107771
1096.434869	0.110680
1096.596184	0.110274
1096.757482	0.110815
1096.918761	0.114291
1097.080021	0.109930
1097.241264	0.111242
1097.402488	0.112277
1097.563694	0.110427
1097.724882	0.108904
1097.886052	0.108499
1098.047203	0.109140
1098.208336	0.107838
1098.369451	0.108810
1098.530548	0.114193
1098.691627	0.117061
1098.852687	0.117263
1099.013729	0.119070
1099.174753	0.120436
1099.335758	0.122122
1099.496746	0.125808
1099.657715	0.126449
1099.818666	0.125219
1099.979599	0.119292
1100.140513	0.114105
1100.301409	0.114667
1100.462287	0.110537
1100.623147	0.113708
1100.783989	0.113209
1100.944812	0.110542
1101.105617	0.108338
1101.266404	0.107260
1101.427173	0.114164
1101.587923	0.113163
1101.748656	0.111819
1101.909370	0.116387
1102.070066	0.120357
1102.230743	0.119401
1102.391403	0.115503
1102.552044	0.113106
1102.712667	0.111660
1102.873271	0.108627
1103.033858	0.109767
1103.194426	0.109156
1103.354976	0.108970
1103.515508	0.105856
1103.676021	0.108704
1103.836517	0.113479
1103.996994	0.116876
1104.157453	0.118600
1104.317893	0.119660
1104.478316	0.120015
1104.638720	0.119853
1104.799106	0.119487
1104.959474	0.113685
1105.119823	0.106585
1105.280155	0.103254
1105.440468	0.103284
1105.600763	0.099621
1105.761039	0.098092
1105.921298	0.096996
1106.081538	0.097130
1106.241760	0.099038
1106.401964	0.103344
1106.562149	0.106504
1106.722316	0.107223
1106.882465	0.109738
1107.042596	0.108830
1107.202709	0.112382
1107.362803	0.112785
1107.522879	0.117848
1107.682937	0.119159
1107.842977	0.116867
1108.002999	0.114993
1108.163002	0.114095
1108.322987	0.110886
1108.482954	0.113668
1108.642902	0.110064
1108.802833	0.110360
1108.962745	0.107423
1109.122639	0.103971
1109.282515	0.104864
1109.442372	0.104432
1109.602211	0.107644
1109.762032	0.106035
1109.921835	0.110761
1110.081620	0.111653
1110.241386	0.112356
1110.401134	0.112173
1110.560864	0.110037
1110.720576	0.110001
1110.880269	0.112984
1111.039945	0.109036
1111.199602	0.108657
1111.359240	0.107020
1111.518861	0.108465
1111.678463	0.108242
1111.838047	0.103422
1111.997613	0.107119
1112.157161	0.108337
1112.316690	0.109636
1112.476202	0.111630
1112.635695	0.115202
1112.795169	0.114029
1112.954626	0.110691
1113.114064	0.108587
1113.273484	0.107419
1113.432886	0.103873
1113.592270	0.102282
1113.751635	0.097641
1113.910983	0.098012
1114.070312	0.096934
1114.229622	0.093331
1114.388915	0.093110
1114.548189	0.095947
1114.707445	0.101100
1114.866683	0.102489
1115.025903	0.106102
1115.185104	0.106582
1115.344287	0.105359
1115.503452	0.100847
1115.662599	0.107098
1115.821727	0.105496
1115.980838	0.107940
1116.139930	0.105371
1116.299004	0.104935
1116.458059	0.100169
1116.617097	0.105043
1116.776116	0.104827
1116.935117	0.106885
1117.094099	0.105721
1117.253064	0.111373
1117.412010	0.107725
1117.570938	0.110884
1117.729848	0.111166
1117.888740	0.110018
1118.047613	0.106672
1118.206468	0.110275
1118.365305	0.111994
1118.524124	0.111659
1118.682924	0.109671
1118.841707	0.109676
1119.000471	0.108434
1119.159216	0.107382
1119.317944	0.117376
1119.476653	0.121516
1119.635344	0.120128
1119.794017	0.120000
1119.952672	0.119726
1120.111308	0.111363
1120.269927	0.110070
1120.428527	0.112469
1120.587108	0.112405
1120.745672	0.103891
1120.904217	0.100770
1121.062744	0.096510
1121.221253	0.100147
1121.379744	0.097615
1121.538216	0.104536
1121.696671	0.107197
1121.855107	0.104709
1122.013524	0.107968
1122.171924	0.109572
1122.330305	0.108723
1122.488668	0.110686
1122.647013	0.107437
1122.805340	0.107794
1122.963648	0.111110
1123.121938	0.105064
1123.280210	0.105521
1123.438464	0.106594
1123.596700	0.105602
1123.754917	0.105119
1123.913116	0.109819
1124.071297	0.107876
1124.229459	0.108147
1124.387604	0.099609
1124.545730	0.108681
1124.703838	0.104915
1124.861928	0.099155
1125.019999	0.096629
1125.178052	0.095705
1125.336088	0.091693
1125.494104	0.093736
1125.652103	0.095387
1125.810083	0.100095
1125.968045	0.092182
1126.125989	0.097817
1126.283915	0.099975
1126.441823	0.102009
1126.599712	0.107711
1126.757583	0.109296
1126.915436	0.106480
1127.073270	0.103383
1127.231087	0.103666
1127.388885	0.107031
1127.546665	0.104558
1127.704426	0.107476
1127.862170	0.109874
1128.019895	0.102818
1128.177602	0.102054
1128.335291	0.106069
1128.492961	0.109068
1128.650614	0.110931
1128.808248	0.113311
1128.965864	0.114665
1129.123461	0.118309
1129.281041	0.120892
1129.438602	0.120663
1129.596145	0.122751
1129.753670	0.118956
1129.911176	0.116603
1130.068665	0.113705
1130.226135	0.110236
1130.383587	0.111943
1130.541020	0.103361
1130.698436	0.100505
1130.855833	0.105474
1131.013212	0.099678
1131.170573	0.105439
1131.327915	0.105777
1131.485239	0.109669
1131.642545	0.111682
1131.799833	0.111002
1131.957103	0.112138
1132.114354	0.113814
1132.271588	0.113019
1132.428803	0.115330
1132.585999	0.110948
1132.743178	0.113220
1132.900338	0.109049
1133.057480	0.107108
1133.214604	0.106438
1133.371710	0.114742
1133.528797	0.112030
1133.685866	0.113663
1133.842917	0.117690
1133.999950	0.117181
1134.156964	0.116383
1134.313960	0.122134
1134.470938	0.121145
1134.627898	0.122434
1134.784840	0.118206
1134.941763	0.126285
1135.098668	0.122397
1135.255555	0.121213
1135.412424	0.119525
1135.569274	0.121631
1135.726107	0.114454
1135.882921	0.110705
1136.039716	0.109317
1136.196494	0.105302
1136.353253	0.103265
1136.509995	0.101185
1136.666717	0.096872
1136.823422	0.098412
1136.980109	0.101568
1137.136777	0.106020
1137.293427	0.112653
1137.450059	0.112801
1137.606672	0.113542
1137.763267	0.101808
1137.919844	0.099296
1138.076403	0.104290
1138.232944	0.101741
1138.389466	0.095344
1138.545971	0.093226
1138.702457	0.090547
1138.858924	0.083760
1139.015374	0.089893
1139.171805	0.099821
1139.328218	0.100801
1139.484613	0.099802
1139.640990	0.104243
1139.797348	0.103968
1139.953688	0.105053
1140.110010	0.102699
1140.266314	0.109974
1140.422600	0.104538
1140.578867	0.102320
1140.735116	0.108476
1140.891347	0.107641
1141.047559	0.105166
1141.203754	0.104655
1141.359930	0.105674
1141.516088	0.108021
1141.672228	0.106940
1141.828349	0.101950
1141.984452	0.102553
1142.140537	0.101543
1142.296604	0.099514
1142.452653	0.104211
1142.608683	0.103546
1142.764695	0.105013
1142.920689	0.106397
1143.076665	0.106018
1143.232622	0.111245
1143.388562	0.103603
1143.544483	0.104723
1143.700385	0.106687
1143.856270	0.105543
1144.012136	0.104495
1144.167985	0.105045
1144.323814	0.107420
1144.479626	0.110338
1144.635420	0.116039
1144.791195	0.115972
1144.946952	0.113614
1145.102691	0.111525
1145.258411	0.104505
1145.414113	0.109192
1145.569798	0.108328
1145.725463	0.106036
1145.881111	0.099522
1146.036741	0.091514
1146.192352	0.102473
1146.347945	0.102173
1146.503519	0.100891
1146.659076	0.107948
1146.814614	0.112406
1146.970134	0.113183
1147.125636	0.111349
1147.281120	0.112445
1147.436585	0.115069
1147.592032	0.104285
1147.747461	0.105088
1147.902872	0.109420
1148.058265	0.101434
1148.213639	0.096602
1148.368995	0.095599
1148.524333	0.099991
1148.679653	0.101233
1148.834954	0.100752
1148.990237	0.104348
1149.145502	0.103526
1149.300749	0.102574
1149.455977	0.106476
1149.611188	0.108670
1149.766380	0.103997
1149.921553	0.100623
1150.076709	0.103449
1150.231846	0.108810
1150.386966	0.109558
1150.542066	0.112179
1150.697149	0.112424
1150.852214	0.109936
1151.007260	0.104781
1151.162288	0.102438
1151.317298	0.101142
1151.472289	0.103296
1151.627263	0.100884
1151.782218	0.100372
1151.937155	0.100498
1152.092073	0.096566
1152.246974	0.101159
1152.401856	0.103909
1152.556720	0.108641
1152.711566	0.114896
1152.866393	0.106103
1153.021203	0.105709
1153.175994	0.098141
1153.330767	0.101266
1153.485521	0.105854
1153.640258	0.103928
1153.794976	0.098686
1153.949676	0.100916
1154.104358	0.092029
1154.259021	0.094423
1154.413667	0.090068
1154.568294	0.092094
1154.722903	0.082542
1154.877493	0.075957
1155.032066	0.075746
1155.186620	0.081131
1155.341156	0.077134
1155.495674	0.084176
1155.650173	0.081941
1155.804654	0.086851
1155.959118	0.100005
1156.113562	0.101719
1156.267989	0.103411
1156.422397	0.106530
1156.576788	0.103481
1156.731160	0.094997
1156.885513	0.090886
1157.039849	0.094310
1157.194166	0.089189
1157.348465	0.084237
1157.502746	0.083718
1157.657009	0.086205
1157.811253	0.085170
1157.965479	0.085138
1158.119687	0.092161
1158.273877	0.089502
1158.428048	0.094897
1158.582201	0.094769
1158.736337	0.091699
1158.890453	0.092257
1159.044552	0.099308
1159.198632	0.094394
1159.352694	0.092279
1159.506738	0.094018
1159.660764	0.097738
1159.814771	0.093413
1159.968761	0.088661
1160.122732	0.092810
1160.276685	0.101818
1160.430619	0.096128
1160.584535	0.100682
1160.738434	0.101052
1160.892313	0.100447
1161.046175	0.093587
1161.200019	0.100298
1161.353844	0.097781
1161.507651	0.088903
1161.661440	0.083608
1161.815210	0.083818
1161.968962	0.085350
1162.122697	0.088234
1162.276412	0.087815
1162.430110	0.089804
1162.583789	0.081287
1162.737451	0.083546
1162.891094	0.088856
1163.044718	0.085151
1163.198325	0.078527
1163.351913	0.084656
1163.505483	0.080958
1163.659035	0.081495
1163.812569	0.090113
1163.966084	0.096955
1164.119581	0.106086
1164.273060	0.109988
1164.426521	0.106478
1164.579964	0.101710
1164.733388	0.090177
1164.886794	0.090298
1165.040182	0.084901
1165.193551	0.072801
1165.346903	0.067278
1165.500236	0.071947
1165.653551	0.076616
1165.806848	0.071205
1165.960126	0.069427
1166.113386	0.065193
1166.266628	0.062889
1166.419852	0.067619
1166.573058	0.070025
1166.726245	0.066162
1166.879414	0.056094
1167.032565	0.050042
1167.185698	0.064876
1167.338812	0.070528
1167.491909	0.074175
1167.644987	0.078510
1167.798046	0.087726
1167.951088	0.092475
1168.104111	0.086817
1168.257117	0.086755
1168.410103	0.087178
1168.563072	0.084016
1168.716023	0.095696
1168.868955	0.092344
1169.021869	0.094750
1169.174765	0.086013
1169.327642	0.083163
1169.480501	0.096212
1169.633343	0.103972
1169.786165	0.090927
1169.938970	0.094190
1170.091757	0.082180
1170.244525	0.086413
1170.397275	0.077488
1170.550007	0.080044
1170.702720	0.086273
1170.855415	0.076125
1171.008092	0.067718
1171.160751	0.070174
1171.313392	0.062490
1171.466014	0.045981
1171.618619	0.053359
1171.771205	0.053359
1171.923772	0.053359
