sample name	sample
index	1396
start time	 05-10-2021  10:53:19 AM


Wavelength (nm)	Absorbance
494.344910	0.138175
494.563924	0.138175
494.782919	0.138175
495.001897	-0.017166
495.220856	0.031949
495.439797	0.025700
495.658719	0.013241
495.877624	-0.009188
496.096510	0.001130
496.315378	0.032006
496.534227	0.025561
496.753059	0.022315
496.971872	0.022748
497.190667	0.106187
497.409444	0.128265
497.628203	0.129799
497.846943	0.134441
498.065665	0.136780
498.284369	0.136212
498.503055	0.137202
498.721723	0.136825
498.940372	0.137883
499.159003	0.137356
499.377616	0.135878
499.596210	0.137359
499.814787	0.138448
500.033345	0.137970
500.251885	0.137974
500.470406	0.139035
500.688910	0.139653
500.907395	0.139201
501.125862	0.140898
501.344311	0.142548
501.562742	0.143468
501.781154	0.143278
501.999548	0.143055
502.217924	0.143698
502.436282	0.142120
502.654621	0.141957
502.872942	0.141687
503.091245	0.140483
503.309530	0.139115
503.527797	0.138135
503.746045	0.138551
503.964275	0.139126
504.182487	0.138821
504.400681	0.140149
504.618856	0.140555
504.837013	0.140969
505.055152	0.141239
505.273273	0.142729
505.491376	0.143667
505.709460	0.143219
505.927526	0.142188
506.145574	0.143124
506.363604	0.142950
506.581615	0.142962
506.799608	0.142917
507.017583	0.142996
507.235540	0.142195
507.453478	0.141138
507.671399	0.141531
507.889301	0.143055
508.107185	0.142580
508.325050	0.142866
508.542898	0.143991
508.760727	0.144200
508.978538	0.143855
509.196330	0.144754
509.414105	0.145059
509.631861	0.144503
509.849599	0.143763
510.067319	0.143939
510.285021	0.144212
510.502704	0.144325
510.720369	0.145504
510.938016	0.146080
511.155645	0.145933
511.373255	0.146465
511.590848	0.147095
511.808422	0.148134
512.025977	0.148082
512.243515	0.147121
512.461034	0.146308
512.678536	0.145362
512.896018	0.144955
513.113483	0.144695
513.330930	0.143979
513.548358	0.144118
513.765768	0.144004
513.983160	0.144110
514.200533	0.145144
514.417889	0.145784
514.635226	0.146581
514.852545	0.146891
515.069845	0.147178
515.287128	0.147783
515.504392	0.147329
515.721638	0.147100
515.938866	0.147838
516.156075	0.148039
516.373267	0.148853
516.590440	0.148576
516.807594	0.149505
517.024731	0.150060
517.241850	0.150724
517.458950	0.150640
517.676032	0.150358
517.893095	0.149890
518.110141	0.150288
518.327168	0.149640
518.544177	0.149738
518.761168	0.149261
518.978141	0.148801
519.195095	0.149025
519.412031	0.149279
519.628949	0.150585
519.845849	0.152194
520.062731	0.152346
520.279594	0.152757
520.496439	0.153640
520.713266	0.153470
520.930074	0.153383
521.146865	0.153206
521.363637	0.153440
521.580391	0.153057
521.797127	0.151912
522.013844	0.151988
522.230543	0.152003
522.447224	0.152257
522.663887	0.153398
522.880532	0.153579
523.097158	0.154289
523.313766	0.154630
523.530356	0.155184
523.746928	0.155943
523.963481	0.156623
524.180017	0.156918
524.396534	0.156223
524.613032	0.156618
524.829513	0.157171
525.045975	0.156752
525.262420	0.157311
525.478845	0.157855
525.695253	0.157711
525.911643	0.157472
526.128014	0.157799
526.344367	0.159063
526.560702	0.159231
526.777018	0.159387
526.993316	0.160291
527.209597	0.159901
527.425858	0.160101
527.642102	0.160636
527.858328	0.160884
528.074535	0.161266
528.290724	0.161313
528.506894	0.161174
528.723047	0.161865
528.939181	0.161821
529.155297	0.162571
529.371395	0.162780
529.587475	0.163722
529.803536	0.164321
530.019579	0.164393
530.235604	0.165037
530.451611	0.165899
530.667600	0.166308
530.883570	0.166829
531.099522	0.167455
531.315456	0.168162
531.531372	0.167889
531.747269	0.168171
531.963148	0.168683
532.179009	0.168971
532.394852	0.168584
532.610676	0.169028
532.826482	0.168746
533.042271	0.168785
533.258040	0.168574
533.473792	0.168568
533.689525	0.168565
533.905240	0.168371
534.120937	0.168230
534.336616	0.168459
534.552277	0.168552
534.767919	0.169223
534.983543	0.169376
535.199149	0.169363
535.414736	0.169392
535.630306	0.169304
535.845857	0.169960
536.061390	0.169864
536.276904	0.170256
536.492401	0.170167
536.707879	0.169870
536.923339	0.170075
537.138781	0.170478
537.354204	0.170693
537.569610	0.171157
537.784997	0.171417
538.000366	0.171962
538.215716	0.172185
538.431049	0.172387
538.646363	0.172469
538.861659	0.172490
539.076937	0.172606
539.292196	0.173119
539.507438	0.173621
539.722661	0.173277
539.937866	0.173143
540.153052	0.173583
540.368221	0.174367
540.583371	0.175552
540.798503	0.175917
541.013617	0.176260
541.228712	0.176908
541.443789	0.177036
541.658848	0.177711
541.873889	0.177984
542.088912	0.178165
542.303916	0.178244
542.518902	0.178006
542.733870	0.178549
542.948820	0.178932
543.163752	0.178506
543.378665	0.178446
543.593560	0.179039
543.808437	0.179241
544.023295	0.179478
544.238136	0.179374
544.452958	0.179439
544.667762	0.179698
544.882548	0.179643
545.097315	0.179914
545.312064	0.180505
545.526795	0.180279
545.741508	0.180693
545.956203	0.180690
546.170879	0.180888
546.385537	0.181515
546.600177	0.181835
546.814799	0.182265
547.029402	0.182988
547.243988	0.182546
547.458555	0.182960
547.673103	0.183366
547.887634	0.183041
548.102146	0.183015
548.316640	0.183075
548.531116	0.182765
548.745574	0.182457
548.960013	0.182550
549.174435	0.183152
549.388838	0.183645
549.603222	0.183624
549.817589	0.184537
550.031937	0.185287
550.246267	0.185546
550.460579	0.185931
550.674873	0.186778
550.889148	0.186608
551.103405	0.187115
551.317644	0.187153
551.531865	0.187428
551.746068	0.187323
551.960252	0.187522
552.174418	0.187449
552.388566	0.187706
552.602696	0.187213
552.816807	0.187301
553.030900	0.187115
553.244975	0.186962
553.459032	0.187086
553.673070	0.187463
553.887091	0.187554
554.101093	0.187804
554.315077	0.188307
554.529042	0.188884
554.742990	0.189871
554.956919	0.189983
555.170830	0.189698
555.384722	0.189818
555.598597	0.190308
555.812453	0.190125
556.026291	0.190417
556.240111	0.189682
556.453913	0.190185
556.667696	0.189752
556.881461	0.190099
557.095208	0.190695
557.308937	0.190792
557.522647	0.190842
557.736339	0.191076
557.950013	0.191466
558.163669	0.192078
558.377307	0.191844
558.590926	0.192237
558.804527	0.192367
559.018110	0.192599
559.231675	0.192707
559.445221	0.192718
559.658749	0.192957
559.872259	0.192619
560.085751	0.192649
560.299225	0.192892
560.512680	0.193236
560.726117	0.193283
560.939536	0.193240
561.152937	0.193508
561.366319	0.193080
561.579683	0.193378
561.793029	0.193321
562.006357	0.193437
562.219667	0.193360
562.432958	0.193210
562.646231	0.193306
562.859486	0.193526
563.072723	0.193784
563.285941	0.194163
563.499141	0.194557
563.712323	0.194971
563.925487	0.195923
564.138632	0.196206
564.351760	0.196559
564.564869	0.197012
564.777960	0.196944
564.991032	0.196641
565.204087	0.197137
565.417123	0.197124
565.630141	0.197574
565.843140	0.197150
566.056122	0.197684
566.269085	0.197966
566.482030	0.198208
566.694957	0.198543
566.907866	0.199280
567.120756	0.199626
567.333628	0.199202
567.546482	0.199315
567.759318	0.199457
567.972135	0.199211
568.184935	0.199039
568.397716	0.198689
568.610478	0.199004
568.823223	0.199102
569.035949	0.199030
569.248657	0.200058
569.461347	0.200415
569.674019	0.200471
569.886672	0.200477
570.099308	0.200796
570.311925	0.201764
570.524523	0.201828
570.737104	0.202006
570.949666	0.202235
571.162210	0.201733
571.374736	0.201955
571.587244	0.202214
571.799733	0.202847
572.012205	0.203097
572.224658	0.202784
572.437092	0.203282
572.649509	0.203305
572.861907	0.203525
573.074287	0.203814
573.286649	0.203719
573.498993	0.203836
573.711318	0.203685
573.923625	0.203527
574.135914	0.203721
574.348185	0.203506
574.560438	0.203723
574.772672	0.203692
574.984888	0.204225
575.197086	0.204344
575.409266	0.204430
575.621427	0.204725
575.833570	0.204904
576.045695	0.204980
576.257802	0.205411
576.469890	0.205621
576.681961	0.205812
576.894013	0.205667
577.106046	0.205578
577.318062	0.205856
577.530059	0.205612
577.742039	0.206023
577.954000	0.206237
578.165942	0.206385
578.377867	0.206303
578.589773	0.205934
578.801661	0.205802
579.013531	0.205802
579.225382	0.205600
579.437216	0.206123
579.649031	0.205813
579.860828	0.206000
580.072606	0.206275
580.284367	0.206486
580.496109	0.206884
580.707833	0.207235
580.919539	0.207470
581.131227	0.207948
581.342896	0.207941
581.554547	0.208849
581.766180	0.208825
581.977795	0.208903
582.189391	0.208931
582.400969	0.209298
582.612529	0.209393
582.824071	0.209722
583.035595	0.209813
583.247100	0.209945
583.458587	0.209598
583.670056	0.210210
583.881506	0.209776
584.092939	0.210009
584.304353	0.210747
584.515749	0.211120
584.727127	0.211294
584.938486	0.211832
585.149828	0.212288
585.361151	0.212761
585.572456	0.212290
585.783742	0.213078
585.995011	0.213156
586.206261	0.213063
586.417493	0.212873
586.628706	0.213413
586.839902	0.213291
587.051079	0.213165
587.262238	0.212985
587.473379	0.213337
587.684502	0.213215
587.895606	0.213675
588.106692	0.213318
588.317760	0.213840
588.528810	0.213750
588.739841	0.213850
588.950855	0.214161
589.161850	0.214222
589.372827	0.214494
589.583785	0.214819
589.794726	0.215220
590.005648	0.215474
590.216552	0.215997
590.427437	0.215756
590.638305	0.216272
590.849154	0.216369
591.059985	0.216732
591.270798	0.216689
591.481592	0.216965
591.692369	0.216667
591.903127	0.217222
592.113867	0.216925
592.324588	0.217292
592.535292	0.217261
592.745977	0.217252
592.956644	0.217426
593.167293	0.217378
593.377923	0.217725
593.588536	0.218263
593.799130	0.218677
594.009706	0.219092
594.220263	0.219430
594.430803	0.219684
594.641324	0.219787
594.851827	0.219955
595.062312	0.220601
595.272778	0.220560
595.483227	0.220484
595.693657	0.220206
595.904069	0.220287
596.114462	0.220566
596.324838	0.220396
596.535195	0.220556
596.745534	0.220621
596.955855	0.220773
597.166157	0.220748
597.376441	0.220449
597.586707	0.220635
597.796955	0.220597
598.007185	0.220448
598.217396	0.220890
598.427589	0.221401
598.637764	0.221349
598.847921	0.221151
599.058060	0.221101
599.268180	0.221746
599.478282	0.221628
599.688366	0.221786
599.898431	0.221781
600.108479	0.221376
600.318508	0.221623
600.528519	0.221568
600.738511	0.222054
600.948486	0.222246
601.158442	0.222286
601.368380	0.222802
601.578300	0.222732
601.788202	0.223141
601.998085	0.223840
602.207950	0.223803
602.417797	0.224504
602.627626	0.224528
602.837436	0.224999
603.047228	0.225304
603.257002	0.225459
603.466758	0.226025
603.676496	0.226172
603.886215	0.226440
604.095916	0.226475
604.305599	0.226290
604.515264	0.226356
604.724910	0.226126
604.934538	0.226072
605.144148	0.226044
605.353740	0.226261
605.563314	0.226700
605.772869	0.226757
605.982406	0.226905
606.191925	0.227360
606.401425	0.227310
606.610908	0.227787
606.820372	0.228217
607.029818	0.228354
607.239246	0.228187
607.448655	0.228009
607.658047	0.228028
607.867420	0.228127
608.076775	0.228192
608.286111	0.228562
608.495430	0.228626
608.704730	0.228768
608.914012	0.228939
609.123275	0.229355
609.332521	0.229118
609.541748	0.229089
609.750957	0.229204
609.960148	0.229229
610.169321	0.229333
610.378475	0.229037
610.587611	0.228765
610.796729	0.228787
611.005829	0.228695
611.214910	0.229332
611.423974	0.229563
611.633019	0.229434
611.842045	0.229865
612.051054	0.229997
612.260044	0.230598
612.469017	0.230835
612.677970	0.230842
612.886906	0.230968
613.095824	0.230536
613.304723	0.230610
613.513604	0.230778
613.722467	0.230836
613.931311	0.230712
614.140138	0.230636
614.348946	0.230784
614.557736	0.231020
614.766507	0.231139
614.975261	0.231483
615.183996	0.231562
615.392713	0.231730
615.601412	0.231403
615.810092	0.231827
616.018754	0.231851
616.227399	0.231747
616.436024	0.231903
616.644632	0.231582
616.853222	0.231957
617.061793	0.231821
617.270346	0.232055
617.478880	0.232130
617.687397	0.231905
617.895895	0.232156
618.104375	0.232379
618.312837	0.232563
618.521281	0.232949
618.729706	0.232690
618.938113	0.233144
619.146502	0.233278
619.354873	0.233854
619.563226	0.234372
619.771560	0.234303
619.979876	0.234515
620.188174	0.234706
620.396453	0.235048
620.604715	0.235530
620.812958	0.235604
621.021183	0.236026
621.229390	0.235711
621.437578	0.235721
621.645748	0.236122
621.853900	0.236178
622.062034	0.235985
622.270150	0.235933
622.478247	0.235914
622.686326	0.235889
622.894387	0.235829
623.102430	0.236264
623.310454	0.236282
623.518461	0.236271
623.726449	0.236469
623.934418	0.236679
624.142370	0.236484
624.350303	0.236443
624.558218	0.236298
624.766115	0.236271
624.973994	0.236300
625.181855	0.236480
625.389697	0.236541
625.597521	0.236596
625.805327	0.236853
626.013114	0.237083
626.220883	0.237314
626.428634	0.237830
626.636367	0.238418
626.844082	0.238618
627.051778	0.239091
627.259457	0.239154
627.467117	0.239532
627.674758	0.239546
627.882382	0.239725
628.089987	0.240235
628.297574	0.240519
628.505143	0.240310
628.712694	0.240459
628.920226	0.240329
629.127740	0.240574
629.335236	0.240742
629.542714	0.240961
629.750174	0.241458
629.957615	0.241487
630.165038	0.241559
630.372443	0.241624
630.579829	0.241904
630.787198	0.241986
630.994548	0.242151
631.201880	0.242179
631.409194	0.242350
631.616489	0.242294
631.823766	0.242374
632.031025	0.242636
632.238266	0.242844
632.445489	0.242767
632.652693	0.243066
632.859879	0.243410
633.067047	0.243677
633.274197	0.243751
633.481329	0.244045
633.688442	0.244107
633.895537	0.244082
634.102614	0.244309
634.309672	0.244495
634.516713	0.244443
634.723735	0.244413
634.930739	0.244518
635.137724	0.244810
635.344692	0.244902
635.551641	0.244841
635.758572	0.244812
635.965485	0.244866
636.172379	0.245019
636.379256	0.245170
636.586114	0.245234
636.792954	0.245185
636.999775	0.245372
637.206579	0.245458
637.413364	0.245785
637.620131	0.246042
637.826880	0.246225
638.033610	0.246428
638.240323	0.246658
638.447017	0.246767
638.653692	0.246880
638.860350	0.246964
639.066990	0.247177
639.273611	0.247476
639.480214	0.247732
639.686798	0.248017
639.893365	0.248259
640.099913	0.248405
640.306443	0.248656
640.512955	0.248810
640.719449	0.248677
640.925924	0.248623
641.132381	0.248687
641.338820	0.248688
641.545241	0.248660
641.751644	0.248702
641.958028	0.248898
642.164394	0.249038
642.370742	0.249159
642.577071	0.249572
642.783383	0.250059
642.989676	0.250056
643.195951	0.250149
643.402207	0.250256
643.608446	0.250266
643.814666	0.250368
644.020868	0.250387
644.227052	0.250590
644.433218	0.250707
644.639365	0.250489
644.845494	0.250608
645.051605	0.250687
645.257698	0.250807
645.463772	0.251215
645.669828	0.251321
645.875866	0.251450
646.081886	0.251425
646.287888	0.251414
646.493871	0.251832
646.699836	0.252068
646.905783	0.252387
647.111712	0.252698
647.317622	0.252679
647.523514	0.252817
647.729388	0.253187
647.935244	0.253369
648.141082	0.253692
648.346901	0.253766
648.552702	0.253960
648.758485	0.254378
648.964250	0.254570
649.169996	0.254693
649.375724	0.254904
649.581434	0.255066
649.787126	0.255105
649.992800	0.255162
650.198455	0.255136
650.404092	0.255313
650.609711	0.255452
650.815311	0.255532
651.020894	0.255621
651.226458	0.255808
651.432004	0.255939
651.637532	0.256422
651.843041	0.256712
652.048532	0.256943
652.254006	0.257030
652.459460	0.257276
652.664897	0.257483
652.870315	0.257733
653.075716	0.257777
653.281097	0.257839
653.486461	0.258068
653.691807	0.258121
653.897134	0.258468
654.102443	0.258555
654.307734	0.258338
654.513006	0.258270
654.718261	0.258297
654.923497	0.258305
655.128715	0.258511
655.333915	0.258526
655.539096	0.258704
655.744259	0.258838
655.949404	0.259182
656.154531	0.259500
656.359640	0.259947
656.564730	0.260296
656.769802	0.260779
656.974856	0.261061
657.179892	0.261012
657.384909	0.261346
657.589908	0.261448
657.794889	0.261463
657.999852	0.261470
658.204797	0.261517
658.409723	0.261558
658.614631	0.261671
658.819521	0.261555
659.024393	0.262028
659.229246	0.262181
659.434081	0.262236
659.638898	0.262621
659.843697	0.262785
660.048478	0.262812
660.253240	0.263160
660.457984	0.263371
660.662710	0.263760
660.867417	0.263877
661.072107	0.264016
661.276778	0.264468
661.481431	0.264689
661.686066	0.264918
661.890682	0.265175
662.095281	0.265250
662.299861	0.265475
662.504422	0.265783
662.708966	0.266234
662.913491	0.266218
663.117999	0.266435
663.322488	0.266353
663.526958	0.266801
663.731411	0.267157
663.935845	0.267354
664.140261	0.267349
664.344659	0.267454
664.549038	0.267518
664.753400	0.267639
664.957743	0.267705
665.162068	0.268156
665.366375	0.268026
665.570663	0.268132
665.774933	0.268144
665.979185	0.268236
666.183419	0.268267
666.387635	0.268392
666.591832	0.268943
666.796011	0.269001
667.000172	0.269139
667.204315	0.269352
667.408439	0.269657
667.612545	0.270023
667.816634	0.270613
668.020703	0.270817
668.224755	0.270886
668.428788	0.270934
668.632803	0.271420
668.836800	0.271595
669.040779	0.272086
669.244739	0.272098
669.448681	0.272288
669.652605	0.272289
669.856511	0.272536
670.060399	0.272827
670.264268	0.273160
670.468119	0.273133
670.671952	0.273210
670.875767	0.273162
671.079563	0.273526
671.283341	0.273810
671.487101	0.274110
671.690843	0.274174
671.894567	0.274349
672.098272	0.274446
672.301959	0.274671
672.505628	0.274769
672.709278	0.275226
672.912911	0.275324
673.116525	0.275652
673.320121	0.275804
673.523699	0.276172
673.727258	0.276348
673.930799	0.276463
674.134322	0.276519
674.337827	0.277116
674.541314	0.277309
674.744782	0.277476
674.948232	0.277294
675.151664	0.277234
675.355078	0.277402
675.558474	0.277628
675.761851	0.277941
675.965210	0.278423
676.168551	0.278273
676.371873	0.278224
676.575178	0.278292
676.778464	0.278775
676.981732	0.278797
677.184981	0.279039
677.388213	0.279360
677.591426	0.279443
677.794621	0.279724
677.997798	0.279975
678.200956	0.280226
678.404097	0.280539
678.607219	0.280621
678.810323	0.281100
679.013408	0.281237
679.216476	0.281162
679.419525	0.281179
679.622556	0.281128
679.825569	0.281108
680.028563	0.281231
680.231540	0.281232
680.434498	0.281393
680.637438	0.281537
680.840359	0.281718
681.043263	0.281943
681.246148	0.282197
681.449015	0.282155
681.651864	0.282363
681.854694	0.282462
682.057506	0.282737
682.260301	0.282971
682.463076	0.283315
682.665834	0.283550
682.868573	0.283896
683.071295	0.284097
683.273998	0.284326
683.476682	0.284725
683.679349	0.285192
683.881997	0.285597
684.084627	0.285664
684.287239	0.285734
684.489833	0.285918
684.692408	0.285729
684.894965	0.286141
685.097504	0.286579
685.300025	0.286679
685.502527	0.286860
685.705012	0.286676
685.907478	0.287007
686.109925	0.287085
686.312355	0.287425
686.514766	0.287924
686.717159	0.287794
686.919534	0.287706
687.121891	0.287983
687.324230	0.287773
687.526550	0.288074
687.728852	0.287991
687.931136	0.288108
688.133401	0.287864
688.335649	0.287751
688.537878	0.287764
688.740089	0.287929
688.942281	0.287959
689.144456	0.288335
689.346612	0.288245
689.548750	0.288485
689.750870	0.288879
689.952971	0.288972
690.155055	0.289269
690.357120	0.289668
690.559167	0.289877
690.761195	0.289968
690.963206	0.290123
691.165198	0.290601
691.367172	0.290628
691.569128	0.290515
691.771065	0.290848
691.972984	0.290994
692.174885	0.291056
692.376768	0.291282
692.578633	0.291300
692.780479	0.291341
692.982308	0.291331
693.184118	0.291693
693.385909	0.291819
693.587683	0.291877
693.789438	0.292137
693.991175	0.292306
694.192894	0.292424
694.394595	0.292663
694.596277	0.292825
694.797941	0.293153
694.999587	0.293117
695.201215	0.293206
695.402824	0.293492
695.604416	0.293427
695.805989	0.293447
696.007543	0.293772
696.209080	0.293824
696.410598	0.293780
696.612099	0.293648
696.813580	0.293882
697.015044	0.294212
697.216490	0.294197
697.417917	0.294134
697.619326	0.294383
697.820717	0.294156
698.022089	0.294478
698.223444	0.294568
698.424780	0.294825
698.626098	0.294835
698.827397	0.294757
699.028679	0.294936
699.229942	0.295299
699.431187	0.295082
699.632414	0.295318
699.833622	0.295405
700.034813	0.295629
700.235985	0.295753
700.437139	0.295892
700.638274	0.296214
700.839392	0.296441
701.040491	0.296530
701.241572	0.297074
701.442635	0.297246
701.643679	0.297238
701.844706	0.297264
702.045714	0.297303
702.246704	0.297414
702.447675	0.297446
702.648629	0.297499
702.849564	0.297416
703.050481	0.297390
703.251380	0.297471
703.452260	0.297659
703.653122	0.298192
703.853966	0.298409
704.054792	0.298579
704.255600	0.298765
704.456389	0.298842
704.657160	0.298940
704.857913	0.298819
705.058648	0.298772
705.259365	0.298730
705.460063	0.298439
705.660743	0.298581
705.861405	0.298676
706.062048	0.298491
706.262674	0.298267
706.463281	0.298658
706.663870	0.298887
706.864441	0.298810
707.064993	0.298886
707.265527	0.299054
707.466043	0.299058
707.666541	0.299067
707.867021	0.299357
708.067482	0.299663
708.267925	0.299666
708.468350	0.300074
708.668757	0.300252
708.869145	0.300361
709.069516	0.300341
709.269868	0.300196
709.470201	0.300151
709.670517	0.300159
709.870814	0.300076
710.071093	0.299788
710.271354	0.299391
710.471597	0.299279
710.671821	0.299354
710.872028	0.299314
711.072216	0.299165
711.272385	0.299009
711.472537	0.298561
711.672670	0.298280
711.872785	0.298580
712.072882	0.298696
712.272961	0.298832
712.473021	0.298568
712.673063	0.298319
712.873087	0.298344
713.073093	0.298449
713.273081	0.298711
713.473050	0.298841
713.673001	0.298780
713.872934	0.298873
714.072849	0.298835
714.272745	0.299058
714.472623	0.299269
714.672483	0.299324
714.872325	0.299409
715.072148	0.299527
715.271954	0.299636
715.471741	0.299603
715.671509	0.299405
715.871260	0.299265
716.070992	0.299178
716.270707	0.299178
716.470403	0.299339
716.670080	0.298972
716.869740	0.298763
717.069381	0.298659
717.269004	0.298253
717.468609	0.298153
717.668195	0.298237
717.867764	0.298205
718.067314	0.298003
718.266846	0.297807
718.466360	0.298115
718.665855	0.298067
718.865332	0.297995
719.064791	0.297972
719.264232	0.297730
719.463655	0.297767
719.663059	0.297634
719.862445	0.297665
720.061813	0.297602
720.261163	0.297222
720.460494	0.297172
720.659807	0.296938
720.859102	0.296995
721.058379	0.297030
721.257638	0.296681
721.456878	0.296648
721.656100	0.296512
721.855304	0.296277
722.054490	0.296458
722.253657	0.296312
722.452806	0.296592
722.651937	0.296722
722.851050	0.296735
723.050145	0.297082
723.249221	0.297011
723.448279	0.297012
723.647319	0.297199
723.846340	0.297126
724.045344	0.297021
724.244329	0.296762
724.443296	0.296607
724.642245	0.296556
724.841175	0.296298
725.040088	0.296217
725.238982	0.296246
725.437857	0.296003
725.636715	0.295754
725.835554	0.295803
726.034376	0.295703
726.233179	0.295505
726.431963	0.295438
726.630730	0.294999
726.829478	0.294825
727.028208	0.294713
727.226920	0.294637
727.425614	0.294580
727.624289	0.294356
727.822946	0.294344
728.021585	0.294346
728.220206	0.294173
728.418808	0.294046
728.617392	0.293771
728.815958	0.293481
729.014506	0.293227
729.213036	0.293035
729.411547	0.292945
729.610040	0.292838
729.808515	0.292597
730.006972	0.292274
730.205410	0.292380
730.403831	0.292294
730.602233	0.291990
730.800616	0.291942
730.998982	0.292082
731.197329	0.291831
731.395658	0.291603
731.593969	0.291612
731.792262	0.291525
731.990536	0.291228
732.188793	0.291361
732.387031	0.291299
732.585250	0.291202
732.783452	0.290813
732.981635	0.290900
733.179800	0.290682
733.377947	0.290343
733.576076	0.290308
733.774186	0.290280
733.972278	0.290029
734.170352	0.289771
734.368408	0.289456
734.566446	0.288958
734.764465	0.288573
734.962466	0.288329
735.160449	0.288206
735.358413	0.288009
735.556360	0.287632
735.754288	0.287162
735.952198	0.287021
736.150090	0.286793
736.347963	0.286880
736.545818	0.286849
736.743655	0.286714
736.941474	0.286532
737.139275	0.286195
737.337057	0.286232
737.534821	0.286392
737.732567	0.286407
737.930295	0.286583
738.128005	0.286551
738.325696	0.286414
738.523369	0.286419
738.721024	0.286270
738.918660	0.286282
739.116279	0.285889
739.313879	0.285692
739.511461	0.285486
739.709024	0.285189
739.906570	0.284784
740.104097	0.284555
740.301606	0.284272
740.499097	0.283996
740.696569	0.283606
740.894024	0.283522
741.091460	0.283200
741.288878	0.283130
741.486277	0.282797
741.683659	0.282887
741.881022	0.282543
742.078367	0.282255
742.275694	0.282106
742.473002	0.281965
742.670293	0.281879
742.867565	0.281677
743.064819	0.281241
743.262054	0.281073
743.459272	0.280615
743.656471	0.280399
743.853652	0.280136
744.050815	0.279952
744.247959	0.279866
744.445085	0.279618
744.642194	0.279310
744.839283	0.278954
745.036355	0.278956
745.233408	0.278829
745.430444	0.278694
745.627461	0.278670
745.824459	0.278438
746.021440	0.278249
746.218402	0.278053
746.415346	0.277933
746.612272	0.277744
746.809180	0.277180
747.006069	0.277002
747.202940	0.276857
747.399793	0.276469
747.596628	0.276220
747.793444	0.275929
747.990243	0.275874
748.187023	0.275682
748.383784	0.275702
748.580528	0.275816
748.777253	0.275545
748.973960	0.275445
749.170649	0.275371
749.367320	0.275300
749.563973	0.275406
749.760607	0.275313
749.957223	0.275328
750.153821	0.274978
750.350400	0.274811
750.546962	0.274747
750.743505	0.274372
750.940030	0.274296
751.136536	0.274073
751.333025	0.273881
751.529495	0.273384
751.725947	0.273052
751.922381	0.273117
752.118796	0.272640
752.315194	0.272252
752.511573	0.272112
752.707934	0.271815
752.904276	0.271601
753.100601	0.271267
753.296907	0.271392
753.493195	0.271163
753.689465	0.270870
753.885716	0.271079
754.081949	0.271156
754.278164	0.270988
754.474361	0.270795
754.670540	0.270638
754.866700	0.270643
755.062843	0.270601
755.258967	0.270738
755.455072	0.270662
755.651160	0.270223
755.847229	0.270030
756.043280	0.270003
756.239313	0.269960
756.435328	0.269954
756.631324	0.269863
756.827302	0.269534
757.023262	0.269296
757.219204	0.269199
757.415127	0.269192
757.611033	0.269024
757.806920	0.268857
758.002788	0.268684
758.198639	0.268551
758.394471	0.268119
758.590286	0.267617
758.786081	0.267307
758.981859	0.267198
759.177619	0.266825
759.373360	0.266396
759.569083	0.266083
759.764788	0.266112
759.960474	0.266068
760.156143	0.266110
760.351793	0.266158
760.547425	0.265880
760.743038	0.265557
760.938634	0.265363
761.134211	0.265491
761.329770	0.265471
761.525311	0.265054
761.720833	0.264732
761.916338	0.264421
762.111824	0.264215
762.307292	0.264200
762.502741	0.263789
762.698173	0.263922
762.893586	0.263783
763.088981	0.263547
763.284358	0.263445
763.479716	0.263272
763.675057	0.263355
763.870379	0.263428
764.065683	0.263356
764.260968	0.263605
764.456236	0.263721
764.651485	0.263573
764.846716	0.263763
765.041929	0.263870
765.237123	0.263783
765.432299	0.263427
765.627457	0.263156
765.822597	0.262881
766.017719	0.262733
766.212822	0.262689
766.407907	0.262612
766.602974	0.262381
766.798023	0.262280
766.993054	0.262207
767.188066	0.262114
767.383060	0.262242
767.578036	0.262468
767.772993	0.262565
767.967933	0.262213
768.162854	0.262376
768.357757	0.262357
768.552642	0.262191
768.747508	0.261939
768.942356	0.261904
769.137186	0.261675
769.331998	0.261611
769.526792	0.261523
769.721567	0.261394
769.916324	0.261090
770.111063	0.260970
770.305784	0.260816
770.500486	0.260843
770.695171	0.260904
770.889837	0.261047
771.084484	0.260840
771.279114	0.260576
771.473725	0.260421
771.668318	0.260419
771.862893	0.260437
772.057450	0.260429
772.251988	0.260431
772.446509	0.260376
772.641011	0.260087
772.835494	0.259814
773.029960	0.259826
773.224407	0.259833
773.418836	0.259692
773.613247	0.259532
773.807640	0.259540
774.002014	0.259419
774.196370	0.259430
774.390708	0.259369
774.585028	0.259585
774.779330	0.259377
774.973613	0.259293
775.167878	0.259081
775.362125	0.259100
775.556354	0.258959
775.750564	0.258966
775.944756	0.258775
776.138930	0.258449
776.333086	0.258344
776.527223	0.258411
776.721343	0.258562
776.915444	0.258707
777.109526	0.258685
777.303591	0.258783
777.497637	0.258930
777.691666	0.258777
777.885676	0.259048
778.079667	0.258916
778.273641	0.259121
778.467596	0.259024
778.661533	0.259087
778.855452	0.258947
779.049352	0.258924
779.243235	0.258522
779.437099	0.258808
779.630945	0.258865
779.824773	0.259092
780.018582	0.258824
780.212373	0.258900
780.406146	0.258921
780.599901	0.258974
780.793638	0.259018
780.987356	0.259290
781.181056	0.259231
781.374738	0.259065
781.568402	0.258949
781.762047	0.259097
781.955674	0.259211
782.149283	0.259513
782.342874	0.259727
782.536447	0.259937
782.730001	0.259839
782.923537	0.259755
783.117055	0.260078
783.310555	0.260202
783.504036	0.260533
783.697499	0.260229
783.890944	0.259964
784.084371	0.259823
784.277780	0.259539
784.471170	0.259816
784.664542	0.259900
784.857896	0.260188
785.051231	0.260259
785.244549	0.260340
785.437848	0.260805
785.631129	0.260886
785.824392	0.261013
786.017636	0.261087
786.210863	0.260931
786.404071	0.261045
786.597260	0.260845
786.790432	0.260770
786.983585	0.260783
787.176721	0.260870
787.369838	0.261156
787.562936	0.261203
787.756017	0.261509
787.949079	0.261690
788.142123	0.261978
788.335149	0.262196
788.528156	0.262378
788.721146	0.262192
788.914117	0.262174
789.107070	0.262071
789.300005	0.262322
789.492921	0.262266
789.685819	0.262505
789.878699	0.262522
790.071561	0.262365
790.264405	0.262841
790.457230	0.263292
790.650037	0.263214
790.842826	0.263524
791.035597	0.263720
791.228349	0.263994
791.421084	0.264226
791.613800	0.264522
791.806497	0.265082
791.999177	0.265121
792.191838	0.265048
792.384481	0.265311
792.577106	0.265413
792.769713	0.265582
792.962301	0.265772
793.154871	0.265755
793.347423	0.265653
793.539957	0.265653
793.732473	0.265657
793.924970	0.265882
794.117449	0.265931
794.309910	0.266115
794.502353	0.265968
794.694777	0.266078
794.887183	0.266336
795.079571	0.266553
795.271941	0.266686
795.464293	0.266952
795.656626	0.267255
795.848941	0.267643
796.041238	0.267809
796.233516	0.268304
796.425777	0.268482
796.618019	0.268549
796.810243	0.268678
797.002449	0.268684
797.194636	0.268912
797.386805	0.268960
797.578956	0.269033
797.771089	0.269214
797.963204	0.269270
798.155300	0.269602
798.347378	0.269875
798.539438	0.270185
798.731480	0.270621
798.923503	0.270796
799.115509	0.270940
799.307496	0.271293
799.499465	0.271600
799.691415	0.271932
799.883348	0.272074
800.075262	0.272253
800.267158	0.272655
800.459035	0.273071
800.650895	0.273202
800.842736	0.273451
801.034559	0.273770
801.226364	0.273828
801.418150	0.273910
801.609919	0.274115
801.801669	0.274396
801.993401	0.274659
802.185114	0.274491
802.376810	0.274667
802.568487	0.274802
802.760146	0.274950
802.951787	0.275218
803.143409	0.275420
803.335014	0.275529
803.526600	0.275686
803.718168	0.275623
803.909717	0.275912
804.101249	0.276203
804.292762	0.276578
804.484257	0.276878
804.675734	0.277120
804.867192	0.277407
805.058632	0.277853
805.250054	0.278222
805.441458	0.278437
805.632844	0.278704
805.824211	0.278946
806.015561	0.279155
806.206891	0.279295
806.398204	0.279578
806.589499	0.279806
806.780775	0.280043
806.972033	0.280259
807.163273	0.280493
807.354495	0.280700
807.545698	0.280779
807.736883	0.280735
807.928050	0.280962
808.119199	0.281325
808.310329	0.281564
808.501441	0.281676
808.692535	0.281999
808.883611	0.282346
809.074669	0.282540
809.265708	0.283324
809.456729	0.284305
809.647732	0.284563
809.838717	0.284759
810.029683	0.285169
810.220632	0.285828
810.411562	0.286112
810.602474	0.286588
810.793367	0.287161
810.984242	0.287283
811.175100	0.287319
811.365938	0.288194
811.556759	0.289024
811.747562	0.289452
811.938346	0.289820
812.129112	0.290413
812.319860	0.290645
812.510589	0.291170
812.701300	0.291537
812.891994	0.292094
813.082668	0.292171
813.273325	0.292351
813.463964	0.292784
813.654584	0.292893
813.845186	0.293448
814.035769	0.293984
814.226335	0.293832
814.416882	0.294176
814.607411	0.294455
814.797922	0.294705
814.988415	0.294753
815.178889	0.295337
815.369345	0.295953
815.559783	0.295849
815.750203	0.296033
815.940605	0.296927
816.130988	0.297563
816.321353	0.298024
816.511700	0.298471
816.702028	0.298910
816.892339	0.299165
817.082631	0.299416
817.272905	0.300187
817.463161	0.300774
817.653398	0.301019
817.843617	0.301104
818.033819	0.301396
818.224001	0.301856
818.414166	0.302327
818.604312	0.302825
818.794440	0.303019
818.984550	0.303073
819.174642	0.303456
819.364716	0.303934
819.554771	0.304210
819.744808	0.304531
819.934827	0.304826
820.124827	0.305096
820.314810	0.305306
820.504774	0.305748
820.694720	0.306135
820.884647	0.306461
821.074557	0.306675
821.264448	0.307517
821.454321	0.307855
821.644176	0.308300
821.834012	0.308509
822.023831	0.308778
822.213631	0.309174
822.403413	0.309414
822.593176	0.309676
822.782922	0.309822
822.972649	0.310028
823.162358	0.310501
823.352049	0.310809
823.541721	0.311500
823.731376	0.311866
823.921012	0.312514
824.110629	0.313349
824.300229	0.313575
824.489811	0.314441
824.679374	0.314802
824.868919	0.315249
825.058445	0.315611
825.247954	0.316151
825.437444	0.316428
825.626916	0.316723
825.816370	0.316973
826.005806	0.317648
826.195223	0.317874
826.384622	0.318173
826.574003	0.318638
826.763366	0.319075
826.952711	0.319613
827.142037	0.319949
827.331345	0.320099
827.520635	0.320436
827.709906	0.320986
827.899160	0.321783
828.088395	0.322526
828.277612	0.322854
828.466810	0.323503
828.655991	0.323506
828.845153	0.324250
829.034297	0.324707
829.223423	0.325194
829.412531	0.325410
829.601620	0.325523
829.790691	0.325743
829.979744	0.326179
830.168779	0.326548
830.357795	0.327137
830.546793	0.327509
830.735773	0.328054
830.924735	0.328337
831.113679	0.328743
831.302604	0.329138
831.491511	0.329640
831.680400	0.329757
831.869271	0.330065
832.058123	0.330642
832.246957	0.331298
832.435773	0.331533
832.624571	0.332282
832.813351	0.333062
833.002112	0.333460
833.190855	0.333679
833.379580	0.334388
833.568287	0.334735
833.756975	0.335094
833.945645	0.335377
834.134297	0.336655
834.322931	0.337133
834.511547	0.337099
834.700144	0.337768
834.888723	0.338606
835.077284	0.339505
835.265826	0.340214
835.454351	0.340749
835.642857	0.341216
835.831345	0.341527
836.019815	0.342166
836.208266	0.343288
836.396699	0.343773
836.585114	0.344092
836.773511	0.344209
836.961890	0.344920
837.150250	0.345241
837.338592	0.345917
837.526916	0.346238
837.715222	0.346391
837.903510	0.346583
838.091779	0.347521
838.280030	0.347943
838.468263	0.348580
838.656477	0.349103
838.844674	0.349823
839.032852	0.350375
839.221012	0.351077
839.409153	0.351674
839.597277	0.352338
839.785382	0.352498
839.973469	0.352891
840.161538	0.353522
840.349589	0.353776
840.537621	0.354301
840.725635	0.354585
840.913631	0.354635
841.101609	0.355140
841.289568	0.355442
841.477509	0.355865
841.665432	0.356248
841.853337	0.356600
842.041224	0.357172
842.229092	0.357533
842.416942	0.357925
842.604774	0.358236
842.792588	0.358621
842.980383	0.359058
843.168160	0.359666
843.355919	0.360434
843.543660	0.360822
843.731382	0.361333
843.919087	0.361456
844.106773	0.361672
844.294441	0.362367
844.482090	0.362653
844.669722	0.363335
844.857335	0.363723
845.044930	0.363873
845.232507	0.364136
845.420065	0.364428
845.607605	0.365354
845.795127	0.366328
845.982631	0.366954
846.170117	0.367775
846.357584	0.368084
846.545033	0.369060
846.732464	0.370079
846.919877	0.370839
847.107272	0.371656
847.294648	0.372180
847.482006	0.372805
847.669346	0.373166
847.856667	0.373341
848.043971	0.373712
848.231256	0.373811
848.418523	0.374131
848.605771	0.374866
848.793002	0.375055
848.980214	0.375526
849.167408	0.375921
849.354584	0.376591
849.541742	0.377625
849.728881	0.378363
849.916002	0.378905
850.103105	0.379361
850.290190	0.379653
850.477256	0.380019
850.664304	0.380456
850.851334	0.380741
851.038346	0.380926
851.225340	0.380957
851.412315	0.381504
851.599272	0.381549
851.786211	0.381640
851.973132	0.382013
852.160034	0.382589
852.346918	0.382941
852.533784	0.383529
852.720632	0.384206
852.907462	0.384878
853.094273	0.385269
853.281066	0.385961
853.467841	0.387095
853.654598	0.387635
853.841336	0.388355
854.028056	0.388982
854.214758	0.389305
854.401442	0.389655
854.588107	0.390210
854.774755	0.390601
854.961384	0.391150
855.147995	0.391293
855.334587	0.392030
855.521162	0.392357
855.707718	0.392737
855.894256	0.393337
856.080775	0.393899
856.267277	0.394233
856.453760	0.394975
856.640225	0.395535
856.826672	0.395665
857.013101	0.395639
857.199511	0.396138
857.385903	0.396635
857.572277	0.396795
857.758633	0.397404
857.944970	0.397872
858.131290	0.397753
858.317591	0.398242
858.503873	0.399226
858.690138	0.399453
858.876384	0.399645
859.062612	0.400363
859.248822	0.400835
859.435014	0.401451
859.621188	0.401974
859.807343	0.402850
859.993480	0.403190
860.179599	0.403351
860.365699	0.404106
860.551781	0.404589
860.737846	0.404264
860.923891	0.405219
861.109919	0.405362
861.295929	0.406001
861.481920	0.406425
861.667893	0.406997
861.853848	0.407404
862.039784	0.407486
862.225702	0.407446
862.411603	0.408476
862.597484	0.408633
862.783348	0.408942
862.969193	0.409057
863.155021	0.409462
863.340830	0.410039
863.526620	0.410463
863.712393	0.411217
863.898147	0.412261
864.083883	0.412468
864.269601	0.413014
864.455301	0.413534
864.640982	0.413967
864.826645	0.414152
865.012290	0.413835
865.197917	0.414357
865.383526	0.415264
865.569116	0.415815
865.754688	0.416423
865.940242	0.416593
866.125777	0.417061
866.311295	0.417331
866.496794	0.417855
866.682275	0.418229
866.867737	0.418596
867.053182	0.418466
867.238608	0.418470
867.424016	0.418580
867.609406	0.418886
867.794778	0.418829
867.980131	0.419104
868.165466	0.418978
868.350783	0.420009
868.536082	0.420246
868.721362	0.421127
868.906625	0.421367
869.091869	0.421929
869.277094	0.422242
869.462302	0.423096
869.647491	0.423917
869.832662	0.425021
870.017815	0.424909
870.202950	0.425467
870.388066	0.425256
870.573165	0.425697
870.758245	0.425931
870.943306	0.426373
871.128350	0.426301
871.313375	0.426081
871.498382	0.425497
871.683371	0.425850
871.868342	0.425966
872.053294	0.426519
872.238229	0.426808
872.423144	0.427385
872.608042	0.427794
872.792922	0.428102
872.977783	0.428831
873.162626	0.429946
873.347451	0.430101
873.532258	0.430240
873.717046	0.430235
873.901816	0.430506
874.086568	0.430353
874.271302	0.430535
874.456017	0.430777
874.640715	0.430820
874.825394	0.431196
875.010055	0.431244
875.194697	0.431506
875.379322	0.432229
875.563928	0.432726
875.748516	0.433440
875.933085	0.433544
876.117637	0.434448
876.302170	0.434690
876.486685	0.434837
876.671182	0.435496
876.855661	0.436532
877.040121	0.436097
877.224563	0.436333
877.408987	0.436034
877.593393	0.437166
877.777780	0.436978
877.962150	0.437362
878.146501	0.437127
878.330833	0.437836
878.515148	0.437899
878.699444	0.438659
878.883722	0.439091
879.067982	0.439284
879.252224	0.439120
879.436447	0.439447
879.620653	0.439773
879.804840	0.440320
879.989008	0.440504
880.173159	0.440772
880.357291	0.440534
880.541405	0.440797
880.725501	0.441155
880.909579	0.441276
881.093638	0.441613
881.277680	0.441363
881.461703	0.441295
881.645707	0.440828
881.829694	0.440805
882.013662	0.441192
882.197612	0.441366
882.381544	0.442049
882.565458	0.441917
882.749353	0.441689
882.933230	0.442021
883.117089	0.442685
883.300930	0.443148
883.484753	0.443291
883.668557	0.443916
883.852343	0.443574
884.036111	0.443518
884.219861	0.443759
884.403592	0.444340
884.587305	0.444327
884.771000	0.444007
884.954677	0.443952
885.138335	0.443829
885.321976	0.444035
885.505598	0.444435
885.689201	0.443951
885.872787	0.443814
886.056354	0.443708
886.239904	0.443678
886.423434	0.443694
886.606947	0.443692
886.790442	0.443669
886.973918	0.443092
887.157376	0.443306
887.340816	0.443651
887.524237	0.443905
887.707641	0.444290
887.891026	0.445011
888.074393	0.445526
888.257741	0.445766
888.441072	0.445664
888.624384	0.445638
888.807678	0.445473
888.990954	0.445550
889.174211	0.445470
889.357451	0.445272
889.540672	0.444757
889.723875	0.444414
889.907059	0.444237
890.090226	0.444687
890.273374	0.444783
890.456504	0.444496
890.639616	0.444843
890.822709	0.445056
891.005785	0.444844
891.188842	0.444685
891.371881	0.445047
891.554901	0.444976
891.737904	0.444732
891.920888	0.444940
892.103854	0.444937
892.286802	0.444707
892.469731	0.444473
892.652643	0.444082
892.835536	0.444050
893.018410	0.443443
893.201267	0.443341
893.384106	0.443140
893.566926	0.442620
893.749728	0.442378
893.932511	0.442006
894.115277	0.441776
894.298024	0.441674
894.480753	0.442006
894.663464	0.441616
894.846157	0.440940
895.028831	0.440793
895.211487	0.441038
895.394125	0.440679
895.576745	0.440764
895.759346	0.440206
895.941930	0.440081
896.124495	0.439927
896.307041	0.439977
896.489570	0.440625
896.672080	0.440043
896.854573	0.439627
897.037046	0.439526
897.219502	0.439174
897.401940	0.439234
897.584359	0.439425
897.766760	0.438524
897.949143	0.438150
898.131507	0.437249
898.313854	0.437744
898.496182	0.437335
898.678492	0.437502
898.860783	0.437707
899.043057	0.437757
899.225312	0.437464
899.407549	0.437795
899.589768	0.438239
899.771968	0.438368
899.954151	0.437822
900.136315	0.437808
900.318461	0.436819
900.500588	0.435657
900.682698	0.435178
900.864789	0.434962
901.046862	0.434342
901.228917	0.433834
901.410953	0.433900
901.592971	0.433830
901.774972	0.433314
901.956953	0.433825
902.138917	0.433915
902.320862	0.433624
902.502790	0.432890
902.684699	0.433082
902.866589	0.432415
903.048462	0.431607
903.230316	0.430685
903.412152	0.430930
903.593970	0.430495
903.775770	0.430082
903.957551	0.430071
904.139314	0.429847
904.321059	0.428847
904.502786	0.428558
904.684494	0.428444
904.866185	0.428733
905.047857	0.427677
905.229510	0.427038
905.411146	0.426852
905.592763	0.426060
905.774363	0.425513
905.955943	0.425273
906.137506	0.424488
906.319051	0.424377
906.500577	0.423732
906.682085	0.423903
906.863575	0.423693
907.045046	0.422988
907.226500	0.423095
907.407935	0.422682
907.589352	0.422067
907.770750	0.421881
907.952131	0.421105
908.133493	0.420193
908.314837	0.419355
908.496163	0.418925
908.677470	0.418227
908.858760	0.417325
909.040031	0.416743
909.221284	0.416849
909.402518	0.416569
909.583735	0.415598
909.764933	0.415687
909.946113	0.415046
910.127275	0.413915
910.308418	0.413539
910.489544	0.413023
910.670651	0.412965
910.851740	0.412093
911.032810	0.411872
911.213863	0.412000
911.394897	0.411112
911.575913	0.410357
911.756911	0.410055
911.937890	0.409578
912.118851	0.408481
912.299794	0.407349
912.480719	0.406881
912.661626	0.406069
912.842514	0.404916
913.023384	0.404407
913.204236	0.404204
913.385070	0.403599
913.565886	0.402971
913.746683	0.402697
913.927462	0.402457
914.108223	0.401663
914.288965	0.400128
914.469690	0.400259
914.650396	0.399632
914.831084	0.398704
915.011754	0.397496
915.192405	0.397250
915.373038	0.396113
915.553653	0.395544
915.734250	0.394855
915.914829	0.395427
916.095389	0.394152
916.275931	0.393240
916.456455	0.393082
916.636961	0.392277
916.817448	0.391595
916.997917	0.391561
917.178368	0.390672
917.358801	0.389851
917.539216	0.389391
917.719612	0.388401
917.899990	0.387800
918.080350	0.387287
918.260692	0.387028
918.441015	0.386131
918.621320	0.384697
918.801607	0.384348
918.981876	0.384500
919.162127	0.383218
919.342359	0.382758
919.522573	0.381800
919.702769	0.380491
919.882947	0.379672
920.063106	0.377839
920.243247	0.377635
920.423370	0.376119
920.603475	0.375020
920.783562	0.373408
920.963630	0.371879
921.143680	0.371437
921.323712	0.370485
921.503725	0.370296
921.683721	0.370409
921.863698	0.369031
922.043657	0.368272
922.223598	0.367258
922.403520	0.366664
922.583424	0.365912
922.763311	0.365145
922.943178	0.364523
923.123028	0.363656
923.302859	0.362679
923.482673	0.362197
923.662467	0.361546
923.842244	0.359934
924.022003	0.359014
924.201743	0.359016
924.381465	0.357933
924.561169	0.357067
924.740854	0.355666
924.920522	0.354839
925.100171	0.353982
925.279802	0.353419
925.459414	0.352609
925.639009	0.352380
925.818585	0.351177
925.998143	0.350529
926.177683	0.348905
926.357205	0.348557
926.536708	0.347854
926.716193	0.346977
926.895660	0.345165
927.075109	0.344673
927.254539	0.343617
927.433951	0.342421
927.613345	0.341342
927.792721	0.341076
927.972079	0.339396
928.151418	0.338470
928.330739	0.337358
928.510042	0.336526
928.689327	0.335534
928.868593	0.334699
929.047841	0.333631
929.227071	0.332556
929.406283	0.331725
929.585476	0.330110
929.764652	0.329607
929.943809	0.329466
930.122948	0.329130
930.302068	0.327447
930.481171	0.325544
930.660255	0.324366
930.839321	0.322740
931.018369	0.322521
931.197398	0.322790
931.376409	0.321205
931.555402	0.319666
931.734377	0.319116
931.913334	0.319140
932.092272	0.318777
932.271192	0.318593
932.450094	0.318578
932.628978	0.316089
932.807844	0.315037
932.986691	0.313739
933.165520	0.312419
933.344331	0.310669
933.523123	0.309257
933.701898	0.307588
933.880654	0.306193
934.059392	0.304500
934.238111	0.303359
934.416813	0.301946
934.595496	0.300776
934.774161	0.299574
934.952808	0.297419
935.131437	0.295585
935.310047	0.294971
935.488639	0.294195
935.667213	0.293428
935.845769	0.293448
936.024306	0.292379
936.202825	0.290436
936.381326	0.289998
936.559809	0.288902
936.738274	0.288266
936.916720	0.287186
937.095148	0.285696
937.273558	0.284689
937.451950	0.282375
937.630323	0.281737
937.808678	0.280844
937.987015	0.279267
938.165334	0.279362
938.343635	0.278107
938.521917	0.277746
938.700181	0.276176
938.878427	0.275460
939.056655	0.274067
939.234864	0.272801
939.413055	0.273300
939.591228	0.272602
939.769383	0.271072
939.947519	0.270459
940.125638	0.268081
940.303738	0.267618
940.481820	0.265926
940.659883	0.265046
940.837929	0.263398
941.015956	0.261149
941.193965	0.259996
941.371955	0.257659
941.549928	0.255181
941.727882	0.252996
941.905818	0.250893
942.083736	0.249945
942.261636	0.248247
942.439517	0.246676
942.617380	0.245920
942.795225	0.244166
942.973052	0.244054
943.150860	0.243254
943.328651	0.243597
943.506423	0.243826
943.684176	0.241431
943.861912	0.241850
944.039629	0.241928
944.217328	0.241226
944.395009	0.239719
944.572672	0.238705
944.750317	0.237121
944.927943	0.237136
945.105551	0.235368
945.283141	0.234211
945.460712	0.232365
945.638265	0.230246
945.815801	0.228211
945.993317	0.226541
946.170816	0.224371
946.348297	0.224559
946.525759	0.221138
946.703203	0.220381
946.880629	0.218161
947.058036	0.216965
947.235425	0.214851
947.412797	0.212724
947.590149	0.213929
947.767484	0.213140
947.944800	0.210669
948.122099	0.209556
948.299379	0.206574
948.476640	0.206598
948.653884	0.204483
948.831109	0.204265
949.008316	0.205342
949.185505	0.201716
949.362676	0.199291
949.539828	0.198507
949.716962	0.198011
949.894078	0.195900
950.071176	0.194683
950.248256	0.194684
950.425317	0.193194
950.602360	0.190096
950.779385	0.189839
950.956391	0.190218
951.133380	0.188593
951.310350	0.186736
951.487302	0.189254
951.664235	0.188597
951.841151	0.186174
952.018048	0.185797
952.194927	0.184451
952.371788	0.182612
952.548631	0.181722
952.725455	0.182023
952.902261	0.181320
953.079049	0.178966
953.255819	0.177117
953.432570	0.177580
953.609303	0.175984
953.786018	0.174124
953.962715	0.172738
954.139394	0.171272
954.316054	0.170872
954.492696	0.169567
954.669320	0.167734
954.845926	0.169008
955.022513	0.166313
955.199083	0.164116
955.375634	0.163339
955.552166	0.162613
955.728681	0.162009
955.905177	0.161326
956.081655	0.161434
956.258115	0.161798
956.434557	0.158540
956.610980	0.157720
956.787385	0.159097
956.963772	0.160510
957.140141	0.160113
957.316492	0.159302
957.492824	0.158101
957.669138	0.157069
957.845434	0.155157
958.021712	0.153428
958.197971	0.153541
958.374212	0.154287
958.550435	0.151129
958.726640	0.150067
958.902826	0.148002
959.078995	0.145993
959.255145	0.143812
959.431277	0.144296
959.607390	0.143354
959.783486	0.141509
959.959563	0.137871
960.135622	0.138481
960.311662	0.137097
960.487685	0.137760
960.663689	0.136633
960.839675	0.138441
961.015643	0.136929
961.191593	0.138790
961.367524	0.139951
961.543437	0.138993
961.719332	0.137922
961.895209	0.138604
962.071067	0.140523
962.246907	0.139015
962.422730	0.137502
962.598533	0.137207
962.774319	0.137853
962.950086	0.138715
963.125835	0.140036
963.301566	0.140567
963.477279	0.139715
963.652973	0.136873
963.828650	0.138627
964.004308	0.138865
964.179947	0.140377
964.355569	0.138443
964.531172	0.133977
964.706757	0.133003
964.882324	0.130988
965.057873	0.129658
965.233403	0.130417
965.408916	0.128446
965.584410	0.127188
965.759885	0.125031
965.935343	0.124037
966.110782	0.124413
966.286203	0.123511
966.461606	0.124455
966.636991	0.126061
966.812357	0.125523
966.987705	0.128742
967.163035	0.130721
967.338347	0.131558
967.513641	0.133299
967.688916	0.134334
967.864173	0.135793
968.039412	0.137219
968.214632	0.136714
968.389835	0.136476
968.565019	0.132007
968.740185	0.131332
968.915333	0.131612
969.090462	0.130851
969.265573	0.132332
969.440667	0.130754
969.615741	0.129641
969.790798	0.129898
969.965836	0.129246
970.140856	0.130727
970.315858	0.129975
970.490842	0.132032
970.665808	0.131642
970.840755	0.129946
971.015684	0.132546
971.190595	0.130978
971.365487	0.131495
971.540362	0.131233
971.715218	0.131521
971.890056	0.132137
972.064875	0.127740
972.239677	0.127373
972.414460	0.126946
972.589225	0.124374
972.763972	0.126189
972.938700	0.126857
973.113411	0.126970
973.288103	0.127584
973.462777	0.127513
973.637432	0.128082
973.812070	0.128174
973.986689	0.129181
974.161290	0.129778
974.335873	0.129363
974.510437	0.129809
974.684984	0.131514
974.859512	0.131223
975.034022	0.130232
975.208513	0.130923
975.382987	0.129927
975.557442	0.130148
975.731879	0.128622
975.906298	0.128746
976.080698	0.128653
976.255080	0.128871
976.429445	0.127441
976.603790	0.127533
976.778118	0.125580
976.952427	0.127681
977.126719	0.126948
977.300992	0.128645
977.475246	0.127245
977.649483	0.124818
977.823701	0.123554
977.997901	0.125024
978.172083	0.124201
978.346247	0.126134
978.520392	0.127307
978.694519	0.126844
978.868628	0.126865
979.042719	0.129031
979.216791	0.130301
979.390845	0.132202
979.564882	0.131739
979.738899	0.131679
979.912899	0.131175
980.086880	0.130345
980.260843	0.131799
980.434788	0.131156
980.608715	0.129331
980.782623	0.128921
980.956514	0.126115
981.130386	0.126488
981.304240	0.127441
981.478075	0.126718
981.651892	0.125899
981.825692	0.125644
981.999472	0.124564
982.173235	0.125311
982.346980	0.126723
982.520706	0.127595
982.694414	0.124153
982.868104	0.123499
983.041775	0.123137
983.215428	0.122489
983.389064	0.123225
983.562680	0.122855
983.736279	0.122682
983.909860	0.122380
984.083422	0.122281
984.256966	0.123090
984.430491	0.124074
984.603999	0.124373
984.777488	0.126825
984.950959	0.127070
985.124412	0.129460
985.297847	0.129596
985.471263	0.127401
985.644661	0.126767
985.818041	0.129012
985.991403	0.127534
986.164747	0.128130
986.338072	0.126527
986.511379	0.125662
986.684668	0.125338
986.857938	0.125237
987.031191	0.126885
987.204425	0.127360
987.377641	0.127186
987.550839	0.126470
987.724018	0.127419
987.897179	0.128027
988.070322	0.128691
988.243447	0.129567
988.416554	0.129107
988.589642	0.128882
988.762712	0.128407
988.935764	0.128375
989.108798	0.130598
989.281813	0.129564
989.454811	0.128483
989.627790	0.127167
989.800751	0.126496
989.973693	0.127148
990.146617	0.126666
990.319524	0.126501
990.492412	0.124787
990.665281	0.123385
990.838133	0.126224
991.010966	0.125982
991.183781	0.126917
991.356578	0.125938
991.529356	0.126169
991.702117	0.126238
991.874859	0.126394
992.047583	0.128175
992.220288	0.128170
992.392976	0.124884
992.565645	0.124835
992.738296	0.122891
992.910929	0.124411
993.083543	0.122865
993.256139	0.123240
993.428718	0.124342
993.601277	0.123910
993.773819	0.125931
993.946342	0.125405
994.118848	0.125681
994.291335	0.126164
994.463803	0.125681
994.636254	0.128335
994.808686	0.126169
994.981100	0.124186
995.153496	0.126641
995.325874	0.125433
995.498233	0.125975
995.670574	0.125429
995.842897	0.127599
996.015202	0.125627
996.187488	0.123369
996.359757	0.126465
996.532007	0.126598
996.704239	0.125637
996.876452	0.125677
997.048648	0.125750
997.220825	0.127221
997.392984	0.124515
997.565124	0.125040
997.737247	0.126662
997.909351	0.126354
998.081437	0.127125
998.253505	0.125698
998.425554	0.125395
998.597586	0.127032
998.769599	0.125202
998.941594	0.127251
999.113571	0.128052
999.285529	0.127893
999.457469	0.125494
999.629391	0.127050
999.801295	0.127126
999.973181	0.126748
1000.145048	0.126285
1000.316897	0.128094
1000.488728	0.128167
1000.660541	0.129275
1000.832335	0.129499
1001.004111	0.130480
1001.175869	0.129497
1001.347609	0.128430
1001.519331	0.128525
1001.691034	0.127025
1001.862719	0.126243
1002.034386	0.125125
1002.206035	0.124997
1002.377665	0.124823
1002.549277	0.127255
1002.720871	0.126148
1002.892447	0.129641
1003.064004	0.131507
1003.235544	0.132420
1003.407065	0.133783
1003.578568	0.134341
1003.750052	0.133201
1003.921519	0.131704
1004.092967	0.130606
1004.264397	0.131454
1004.435809	0.129095
1004.607202	0.128691
1004.778577	0.129068
1004.949934	0.128352
1005.121273	0.129039
1005.292594	0.129988
1005.463896	0.132858
1005.635180	0.131615
1005.806446	0.131815
1005.977694	0.132032
1006.148923	0.130051
1006.320135	0.130747
1006.491328	0.130415
1006.662503	0.130149
1006.833659	0.130888
1007.004798	0.127027
1007.175918	0.126445
1007.347020	0.128046
1007.518103	0.127842
1007.689169	0.128546
1007.860216	0.127084
1008.031245	0.126630
1008.202256	0.126452
1008.373248	0.125680
1008.544223	0.128251
1008.715179	0.129774
1008.886117	0.129356
1009.057036	0.129108
1009.227938	0.130859
1009.398821	0.130118
1009.569686	0.130696
1009.740533	0.131037
1009.911361	0.130317
1010.082172	0.128856
1010.252964	0.128993
1010.423738	0.126879
1010.594493	0.126261
1010.765231	0.122985
1010.935950	0.124371
1011.106651	0.124483
1011.277334	0.123638
1011.447998	0.124148
1011.618645	0.125214
1011.789273	0.124960
1011.959882	0.125981
1012.130474	0.129484
1012.301048	0.132807
1012.471603	0.133487
1012.642140	0.133306
1012.812658	0.132753
1012.983159	0.132739
1013.153641	0.132530
1013.324105	0.132292
1013.494551	0.130922
1013.664979	0.128573
1013.835388	0.126705
1014.005779	0.125072
1014.176152	0.124927
1014.346507	0.127017
1014.516843	0.125846
1014.687162	0.125658
1014.857462	0.125751
1015.027744	0.126250
1015.198007	0.128185
1015.368252	0.128221
1015.538480	0.129834
1015.708689	0.128915
1015.878879	0.127294
1016.049052	0.126998
1016.219206	0.126891
1016.389342	0.125643
1016.559460	0.126179
1016.729559	0.124251
1016.899641	0.125876
1017.069704	0.124863
1017.239749	0.124379
1017.409775	0.124722
1017.579784	0.125066
1017.749774	0.125760
1017.919746	0.126947
1018.089700	0.127593
1018.259635	0.126381
1018.429553	0.124644
1018.599452	0.124605
1018.769333	0.125477
1018.939195	0.124865
1019.109040	0.125806
1019.278866	0.124593
1019.448674	0.124044
1019.618464	0.123959
1019.788235	0.125513
1019.957989	0.124343
1020.127724	0.123718
1020.297441	0.123181
1020.467139	0.123440
1020.636820	0.123940
1020.806482	0.124923
1020.976126	0.125218
1021.145752	0.125169
1021.315359	0.125109
1021.484948	0.127466
1021.654519	0.127363
1021.824072	0.127244
1021.993607	0.127146
1022.163123	0.126811
1022.332621	0.128050
1022.502101	0.128976
1022.671563	0.127873
1022.841007	0.127202
1023.010432	0.127167
1023.179839	0.127380
1023.349228	0.128405
1023.518598	0.129071
1023.687951	0.128912
1023.857285	0.127347
1024.026601	0.125853
1024.195899	0.126384
1024.365178	0.126642
1024.534439	0.125983
1024.703682	0.127551
1024.872907	0.127645
1025.042114	0.126801
1025.211302	0.126535
1025.380472	0.126627
1025.549624	0.127435
1025.718758	0.127847
1025.887873	0.127761
1026.056970	0.127745
1026.226049	0.126496
1026.395110	0.127120
1026.564153	0.127145
1026.733177	0.126990
1026.902183	0.127048
1027.071171	0.127019
1027.240141	0.126529
1027.409092	0.126820
1027.578026	0.127681
1027.746940	0.128461
1027.915837	0.127446
1028.084716	0.128538
1028.253576	0.128554
1028.422418	0.127296
1028.591242	0.125209
1028.760048	0.124021
1028.928835	0.124350
1029.097604	0.123042
1029.266355	0.122968
1029.435088	0.123007
1029.603803	0.122208
1029.772499	0.121763
1029.941177	0.121373
1030.109837	0.123923
1030.278478	0.124654
1030.447102	0.125011
1030.615707	0.124950
1030.784294	0.124254
1030.952863	0.123415
1031.121413	0.123424
1031.289945	0.125672
1031.458460	0.125769
1031.626955	0.124640
1031.795433	0.125076
1031.963892	0.123971
1032.132334	0.126306
1032.300756	0.126212
1032.469161	0.127734
1032.637548	0.127795
1032.805916	0.125483
1032.974266	0.126129
1033.142598	0.124933
1033.310911	0.126350
1033.479207	0.126422
1033.647484	0.124804
1033.815743	0.123181
1033.983983	0.121829
1034.152206	0.119785
1034.320410	0.118828
1034.488596	0.118338
1034.656764	0.119307
1034.824914	0.117202
1034.993045	0.118405
1035.161158	0.118648
1035.329253	0.120170
1035.497330	0.119975
1035.665388	0.121757
1035.833428	0.123962
1036.001450	0.125514
1036.169454	0.125828
1036.337440	0.129088
1036.505407	0.127028
1036.673356	0.125628
1036.841287	0.123968
1037.009200	0.123943
1037.177094	0.124890
1037.344970	0.125862
1037.512828	0.123855
1037.680668	0.123414
1037.848489	0.121113
1038.016293	0.122201
1038.184078	0.124026
1038.351845	0.125926
1038.519593	0.125916
1038.687324	0.124526
1038.855036	0.121419
1039.022730	0.122927
1039.190406	0.123964
1039.358063	0.123962
1039.525702	0.123469
1039.693323	0.122944
1039.860926	0.124363
1040.028511	0.124929
1040.196077	0.126353
1040.363625	0.126929
1040.531155	0.125162
1040.698667	0.124564
1040.866161	0.125198
1041.033636	0.124526
1041.201093	0.121701
1041.368532	0.121176
1041.535952	0.123150
1041.703355	0.124066
1041.870739	0.124585
1042.038105	0.126064
1042.205452	0.126121
1042.372782	0.125689
1042.540093	0.127148
1042.707386	0.128097
1042.874661	0.127766
1043.041918	0.125318
1043.209156	0.122027
1043.376376	0.122113
1043.543578	0.122672
1043.710762	0.122799
1043.877927	0.122205
1044.045074	0.122412
1044.212203	0.122825
1044.379314	0.121871
1044.546407	0.123028
1044.713481	0.123419
1044.880537	0.123474
1045.047575	0.121904
1045.214595	0.121067
1045.381596	0.122615
1045.548579	0.122196
1045.715544	0.123147
1045.882491	0.123588
1046.049420	0.122582
1046.216330	0.124168
1046.383222	0.124217
1046.550096	0.125200
1046.716951	0.126959
1046.883789	0.125176
1047.050608	0.124206
1047.217409	0.124920
1047.384192	0.127212
1047.550956	0.125739
1047.717703	0.125324
1047.884431	0.126065
1048.051140	0.125042
1048.217832	0.124237
1048.384505	0.124636
1048.551161	0.126076
1048.717798	0.124466
1048.884416	0.122651
1049.051017	0.125905
1049.217599	0.126590
1049.384163	0.126776
1049.550709	0.128024
1049.717237	0.126539
1049.883746	0.127595
1050.050237	0.125897
1050.216710	0.127068
1050.383165	0.127602
1050.549601	0.128620
1050.716019	0.127091
1050.882420	0.125890
1051.048801	0.126285
1051.215165	0.126818
1051.381510	0.127053
1051.547837	0.128511
1051.714146	0.126890
1051.880437	0.127630
1052.046709	0.124700
1052.212964	0.124440
1052.379200	0.124071
1052.545417	0.123520
1052.711617	0.123537
1052.877798	0.122366
1053.043961	0.123357
1053.210106	0.123910
1053.376233	0.120919
1053.542341	0.121816
1053.708432	0.122014
1053.874504	0.123548
1054.040557	0.124479
1054.206593	0.124470
1054.372610	0.125091
1054.538609	0.123110
1054.704590	0.124097
1054.870553	0.125825
1055.036497	0.125675
1055.202424	0.125733
1055.368331	0.124970
1055.534221	0.124607
1055.700093	0.125691
1055.865946	0.124604
1056.031781	0.124398
1056.197598	0.123532
1056.363397	0.123973
1056.529177	0.124483
1056.694939	0.126672
1056.860683	0.126342
1057.026409	0.128367
1057.192116	0.127174
1057.357806	0.126732
1057.523477	0.127411
1057.689130	0.128154
1057.854764	0.126068
1058.020381	0.125052
1058.185979	0.123835
1058.351559	0.123830
1058.517120	0.119369
1058.682664	0.119574
1058.848189	0.120854
1059.013696	0.119741
1059.179185	0.119715
1059.344656	0.122103
1059.510108	0.122270
1059.675542	0.122833
1059.840958	0.123548
1060.006356	0.125706
1060.171735	0.126008
1060.337096	0.123411
1060.502439	0.123751
1060.667764	0.123609
1060.833071	0.121148
1060.998359	0.121603
1061.163629	0.120644
1061.328881	0.120810
1061.494115	0.121109
1061.659330	0.121911
1061.824527	0.125082
1061.989706	0.125264
1062.154867	0.126487
1062.320010	0.129173
1062.485134	0.129393
1062.650240	0.129602
1062.815328	0.128264
1062.980398	0.126967
1063.145449	0.127904
1063.310482	0.126382
1063.475497	0.125776
1063.640494	0.125971
1063.805473	0.125245
1063.970433	0.125348
1064.135375	0.124371
1064.300299	0.127688
1064.465204	0.128691
1064.630092	0.128322
1064.794961	0.131167
1064.959812	0.131161
1065.124645	0.130700
1065.289459	0.129897
1065.454256	0.128717
1065.619034	0.131336
1065.783793	0.130197
1065.948535	0.131238
1066.113258	0.129003
1066.277964	0.128206
1066.442651	0.130220
1066.607319	0.129543
1066.771970	0.128886
1066.936602	0.127148
1067.101216	0.127383
1067.265812	0.124144
1067.430389	0.124875
1067.594949	0.125457
1067.759490	0.125881
1067.924013	0.128811
1068.088518	0.128018
1068.253004	0.128458
1068.417472	0.132747
1068.581922	0.131362
1068.746354	0.133280
1068.910768	0.130187
1069.075163	0.131250
1069.239540	0.130141
1069.403899	0.127107
1069.568240	0.128076
1069.732562	0.129729
1069.896866	0.127349
1070.061152	0.126982
1070.225420	0.126138
1070.389670	0.129145
1070.553901	0.129938
1070.718114	0.128775
1070.882309	0.129040
1071.046486	0.128266
1071.210644	0.128129
1071.374784	0.127886
1071.538906	0.127772
1071.703010	0.128884
1071.867096	0.127147
1072.031163	0.126117
1072.195212	0.125611
1072.359243	0.125231
1072.523256	0.124509
1072.687250	0.121835
1072.851226	0.120533
1073.015184	0.118220
1073.179124	0.117429
1073.343045	0.119829
1073.506949	0.120628
1073.670834	0.122844
1073.834701	0.122417
1073.998549	0.124727
1074.162380	0.125686
1074.326192	0.128016
1074.489986	0.131473
1074.653761	0.132329
1074.817519	0.129590
1074.981258	0.128262
1075.144979	0.127621
1075.308682	0.127318
1075.472367	0.126508
1075.636033	0.129522
1075.799681	0.129532
1075.963311	0.129089
1076.126923	0.131382
1076.290516	0.130105
1076.454092	0.129559
1076.617649	0.128599
1076.781187	0.129723
1076.944708	0.130158
1077.108210	0.126761
1077.271695	0.127456
1077.435160	0.128708
1077.598608	0.126687
1077.762038	0.127235
1077.925449	0.129227
1078.088842	0.127942
1078.252217	0.129753
1078.415573	0.130118
1078.578912	0.130279
1078.742232	0.129502
1078.905534	0.128910
1079.068817	0.127006
1079.232083	0.128883
1079.395330	0.130185
1079.558559	0.133441
1079.721770	0.130306
1079.884962	0.128479
1080.048136	0.128798
1080.211293	0.128799
1080.374430	0.126799
1080.537550	0.128036
1080.700651	0.127265
1080.863735	0.127111
1081.026800	0.126687
1081.189846	0.127079
1081.352875	0.127692
1081.515885	0.128364
1081.678877	0.126744
1081.841851	0.128574
1082.004807	0.128082
1082.167744	0.126988
1082.330663	0.124997
1082.493564	0.122610
1082.656447	0.123977
1082.819312	0.123814
1082.982158	0.124281
1083.144986	0.127298
1083.307796	0.127084
1083.470587	0.126625
1083.633361	0.127583
1083.796116	0.128942
1083.958853	0.131072
1084.121571	0.130771
1084.284272	0.133066
1084.446954	0.133794
1084.609618	0.133821
1084.772264	0.133725
1084.934892	0.137029
1085.097501	0.138857
1085.260092	0.139681
1085.422665	0.138739
1085.585220	0.137000
1085.747756	0.138971
1085.910274	0.139810
1086.072774	0.135227
1086.235256	0.132698
1086.397720	0.131200
1086.560165	0.131539
1086.722592	0.128473
1086.885001	0.128622
1087.047392	0.125765
1087.209764	0.120127
1087.372119	0.120910
1087.534455	0.125593
1087.696772	0.128377
1087.859072	0.129463
1088.021353	0.130184
1088.183616	0.130317
1088.345861	0.128287
1088.508088	0.130194
1088.670296	0.134036
1088.832486	0.131591
1088.994658	0.131910
1089.156812	0.131473
1089.318948	0.128806
1089.481065	0.126838
1089.643164	0.128446
1089.805245	0.130460
1089.967308	0.133320
1090.129352	0.131922
1090.291378	0.131727
1090.453386	0.131407
1090.615376	0.131491
1090.777347	0.134003
1090.939301	0.135011
1091.101236	0.135025
1091.263153	0.137089
1091.425051	0.136467
1091.586932	0.137217
1091.748794	0.137024
1091.910638	0.136421
1092.072463	0.136305
1092.234271	0.134212
1092.396060	0.132392
1092.557831	0.133894
1092.719584	0.131124
1092.881319	0.133188
1093.043035	0.133717
1093.204733	0.134764
1093.366413	0.135719
1093.528075	0.136001
1093.689718	0.134955
1093.851343	0.134476
1094.012950	0.133021
1094.174539	0.136994
1094.336110	0.136165
1094.497662	0.133454
1094.659196	0.130139
1094.820712	0.131813
1094.982210	0.134239
1095.143689	0.139506
1095.305151	0.139969
1095.466594	0.137819
1095.628018	0.137798
1095.789425	0.139734
1095.950813	0.140679
1096.112183	0.147489
1096.273535	0.144426
1096.434869	0.141121
1096.596184	0.139372
1096.757482	0.142127
1096.918761	0.144591
1097.080021	0.142604
1097.241264	0.141242
1097.402488	0.144257
1097.563694	0.134931
1097.724882	0.134757
1097.886052	0.136469
1098.047203	0.137342
1098.208336	0.136145
1098.369451	0.136431
1098.530548	0.134282
1098.691627	0.137521
1098.852687	0.133712
1099.013729	0.141541
1099.174753	0.143732
1099.335758	0.143650
1099.496746	0.141644
1099.657715	0.144897
1099.818666	0.144909
1099.979599	0.145289
1100.140513	0.139875
1100.301409	0.142378
1100.462287	0.141136
1100.623147	0.137447
1100.783989	0.135906
1100.944812	0.134105
1101.105617	0.130393
1101.266404	0.128516
1101.427173	0.128782
1101.587923	0.133906
1101.748656	0.132241
1101.909370	0.129775
1102.070066	0.127261
1102.230743	0.127446
1102.391403	0.130364
1102.552044	0.129043
1102.712667	0.126257
1102.873271	0.128266
1103.033858	0.120885
1103.194426	0.122750
1103.354976	0.123254
1103.515508	0.125805
1103.676021	0.126004
1103.836517	0.122870
1103.996994	0.124849
1104.157453	0.126479
1104.317893	0.125662
1104.478316	0.130889
1104.638720	0.132020
1104.799106	0.136149
1104.959474	0.138278
1105.119823	0.143160
1105.280155	0.142453
1105.440468	0.143347
1105.600763	0.142886
1105.761039	0.141500
1105.921298	0.139110
1106.081538	0.137572
1106.241760	0.135763
1106.401964	0.132528
1106.562149	0.126151
1106.722316	0.129957
1106.882465	0.127199
1107.042596	0.131260
1107.202709	0.131303
1107.362803	0.132560
1107.522879	0.132826
1107.682937	0.133537
1107.842977	0.136837
1108.002999	0.139621
1108.163002	0.138838
1108.322987	0.138639
1108.482954	0.136007
1108.642902	0.139717
1108.802833	0.138248
1108.962745	0.134696
1109.122639	0.133295
1109.282515	0.133391
1109.442372	0.132944
1109.602211	0.136114
1109.762032	0.136279
1109.921835	0.136129
1110.081620	0.135511
1110.241386	0.134305
1110.401134	0.137202
1110.560864	0.142437
1110.720576	0.142529
1110.880269	0.144755
1111.039945	0.143276
1111.199602	0.146722
1111.359240	0.147312
1111.518861	0.142242
1111.678463	0.145684
1111.838047	0.144428
1111.997613	0.136134
1112.157161	0.136463
1112.316690	0.136423
1112.476202	0.137625
1112.635695	0.135086
1112.795169	0.133069
1112.954626	0.135710
1113.114064	0.130873
1113.273484	0.132896
1113.432886	0.137387
1113.592270	0.137682
1113.751635	0.135700
1113.910983	0.127633
1114.070312	0.130922
1114.229622	0.135113
1114.388915	0.133191
1114.548189	0.133921
1114.707445	0.129365
1114.866683	0.130450
1115.025903	0.133463
1115.185104	0.133189
1115.344287	0.133360
1115.503452	0.132232
1115.662599	0.134816
1115.821727	0.138267
1115.980838	0.135004
1116.139930	0.137512
1116.299004	0.137444
1116.458059	0.134141
1116.617097	0.136924
1116.776116	0.140618
1116.935117	0.140123
1117.094099	0.133943
1117.253064	0.130722
1117.412010	0.132687
1117.570938	0.128740
1117.729848	0.132416
1117.888740	0.131337
1118.047613	0.124613
1118.206468	0.122436
1118.365305	0.120759
1118.524124	0.118671
1118.682924	0.121015
1118.841707	0.121926
1119.000471	0.128987
1119.159216	0.123224
1119.317944	0.123551
1119.476653	0.130216
1119.635344	0.133365
1119.794017	0.134240
1119.952672	0.140400
1120.111308	0.141724
1120.269927	0.144098
1120.428527	0.142316
1120.587108	0.139505
1120.745672	0.138849
1120.904217	0.137836
1121.062744	0.133433
1121.221253	0.138562
1121.379744	0.133957
1121.538216	0.136356
1121.696671	0.140616
1121.855107	0.142355
1122.013524	0.141476
1122.171924	0.141122
1122.330305	0.139176
1122.488668	0.147500
1122.647013	0.143361
1122.805340	0.146871
1122.963648	0.147497
1123.121938	0.145386
1123.280210	0.141435
1123.438464	0.145262
1123.596700	0.147852
1123.754917	0.146781
1123.913116	0.144255
1124.071297	0.141017
1124.229459	0.141598
1124.387604	0.135043
1124.545730	0.130106
1124.703838	0.133205
1124.861928	0.134122
1125.019999	0.131185
1125.178052	0.129191
1125.336088	0.121021
1125.494104	0.123841
1125.652103	0.119378
1125.810083	0.121184
1125.968045	0.124463
1126.125989	0.126467
1126.283915	0.126314
1126.441823	0.125075
1126.599712	0.130156
1126.757583	0.138407
1126.915436	0.137891
1127.073270	0.143546
1127.231087	0.141184
1127.388885	0.140405
1127.546665	0.134322
1127.704426	0.133400
1127.862170	0.134979
1128.019895	0.134563
1128.177602	0.131165
1128.335291	0.126764
1128.492961	0.129658
1128.650614	0.134166
1128.808248	0.133573
1128.965864	0.134412
1129.123461	0.127115
1129.281041	0.132266
1129.438602	0.125893
1129.596145	0.133528
1129.753670	0.132088
1129.911176	0.123015
1130.068665	0.125859
1130.226135	0.133440
1130.383587	0.138463
1130.541020	0.145289
1130.698436	0.139873
1130.855833	0.141341
1131.013212	0.135451
1131.170573	0.142183
1131.327915	0.143351
1131.485239	0.140104
1131.642545	0.130401
1131.799833	0.128152
1131.957103	0.125720
1132.114354	0.127398
1132.271588	0.135057
1132.428803	0.137161
1132.585999	0.137554
1132.743178	0.144276
1132.900338	0.145749
1133.057480	0.150169
1133.214604	0.149273
1133.371710	0.148728
1133.528797	0.151372
1133.685866	0.137389
1133.842917	0.136364
1133.999950	0.133692
1134.156964	0.133719
1134.313960	0.133086
1134.470938	0.126970
1134.627898	0.126899
1134.784840	0.129490
1134.941763	0.121593
1135.098668	0.130786
1135.255555	0.131189
1135.412424	0.132589
1135.569274	0.129030
1135.726107	0.126927
1135.882921	0.132594
1136.039716	0.130915
1136.196494	0.134214
1136.353253	0.132666
1136.509995	0.126555
1136.666717	0.128414
1136.823422	0.129686
1136.980109	0.125979
1137.136777	0.125418
1137.293427	0.132839
1137.450059	0.132793
1137.606672	0.127532
1137.763267	0.139871
1137.919844	0.146611
1138.076403	0.139632
1138.232944	0.142705
1138.389466	0.140007
1138.545971	0.143895
1138.702457	0.133223
1138.858924	0.133399
1139.015374	0.137091
1139.171805	0.135795
1139.328218	0.136452
1139.484613	0.145633
1139.640990	0.136769
1139.797348	0.140476
1139.953688	0.143022
1140.110010	0.136426
1140.266314	0.142458
1140.422600	0.138872
1140.578867	0.132162
1140.735116	0.134697
1140.891347	0.131249
1141.047559	0.132965
1141.203754	0.135984
1141.359930	0.127552
1141.516088	0.127400
1141.672228	0.120130
1141.828349	0.119623
1141.984452	0.116386
1142.140537	0.107429
1142.296604	0.105559
1142.452653	0.107387
1142.608683	0.104483
1142.764695	0.105020
1142.920689	0.107765
1143.076665	0.113880
1143.232622	0.114567
1143.388562	0.120651
1143.544483	0.132962
1143.700385	0.133772
1143.856270	0.131163
1144.012136	0.126719
1144.167985	0.124146
1144.323814	0.133265
1144.479626	0.132908
1144.635420	0.134410
1144.791195	0.129641
1144.946952	0.126732
1145.102691	0.121564
1145.258411	0.118758
1145.414113	0.124446
1145.569798	0.120559
1145.725463	0.114740
1145.881111	0.113907
1146.036741	0.111177
1146.192352	0.119825
1146.347945	0.119654
1146.503519	0.121626
1146.659076	0.121185
1146.814614	0.115178
1146.970134	0.117690
1147.125636	0.113152
1147.281120	0.113482
1147.436585	0.115381
1147.592032	0.113980
1147.747461	0.104096
1147.902872	0.102796
1148.058265	0.112400
1148.213639	0.128282
1148.368995	0.136336
1148.524333	0.137710
1148.679653	0.133691
1148.834954	0.134126
1148.990237	0.127091
1149.145502	0.137030
1149.300749	0.139278
1149.455977	0.123449
1149.611188	0.119753
1149.766380	0.114178
1149.921553	0.118934
1150.076709	0.122790
1150.231846	0.126246
1150.386966	0.126270
1150.542066	0.123007
1150.697149	0.131946
1150.852214	0.145659
1151.007260	0.130836
1151.162288	0.130565
1151.317298	0.132670
1151.472289	0.123731
1151.627263	0.129444
1151.782218	0.130105
1151.937155	0.129074
1152.092073	0.109862
1152.246974	0.108019
1152.401856	0.122931
1152.556720	0.119769
1152.711566	0.112670
1152.866393	0.121319
1153.021203	0.113266
1153.175994	0.118696
1153.330767	0.116570
1153.485521	0.130996
1153.640258	0.121841
1153.794976	0.119581
1153.949676	0.122657
1154.104358	0.127093
1154.259021	0.125307
1154.413667	0.120804
1154.568294	0.119769
1154.722903	0.127457
1154.877493	0.118518
1155.032066	0.138749
1155.186620	0.134717
1155.341156	0.132734
1155.495674	0.136288
1155.650173	0.131019
1155.804654	0.132268
1155.959118	0.126496
1156.113562	0.117991
1156.267989	0.122905
1156.422397	0.110219
1156.576788	0.108055
1156.731160	0.104434
1156.885513	0.099155
1157.039849	0.106611
1157.194166	0.108756
1157.348465	0.118839
1157.502746	0.119554
1157.657009	0.118631
1157.811253	0.116749
1157.965479	0.116344
1158.119687	0.130591
1158.273877	0.135121
1158.428048	0.125989
1158.582201	0.128965
1158.736337	0.116035
1158.890453	0.126476
1159.044552	0.131544
1159.198632	0.129787
1159.352694	0.140207
1159.506738	0.125351
1159.660764	0.121431
1159.814771	0.131632
1159.968761	0.125715
1160.122732	0.112487
1160.276685	0.108289
1160.430619	0.093802
1160.584535	0.095824
1160.738434	0.090402
1160.892313	0.102330
1161.046175	0.103300
1161.200019	0.099540
1161.353844	0.099055
1161.507651	0.120345
1161.661440	0.117289
1161.815210	0.122335
1161.968962	0.124977
1162.122697	0.124311
1162.276412	0.111448
1162.430110	0.105312
1162.583789	0.101017
1162.737451	0.107114
1162.891094	0.102016
1163.044718	0.095241
1163.198325	0.099714
1163.351913	0.093455
1163.505483	0.081439
1163.659035	0.086020
1163.812569	0.094937
1163.966084	0.089985
1164.119581	0.086155
1164.273060	0.077231
1164.426521	0.081054
1164.579964	0.080254
1164.733388	0.080131
1164.886794	0.079488
1165.040182	0.077102
1165.193551	0.073530
1165.346903	0.084096
1165.500236	0.083578
1165.653551	0.091330
1165.806848	0.088710
1165.960126	0.085132
1166.113386	0.083242
1166.266628	0.086094
1166.419852	0.091776
1166.573058	0.080281
1166.726245	0.084231
1166.879414	0.074516
1167.032565	0.074394
1167.185698	0.076368
1167.338812	0.075791
1167.491909	0.081575
1167.644987	0.096988
1167.798046	0.103691
1167.951088	0.116297
1168.104111	0.110222
1168.257117	0.118814
1168.410103	0.116572
1168.563072	0.114869
1168.716023	0.118725
1168.868955	0.105699
1169.021869	0.096703
1169.174765	0.099278
1169.327642	0.101826
1169.480501	0.092814
1169.633343	0.089033
1169.786165	0.090274
1169.938970	0.092183
1170.091757	0.097667
1170.244525	0.118496
1170.397275	0.127397
1170.550007	0.111923
1170.702720	0.112275
1170.855415	0.122329
1171.008092	0.129073
1171.160751	0.132411
1171.313392	0.135504
1171.466014	0.169761
1171.618619	0.117014
1171.771205	0.117014
1171.923772	0.117014
