sample name	sample
index	850
start time	 04-08-2021  10:43:11 AM
880	0.450869
Peak Time (s)	102.537
Peak Height 	0.4509
calc peak height	100,103
Baseline Time (s)	11.036
Baseline Value 	-0.006638
subtract baseline	10,4
Abs	0.331515
Peak Time (s)	102.537
Peak Height 	0.3315
calc peak height	100,103
Baseline Time (s)	9.536
Baseline Value 	0.006149
subtract baseline	10,3
PK_550	0.177470
Peak Time (s)	101.536
Peak Height 	0.1775
calc peak height	100,103
Baseline Time (s)	11.036
Baseline Value 	9.3461E-4
subtract baseline	10,2
PK_880	0.311417
Peak Time (s)	101.536
Peak Height 	0.3114
calc peak height	100,103
Baseline Time (s)	9.536
Baseline Value 	0.004541
subtract baseline	10,1


Time (s)	A880-A510	A880-A775	A880-A975	A880	I510	I775	I975	I880	
0.035000	0.001267	-0.000485	-0.007797	0.002075	6872.902342	42464.882642	3815.943624	22606.893729
0.536000	-0.002480	-0.000123	-0.002955	0.004805	6811.104029	42248.742680	3821.531988	22482.048866
1.035000	-0.006256	-0.001311	-0.009335	0.006551	6759.141308	41982.669259	3800.178411	22402.644492
1.536000	-0.000978	-0.000604	-0.001586	0.000794	6863.642259	42571.336568	3835.894779	22665.761335
2.039000	0.000249	-0.000147	-0.000203	0.000468	6878.562080	42643.288580	3840.492973	22680.752922
2.536500	-0.001435	-0.000806	-0.008244	-0.000520	6871.873510	42673.552470	3821.629659	22726.295503
3.037000	-0.003651	0.000263	-0.002590	0.005439	6794.040919	42226.237556	3820.819579	22453.185720
3.537000	0.000184	0.000566	-0.006565	0.001237	6870.538641	42638.035815	3821.420942	22645.357615
4.038000	-0.001443	0.000074	-0.005546	0.000511	6861.896757	42659.604970	3826.059399	22678.769857
4.541000	-0.000175	-0.000287	-0.000903	0.000899	6870.347628	42590.790382	3837.445740	22660.923858
5.038000	-0.000366	0.000785	-0.009008	0.000922	6868.291051	42687.222691	3815.792539	22659.879220
5.546500	-0.000570	0.000616	-0.000187	0.001066	6864.943875	42658.395458	3838.922698	22653.237238
6.044500	-0.000281	0.000594	0.001665	0.001067	6867.713713	42656.281069	3843.918186	22653.181017
6.539500	0.000053	-0.000709	-0.005561	-0.000009	6881.272331	42635.459612	3827.404500	22702.722127
7.037000	-0.001996	-0.000178	-0.009375	0.000168	6859.887760	42668.005433	3816.815381	22694.580595
7.886500	-0.002825	-0.000300	-0.004365	-0.000048	6854.013046	42676.669387	3830.704397	22704.532827
8.328000	-0.001030	0.000533	-0.004703	0.000772	6863.349563	42677.824900	3827.610894	22666.746177
8.538000	0.000085	-0.000001	-0.003497	0.000138	6880.162321	42687.049601	3832.526664	22695.953146
9.035000	-0.002066	-0.000620	0.000270	-0.000394	6864.609380	42679.020606	3844.098810	22720.494966
9.535500	0.000000	0.000809	0.000000	0.000597	6874.928088	42719.307852	3840.691620	22674.814343
10.035500	-0.000980	0.000320	-0.003515	0.000248	6868.860039	42706.436782	3832.186158	22690.884043
10.536000	-0.000430	0.000109	-0.000157	-0.000091	6877.414519	42718.232063	3842.124545	22706.514480
11.035500	0.000275	0.000000	0.001303	0.000000	6883.322041	42699.825711	3845.826332	22702.308397
11.536500	0.001184	-0.000507	0.001598	-0.000419	6896.140767	42691.780384	3847.762416	22721.640886
12.039500	-0.001066	0.000632	-0.003742	0.000172	6868.765075	42742.208926	3831.778571	22694.370240
12.534000	-0.000024	0.000655	-0.003436	0.000244	6878.085930	42737.634424	3832.405548	22691.052437
13.034500	-0.002459	-0.000420	-0.002987	0.002790	6830.424710	42405.432025	3826.804635	22574.109094
13.537500	-0.001059	-0.000120	0.000440	-0.000554	6875.804397	42739.729459	3844.988521	22727.844957
14.040500	-0.003166	0.000231	0.001536	0.002230	6829.033565	42516.230490	3840.428818	22599.787752
14.535500	0.000483	0.000559	-0.002062	0.002646	6859.887118	42508.114630	3829.656216	22580.704389
15.035000	-0.002203	0.000207	-0.003579	0.002906	6831.757206	42452.154230	3824.919796	22568.808707
15.536000	-0.000365	0.001098	-0.001623	-0.000205	6879.137491	42819.984320	3838.480322	22711.772997
16.039000	-0.000922	0.000455	0.002070	-0.000819	6879.684245	42817.236656	3850.129017	22740.093275
16.535500	0.000161	0.001423	-0.003907	0.000443	6877.959149	42790.195337	3830.614386	22681.913552
17.039500	-0.001525	-0.000190	0.000893	0.002923	6838.058563	42414.310617	3836.834840	22568.043875
17.540000	0.000898	0.000073	-0.003326	0.001319	6876.615189	42585.276195	3829.825720	22641.602413
18.035000	-0.001786	-0.000703	-0.002513	0.000888	6854.999535	42553.629025	3833.154020	22661.420884
18.535000	-0.000999	0.000374	-0.004551	0.001416	6857.484483	42604.060607	3826.299755	22637.157249
19.041000	-0.002035	0.000271	-0.005388	0.002532	6836.926467	42492.235756	3821.109889	22585.948287
19.535500	-0.001387	-0.000023	-0.004507	0.001319	6854.691078	42576.501828	3826.675256	22641.607225
20.044000	-0.000244	-0.000335	-0.006668	0.000725	6871.351015	42602.374010	3822.507131	22668.935145
20.536500	-0.000930	-0.000476	-0.001151	0.000913	6862.965709	42572.220406	3836.742196	22660.281487
21.080500	-0.001947	0.000172	-0.004431	0.002147	6841.434790	42518.444819	3824.675240	22603.616024
21.539500	-0.000057	0.000844	-0.003440	0.001746	6863.344771	42616.886798	3828.381898	22622.013788
22.041500	0.000312	0.000547	0.003215	0.001616	6868.126175	42601.496673	3846.627771	22627.944242
22.537000	-0.002151	-0.000460	-0.001655	0.000994	6850.497881	42566.197127	3835.170200	22656.558470
23.035000	-0.000452	-0.000107	-0.002833	0.001399	6862.878207	42561.379038	3830.928968	22637.915101
23.535000	-0.001104	0.000008	-0.004384	0.001281	6857.762999	42582.811907	3827.102089	22643.339508
24.035500	0.000873	0.000436	-0.000570	0.001867	6871.112026	42568.384850	3835.740681	22616.455998
24.535500	-0.001775	0.000263	0.000001	0.001372	6850.472041	42597.880277	3838.607290	22639.174845
25.036000	-0.001419	0.000807	-0.004880	0.001627	6851.437087	42624.369841	3824.859909	22627.441868
25.536500	-0.000992	0.000922	-0.003483	0.001535	6856.408960	42643.497487	3828.829903	22631.693043
26.036500	-0.001085	0.000286	-0.004985	0.001347	6857.322523	42602.332811	3825.326557	22640.327203
26.536500	-0.000703	0.000199	-0.004206	0.001829	6856.353376	42550.039693	3826.117410	22618.163948
27.037000	-0.000914	0.000344	-0.003734	0.002688	6846.132892	42484.713802	3825.088233	22578.819268
27.537000	0.000446	0.000695	0.000028	-0.000787	6892.565819	42836.469186	3844.505055	22738.604769
28.035000	0.000928	0.000667	-0.004655	-0.000789	6897.246084	42834.151823	3831.910273	22738.722923
28.535000	-0.001957	-0.000299	0.004334	-0.001065	6872.093871	42770.423612	3856.973901	22751.470490
29.035500	-0.002824	0.000032	-0.006394	0.005017	6805.840793	42243.624552	3811.890229	22472.412748
29.534500	0.000192	0.000840	-0.002853	-0.000367	6886.051561	42811.050119	3835.607103	22719.216114
30.035500	-0.000017	0.000346	0.001340	-0.000571	6886.012973	42784.303015	3847.474361	22728.652408
30.536500	-0.001044	0.000069	-0.001195	-0.001192	6882.097304	42816.060525	3842.293447	22757.314286
31.036500	-0.001629	-0.000205	-0.003550	0.004289	6824.064903	42288.291822	3821.324390	22505.589186
31.537000	0.000570	0.000118	0.002108	-0.000166	6887.759018	42725.929982	3848.458748	22709.942409
32.037000	-0.000806	0.000691	-0.007369	-0.000309	6875.889280	42791.938879	3823.391368	22716.543600
32.537500	-0.000229	-0.000024	0.002278	-0.000872	6886.871741	42777.993723	3850.840600	22742.540937
33.038000	-0.003209	0.000134	-0.000944	0.004233	6809.617625	42324.273972	3828.406617	22508.161380
33.535500	0.001715	0.000107	-0.000947	-0.000497	6902.027685	42755.423010	3841.087416	22725.215488
34.036000	0.000723	0.000029	-0.000077	-0.000535	6892.805005	42751.744212	3843.539294	22726.966599
34.536000	-0.000475	0.000568	-0.001887	0.002284	6854.189632	42542.124353	3831.093360	22597.307668
35.039000	-0.001937	0.000865	-0.002877	0.003321	6830.337355	42474.334266	3825.684259	22549.809181
35.539500	-0.000608	0.000489	0.000495	0.002025	6855.390158	42558.628390	3838.178203	22609.173509
36.037000	-0.001438	0.000047	-0.001364	0.001817	6849.442122	42537.232069	3833.745089	22618.751183
36.537500	-0.002888	-0.000166	-0.000259	0.001267	6840.842926	42568.118924	3838.186620	22643.973096
37.034500	-0.001456	0.000908	-0.005369	0.003660	6831.693173	42447.255300	3818.172136	22534.325143
37.535000	-0.003524	0.000129	0.001132	0.001942	6828.364377	42533.316788	3840.117076	22613.013542
38.035500	-0.000140	0.000604	-0.003500	0.002468	6855.635521	42528.617316	3826.295761	22588.882138
38.534500	-0.001085	-0.000064	-0.004525	0.001698	6853.953410	42537.918317	3825.616644	22624.200466
39.035500	-0.003020	0.000837	-0.001038	0.003397	6819.324607	42464.880207	3830.387939	22546.339138
39.536000	0.000752	0.000597	-0.001167	0.002520	6863.682626	42523.204368	3832.388197	22586.497257
40.038500	-0.000975	-0.000126	-0.003930	0.002116	6851.014644	42493.994515	3826.088181	22605.026382
40.536500	-0.000313	-0.000149	0.000712	0.001876	6859.645263	42513.856748	3839.163347	22616.037907
41.037000	-0.000227	0.000992	-0.004903	0.004312	6837.183341	42395.314478	3817.679564	22504.536873
41.537000	-0.002168	0.000518	-0.001480	0.002278	6838.078178	42538.190963	3832.199086	22597.601373
42.037500	0.001204	0.001371	-0.004701	0.002846	6864.895801	42564.302539	3822.098339	22571.579251
42.535000	-0.000995	0.000264	0.002155	0.001891	6852.972454	42550.361137	3843.014187	22615.332427
43.035500	-0.000697	0.000160	-0.004077	0.003562	6839.858562	42387.888253	3821.852354	22538.791217
43.535000	0.001424	-0.000188	-0.001612	0.002121	6873.962054	42487.752295	3832.264223	22604.763899
44.036000	0.000423	0.000676	0.001393	-0.001036	6894.739642	42857.725173	3848.877834	22750.099176
44.536000	0.002494	0.000466	-0.001304	-0.000002	6904.772473	42742.889406	3838.790686	22702.381131
45.036500	-0.001220	-0.000291	-0.004766	0.004039	6830.331180	42303.250988	3818.765753	22517.016122
45.536500	0.000832	0.000327	0.000205	-0.000298	6891.567570	42757.404262	3843.662218	22716.049498
46.037000	0.001383	0.000292	-0.001040	-0.000529	6899.126223	42775.448209	3840.923558	22726.705170
46.537500	0.001793	0.000805	-0.004029	0.000211	6895.937303	42754.580097	3830.909362	22692.604084
47.034500	-0.001696	0.000021	-0.000510	0.004831	6818.287079	42259.543014	3827.968819	22480.889856
47.535000	-0.001348	-0.000288	-0.002236	0.001976	6848.783458	42492.006451	3830.985171	22611.450432
48.035500	-0.000252	0.001029	0.002860	0.003406	6845.596069	42481.598881	3840.828211	22545.935604
48.535500	-0.001907	0.000587	0.001739	0.000878	6853.938735	42673.042939	3844.630371	22661.876722
49.036000	-0.001626	0.000071	-0.002367	0.005185	6815.598073	42231.816399	3822.085032	22464.754037
49.536000	-0.000093	0.000179	-0.002761	-0.000400	6883.628620	42753.223623	3835.945043	22720.765452
50.036500	0.001292	0.000684	0.001956	-0.001920	6911.720981	42940.250046	3852.817859	22791.008587
50.536500	-0.002396	-0.000176	-0.001575	0.001839	6840.089497	42514.758458	3833.118560	22617.731391
51.037000	-0.000237	0.000458	-0.002704	0.001776	6861.330388	42578.629345	3830.265618	22620.596718
51.537500	-0.018767	-0.006362	0.001893	-0.026270	6953.551165	44575.062425	3920.873100	23950.500621
52.035000	-0.053280	-0.014418	0.024871	0.192795	5071.583721	27530.471563	3466.217783	15526.337233
52.535000	-0.045971	-0.018621	0.005970	-0.028324	6714.133370	43603.040721	3938.665856	24051.304325
53.035500	-0.033633	-0.031937	-0.008600	-0.191114	8708.697340	60398.581197	4454.901110	33767.801296
53.535500	-0.017523	-0.025808	0.000388	-0.179081	8765.374368	59619.697599	4442.426102	32918.367771
54.039000	-0.015543	-0.030437	-0.004802	-0.194261	9009.894426	61018.970951	4483.681397	33993.814171
54.536500	-0.013174	-0.025799	-0.002032	-0.182578	8875.992283	60081.018167	4446.828868	33162.833790
55.036500	-0.019552	-0.018841	0.000628	-0.144917	8280.264201	56165.907168	4309.212956	30631.213678
55.537000	-0.002896	-0.014178	0.003607	-0.145640	8508.165084	56832.855209	4323.248478	30677.779212
56.040500	0.017199	-0.004532	0.022706	-0.133003	8608.793351	56461.469643	4348.039818	29874.987567
56.537500	0.035395	0.005570	0.026379	-0.107292	8507.411654	54564.227870	4264.991660	28312.030572
57.035000	0.043563	0.014739	0.037408	-0.063348	8048.047787	50574.871299	4148.536463	25845.810410
57.535500	0.054650	0.021568	0.050734	-0.036431	7856.564986	48411.783231	4102.968326	24453.910725
58.035500	0.071135	0.028573	0.064210	-0.026784	7938.424662	48134.737357	4115.665066	23975.701026
58.536000	0.083288	0.037266	0.081210	-0.003127	7801.442742	46596.619313	4093.665179	22846.974168
59.036000	0.094982	0.046237	0.100268	0.038354	7463.155918	43432.036709	4021.999677	21010.305811
59.536500	0.109853	0.055993	0.116546	0.080493	7173.196093	40506.951041	3943.817317	19315.779699
60.039500	0.120365	0.066318	0.135540	0.118419	6899.451973	38180.214452	3889.459417	17925.049939
60.537000	0.129388	0.074528	0.137637	0.181088	6411.280360	34001.208491	3730.645832	15877.195268
61.034000	0.140254	0.078345	0.144571	0.200327	6340.390151	32910.003880	3701.003256	15305.554691
61.537500	0.147098	0.081679	0.155643	0.204638	6361.688850	32842.158312	3717.184251	15180.888717
62.038000	0.152027	0.085731	0.166771	0.212740	6335.026913	32562.553520	3724.510810	14949.934409
62.538500	0.154790	0.087023	0.159573	0.223582	6267.994071	31913.503893	3681.586365	14647.531512
63.038500	0.157912	0.088354	0.166842	0.231615	6227.857658	31466.457762	3679.806323	14428.286541
63.536000	0.165008	0.091397	0.166729	0.233233	6272.659908	31560.925738	3675.788991	14384.635007
64.036000	0.169536	0.093457	0.177105	0.241154	6244.838849	31174.340679	3681.491999	14173.170569
64.537000	0.169283	0.095270	0.183195	0.248471	6183.555372	30816.005774	3678.637560	13981.234715
65.034000	0.174658	0.096751	0.183455	0.255373	6171.331622	30467.500170	3663.322917	13803.141458
65.537000	0.174945	0.097655	0.189651	0.261564	6124.435540	30131.730833	3663.332832	13645.761536
66.037500	0.178619	0.099668	0.192820	0.269161	6093.629025	29781.601017	3653.252741	13455.707197
66.535000	0.180160	0.100965	0.193603	0.276111	6051.599033	29431.605619	3639.380112	13284.706077
67.035000	0.180195	0.102515	0.194317	0.288718	5955.923173	28760.182100	3613.182218	12981.435354
67.535500	0.186211	0.104444	0.200052	0.290230	5989.877204	28785.179289	3622.404289	12945.651260
68.035500	0.186022	0.105318	0.204474	0.295147	5951.406203	28543.657303	3621.316137	12830.127479
68.536500	0.189996	0.108218	0.210259	0.307811	5886.962166	27969.580418	3606.360849	12538.570844
69.039000	0.190952	0.109540	0.214564	0.313019	5855.896552	27744.671308	3604.414247	12421.115321
69.536500	0.197334	0.111857	0.213852	0.312588	5905.817963	27903.545191	3603.810629	12430.779470
70.036500	0.200435	0.112324	0.218458	0.315975	5903.712422	27734.817013	3606.435987	12355.080279
70.537000	0.200219	0.114257	0.216781	0.325700	5831.171723	27289.993505	3582.159149	12140.939866
71.035500	0.203711	0.116769	0.222649	0.331046	5817.823338	27130.180248	3583.255185	12025.251607
71.534500	0.212660	0.117647	0.224950	0.328906	5898.506550	27300.434675	3592.648101	12071.395171
72.035500	0.215270	0.121026	0.230043	0.333408	5884.592635	27236.914913	3593.903192	11974.586956
72.535000	0.211771	0.121634	0.234071	0.341705	5799.213496	26806.691406	3584.862262	11798.796911
73.039000	0.217740	0.123184	0.237134	0.343951	5825.913231	26768.124137	3586.585653	11751.793403
73.536000	0.223931	0.125808	0.242208	0.343316	5875.457704	26949.243096	3598.720844	11765.055288
74.036000	0.226832	0.128388	0.243255	0.346981	5869.867286	26888.777409	3593.136921	11688.747715
74.536500	0.231122	0.128259	0.245928	0.348903	5887.211086	26774.930290	3594.735065	11648.985217
75.036000	0.227421	0.128884	0.241011	0.356600	5804.608850	26386.386940	3568.248272	11491.517340
75.540000	0.233678	0.132224	0.248965	0.355184	5859.981594	26647.014307	3587.850590	11520.294875
76.038000	0.237295	0.132920	0.255318	0.357225	5871.469701	26573.003992	3597.013531	11478.860225
76.535000	0.240703	0.135834	0.259412	0.361169	5867.555563	26516.522763	3597.333828	11399.360014
77.035500	0.239820	0.135744	0.258514	0.367928	5812.272595	26144.212325	3581.117578	11264.779798
77.536000	0.242944	0.138633	0.265877	0.365898	5849.452801	26410.994881	3601.050177	11304.980390
78.036500	0.246738	0.138745	0.264128	0.367287	5866.956881	26341.500363	3594.344674	11277.464858
78.536500	0.244500	0.140028	0.265564	0.376204	5786.604854	25929.920734	3578.550076	11102.837849
79.039500	0.249933	0.142732	0.275684	0.372242	5854.132769	26288.850900	3608.505581	11179.976039
79.537000	0.253639	0.142743	0.271053	0.373296	5873.467927	26232.350372	3596.294959	11159.390665
80.034500	0.255619	0.143561	0.271378	0.375042	5875.175631	26182.171387	3593.269226	11125.390409
80.535000	0.253196	0.145149	0.271362	0.383737	5794.885168	25801.379295	3574.925906	10958.086018
81.035000	0.257592	0.146691	0.269994	0.379936	5853.884591	26087.069806	3580.012162	11030.813215
81.538000	0.261774	0.146857	0.279086	0.381371	5873.903067	26018.885655	3596.205551	11003.279696
82.035000	0.264368	0.148219	0.275299	0.383336	5878.503390	25986.517796	3584.012435	10965.718105
82.536000	0.262796	0.149149	0.281174	0.391723	5806.416557	25590.501731	3578.740994	10807.352172
83.036500	0.264298	0.149821	0.281951	0.386907	5851.961268	25881.332708	3590.525386	10897.920854
83.536500	0.269424	0.152068	0.290008	0.390129	5865.814607	25829.364109	3600.835297	10837.213121
84.037000	0.272487	0.153347	0.289753	0.392559	5870.439980	25768.244658	3595.095022	10791.729648
84.536500	0.269176	0.153365	0.288028	0.400185	5791.546836	25368.007249	3575.379403	10650.622235
85.037500	0.274472	0.155358	0.293618	0.397233	5850.850615	25627.337963	3593.372457	10704.943274
85.535000	0.275384	0.154850	0.291221	0.398108	5851.125573	25554.534175	3586.438475	10688.811579
86.035500	0.277411	0.156188	0.292132	0.400583	5847.867234	25494.768377	3583.142262	10643.313182
86.535500	0.274362	0.157548	0.292988	0.409116	5764.985939	25121.718828	3567.132699	10488.474567
87.035500	0.274992	0.156194	0.296102	0.409955	5763.507045	25008.871564	3571.848704	10473.412324
87.536000	0.279866	0.158312	0.300204	0.405762	5828.178707	25335.148187	3589.249260	10548.982293
88.036000	0.283341	0.160300	0.303685	0.408627	5832.578381	25289.560146	3590.555062	10497.273691
88.539500	0.281658	0.159354	0.299024	0.415674	5770.199371	24877.972680	3566.055977	10371.523220
89.037000	0.282978	0.160648	0.296956	0.417879	5763.949251	24831.521052	3557.277867	10332.594828
89.537000	0.285271	0.161637	0.301257	0.412815	5816.319345	25141.868558	3576.629691	10422.290086
90.034500	0.289521	0.164118	0.304151	0.416253	5822.158435	25092.509359	3575.494735	10361.286242
90.535000	0.284677	0.163725	0.305157	0.422053	5746.527485	24775.776316	3565.549135	10259.454863
91.035500	0.285442	0.164551	0.302100	0.424566	5734.280414	24690.259497	3554.130106	10215.745665
91.535500	0.292812	0.165119	0.306977	0.419186	5824.733604	24993.191470	3575.270009	10309.616355
92.035500	0.293694	0.167132	0.309180	0.421267	5816.117807	24989.708395	3575.524790	10273.173676
92.536500	0.290207	0.165834	0.315302	0.427727	5745.517082	24595.434225	3574.819370	10161.129142
93.039500	0.294684	0.168951	0.312770	0.423579	5806.640673	24964.460203	3578.194921	10232.884495
93.537000	0.295822	0.169071	0.316905	0.425394	5801.801363	24877.824473	3583.062390	10201.407432
94.037000	0.297578	0.168574	0.312194	0.425366	5814.572163	24853.895401	3573.265552	10201.890290
94.537000	0.297280	0.169714	0.314875	0.433836	5752.291426	24483.503922	3561.298660	10056.717388
95.037000	0.300768	0.170163	0.316125	0.428738	5813.271782	24763.225078	3574.429358	10143.753399
95.540500	0.299159	0.170948	0.313892	0.429604	5795.567696	24759.103125	3567.993198	10128.891193
96.035500	0.301771	0.171157	0.319344	0.430918	5804.837067	24703.117731	3576.595349	10106.407066
96.535500	0.297269	0.170696	0.317636	0.437539	5726.282125	24347.527250	3559.364676	9994.116562
97.035500	0.299136	0.171553	0.317366	0.439476	5725.799799	24293.848800	3554.855511	9961.601359
97.536000	0.303983	0.174088	0.323247	0.435523	5787.766250	24618.538474	3575.131231	10028.129060
98.039500	0.304359	0.174548	0.324359	0.436452	5783.833930	24594.934288	3575.514118	10012.440837
98.537000	0.301679	0.173742	0.329623	0.442699	5721.064740	24242.567804	3573.464130	9907.796082
99.037000	0.303780	0.174254	0.323321	0.444500	5723.149234	24178.807147	3556.755842	9877.908692
99.537500	0.306732	0.175482	0.324049	0.440334	5773.134579	24446.944254	3566.810836	9947.240869
100.038000	0.305696	0.174647	0.327698	0.440283	5766.169519	24407.757260	3574.486834	9948.085233
100.535500	0.302948	0.176174	0.327198	0.447697	5695.218191	24115.737334	3558.146095	9825.144501
101.035000	0.305401	0.176173	0.323493	0.449639	5698.741706	24020.235079	3546.664942	9793.284034
101.536000	0.311417	0.177470	0.329483	0.445491	5769.790121	24288.987828	3567.382299	9861.503135
102.036000	0.308826	0.175464	0.327318	0.444804	5756.359619	24223.584702	3564.331158	9872.867839
102.536500	0.306076	0.176297	0.331515	0.450869	5694.909833	23966.050962	3560.490456	9773.181871
103.037000	0.307449	0.176272	0.327671	0.452825	5690.888133	23869.368419	3548.671275	9741.327691
103.537000	0.311993	0.178502	0.331564	0.449180	5747.860871	24157.436186	3564.065945	9800.813785
104.037500	0.313150	0.177681	0.333950	0.450522	5746.561972	24050.945785	3566.216685	9778.855379
104.537500	0.310073	0.178469	0.330826	0.456749	5681.948810	23785.469769	3547.116183	9677.864484
