sample name	sample
index	763
start time	 03-31-2021  12:27:03 PM
880	0.481072
Peak Time (s)	91.038
Peak Height 	0.4811
calc peak height	90,93
Baseline Time (s)	10.534
Baseline Value 	-1.1558E-4
subtract baseline	10,4
Abs	0.346621
Peak Time (s)	92.035
Peak Height 	0.3466
calc peak height	90,93
Baseline Time (s)	10.034
Baseline Value 	0.00136
subtract baseline	10,3
PK_550	0.148340
Peak Time (s)	90.037
Peak Height 	0.1483
calc peak height	90,93
Baseline Time (s)	10.534
Baseline Value 	2.5356E-4
subtract baseline	10,2
PK_880	0.324454
Peak Time (s)	92.035
Peak Height 	0.3245
calc peak height	90,93
Baseline Time (s)	10.034
Baseline Value 	4.8661E-4
subtract baseline	10,1


Time (s)	A880-A510	A880-A775	A880-A975	A880	I510	I775	I975	I880	
0.034500	0.001288	0.000758	-0.001715	0.000603	6762.186746	40953.993950	4004.463511	22327.707836
0.535000	-0.001258	-0.000146	0.002798	0.002010	6727.984585	40752.593534	4011.965874	22265.111164
1.038000	-0.000986	-0.000243	-0.002277	0.001805	6732.101001	40762.027306	4000.228063	22274.228876
1.538500	-0.003173	-0.000490	0.003521	0.003458	6699.138053	40597.219975	4010.211670	22200.915438
2.039000	-0.000108	-0.000436	0.002088	-0.001065	6764.551286	40995.445920	4017.714791	22402.204832
2.574500	0.001266	0.000913	0.000145	0.000139	6766.030625	41008.141043	4010.073805	22348.406017
3.036500	0.002015	0.000139	0.002524	-0.002505	6795.671644	41172.111667	4022.300281	22466.753737
3.539500	-0.000510	-0.000632	0.000302	-0.001286	6762.987756	40997.686158	4013.910152	22412.107617
4.037000	-0.001511	-0.000652	-0.000785	-0.001000	6751.806821	40970.852170	4010.579529	22399.299072
4.537500	0.000066	-0.000158	0.001121	-0.000742	6763.259354	40991.540069	4014.577857	22387.773497
5.037500	0.000241	0.000402	0.002763	-0.000130	6759.459992	40986.981442	4017.082478	22360.421967
5.535000	0.001261	0.000168	0.001019	-0.000621	6772.614153	41009.467047	4014.034797	22382.375592
6.035500	0.001411	0.000638	0.000241	-0.000020	6768.676200	40997.979477	4010.689972	22355.510642
6.535500	-0.000085	0.000319	-0.005253	-0.000417	6759.120161	41004.804215	3998.421718	22373.225755
7.035500	-0.001318	0.000532	0.003534	-0.000289	6747.327846	41012.307253	4019.351184	22367.532214
7.536500	0.002813	-0.000037	0.002694	-0.000097	6781.580453	40945.722192	4016.835133	22358.970909
8.039000	0.002508	0.001006	0.006879	0.000194	6776.373839	41011.462984	4026.359770	22345.964014
8.537000	0.001751	0.000249	0.005059	-0.000330	6774.344190	40991.088894	4023.179405	22369.349474
9.037500	-0.001876	-0.000806	-0.000403	0.003349	6711.170049	40579.259397	4001.017555	22205.722533
9.537500	0.001122	0.000340	0.001054	0.000223	6764.044602	40950.680413	4012.069329	22344.650601
10.034500	0.000000	0.000252	0.000000	0.000530	6751.643674	40916.190858	4008.776421	22330.969065
10.534500	-0.000915	0.000000	-0.000042	0.000000	6748.308455	40940.481181	4009.956975	22354.622125
11.035500	0.001251	-0.000286	0.008127	-0.000175	6768.636772	40930.731166	4030.339094	22362.417093
11.549000	-0.002263	-0.000408	-0.001294	-0.000441	6740.470200	40943.339222	4007.997291	22374.317355
12.036000	0.000996	0.000045	-0.002124	0.000140	6763.680067	40932.205543	4004.594834	22348.385472
12.536000	0.000288	-0.000377	0.002627	-0.000050	6759.177524	40911.972097	4016.558421	22356.873508
13.037000	-0.003340	-0.000737	0.003424	0.002848	6702.926150	40628.638518	4011.454143	22227.929345
13.539500	0.001327	0.000029	0.000992	-0.000535	6772.437270	40989.812804	4013.760943	22378.519253
14.037000	-0.003213	-0.000432	-0.003639	0.001005	6719.812575	40815.116371	3998.879949	22309.806677
14.562500	-0.001780	-0.000402	0.004786	0.001644	6726.650260	40762.191864	4017.689538	22281.402835
15.035000	-0.002135	-0.000153	0.000116	0.003672	6706.191159	40607.905593	4001.489763	22191.447318
15.535500	-0.000475	0.000635	0.005024	-0.000270	6754.466033	41019.646960	4022.949722	22366.696122
16.035500	-0.000569	-0.000491	0.000037	-0.001528	6764.575842	41031.109976	4013.853054	22422.929692
16.537500	0.000795	0.000529	-0.002319	-0.000255	6765.368551	41009.001736	4005.075615	22366.005680
17.035500	-0.001650	-0.000349	0.006352	-0.001213	6752.453825	41016.080205	4028.526140	22408.852772
17.538500	0.001781	0.000313	0.002938	-0.003552	6802.807213	41279.547430	4025.880728	22513.800351
18.037000	-0.001482	-0.000924	0.002163	-0.000077	6744.073607	40866.571172	4015.492976	22358.057119
18.537000	-0.002480	0.000321	0.000641	0.000552	6730.025006	40920.323395	4010.275688	22330.020350
19.037500	0.000160	-0.000561	0.000097	0.001649	6743.349477	40747.971937	4006.311391	22281.185354
19.562000	-0.001194	-0.000321	-0.002834	0.000806	6738.925000	40842.188105	4001.287277	22318.688136
20.036500	-0.001329	-0.000422	-0.003318	0.000493	6740.461158	40860.609490	4000.877056	22332.631229
20.535500	-0.000850	-0.001017	0.000585	0.000368	6745.690301	40819.702445	4010.582610	22338.198283
21.036000	-0.000272	-0.000205	0.001290	0.000820	6746.780647	40851.057578	4011.196367	22318.074131
21.536000	0.000662	0.000736	0.006264	0.001094	6752.495575	40909.298115	4022.643868	22305.878208
22.047500	-0.000383	-0.000556	0.001649	0.000387	6749.567531	40858.240600	4013.115926	22337.357136
22.536500	0.000844	-0.000065	0.003176	0.001123	6753.827923	40836.840600	4015.038119	22304.574602
23.036500	-0.000770	-0.000725	-0.003350	0.000576	6744.576783	40827.013808	4000.601395	22328.925534
23.537500	-0.000912	-0.000341	-0.002446	0.001152	6738.372416	40810.220462	4001.386532	22303.255689
24.040500	0.000210	-0.000551	0.003374	0.000396	6754.623399	40857.829306	4017.289989	22336.944459
24.535500	0.000353	0.000944	0.000377	0.001921	6742.663490	40855.307431	4006.329948	22269.097060
25.035500	0.000613	0.000322	-0.002897	0.001253	6750.688362	40859.217951	4000.063740	22298.774515
25.535500	0.001964	0.000612	0.002093	0.001122	6763.555854	40895.937435	4012.411332	22304.620267
26.036000	0.000291	-0.000106	0.000141	0.001220	6748.186614	40824.800175	4007.450857	22300.229911
26.536000	0.002644	-0.000184	-0.002952	0.000944	6771.026807	40842.105011	4000.672694	22312.542965
27.039000	0.000399	0.000048	-0.003191	0.001034	6750.732236	40854.433701	3999.885302	22308.528161
27.536500	0.000826	0.000114	0.000482	-0.000357	6766.522634	40981.602113	4012.091500	22370.552790
28.037500	0.000575	0.000260	0.000600	-0.000471	6765.330606	41004.419873	4012.652806	22375.658859
28.537000	0.001057	-0.000287	-0.001380	-0.000729	6771.772924	40979.091261	4008.486403	22387.191653
29.035500	0.001277	0.000118	0.000756	-0.000243	6769.461548	40972.096069	4012.480910	22365.490704
29.535000	0.001342	0.000070	0.004020	-0.000267	6770.234987	40969.945700	4020.485158	22366.543705
30.035000	0.002800	-0.000016	0.001609	-0.000600	6785.859225	40991.489293	4015.417769	22381.404260
30.535500	0.001826	0.001036	0.000696	0.000537	6767.449981	40984.099140	4010.444435	22330.680166
31.036000	-0.000738	0.000574	0.001934	0.001208	6739.397641	40885.217998	4011.817560	22300.800901
31.555500	-0.002099	-0.000261	0.003179	0.002003	6720.810230	40743.223008	4012.908861	22265.429270
32.039500	0.001042	0.000064	0.004984	-0.000387	6768.657227	40979.871626	4023.136130	22371.884701
32.788000	0.001526	0.000384	-0.001990	-0.000164	6770.942517	40988.431758	4005.649178	22361.955298
33.126500	0.001861	-0.000276	0.000375	-0.000698	6778.510706	40977.350008	4012.657764	22385.798198
33.546500	-0.002000	-0.000159	-0.000890	0.003890	6705.479480	40588.523466	3998.557638	22181.808885
34.038000	-0.000392	-0.000886	0.000688	-0.001145	6762.788640	40963.147330	4014.505731	22405.808794
34.654000	-0.000062	0.000727	0.002326	-0.000245	6757.838308	41025.471038	4016.300198	22365.577575
35.038000	0.001046	0.000153	0.000401	-0.001843	6781.397691	41115.202078	4015.503717	22437.042982
35.536000	-0.001259	-0.000502	-0.006315	0.001817	6729.651478	40738.513190	3990.565337	22273.709777
36.036000	0.000895	-0.000847	0.006484	0.001252	6753.144703	40757.575265	4022.794127	22298.814948
36.539000	0.000887	-0.000328	0.000780	0.001109	6754.317462	40815.194997	4009.262830	22305.203621
37.037000	-0.002260	-0.000819	0.000661	0.001131	6726.936533	40770.506358	4008.922703	22304.213456
37.537000	-0.000356	-0.000316	0.003258	0.001627	6739.068926	40771.118558	4014.012178	22282.126936
38.037500	-0.001803	0.000946	0.001375	0.001930	6723.990702	40854.569822	4008.716912	22268.667298
38.537500	-0.002703	-0.000638	0.000564	0.001399	6720.815073	40762.907701	4008.040050	22292.267237
39.035000	-0.000971	-0.000300	0.002152	0.001080	6738.490996	40820.150398	4012.656938	22306.502141
39.535000	-0.000192	-0.000035	0.003398	0.001760	6739.344181	40784.036540	4014.029460	22276.233419
40.036000	0.000674	-0.000374	0.003848	0.001680	6747.524837	40761.471705	4015.317240	22279.787025
40.536000	-0.002530	-0.000757	0.006507	0.001179	6724.191992	40771.737788	4023.031246	22302.068618
41.039000	-0.000166	0.000555	0.002948	0.001697	6740.108826	40840.851041	4013.091965	22279.041356
41.536500	-0.001061	0.000387	0.000871	0.001813	6731.381268	40816.136459	4007.779933	22273.859910
42.036500	-0.001481	0.000212	-0.001529	0.001424	6731.118761	40834.726192	4002.935840	22291.163309
42.537000	-0.000230	0.000544	0.002658	0.001805	6738.626721	40830.565566	4012.126134	22274.251706
43.034500	-0.002424	-0.000356	-0.002478	0.002881	6710.493005	40658.786134	3997.171362	22226.471611
43.537000	-0.000541	-0.000297	0.000979	0.000836	6744.314325	40841.646274	4010.404688	22317.345066
44.035000	0.001557	0.001196	0.003352	0.002458	6748.436818	40830.412123	4012.224787	22245.244384
44.535500	-0.001307	0.000903	0.005503	0.002017	6727.507843	40843.338015	4018.529381	22264.827021
45.035500	-0.001044	-0.000505	0.002393	0.002527	6725.381797	40676.581770	4009.733833	22242.155886
45.536000	-0.000355	-0.001162	-0.000166	0.000577	6748.158797	40788.856881	4008.261987	22328.880174
46.036000	-0.000462	0.000106	-0.000389	-0.000226	6754.195324	40969.497619	4009.665081	22364.724490
46.539000	-0.001170	-0.000568	-0.000281	-0.000803	6753.062487	40961.066706	4011.322509	22390.508853
47.037000	-0.001851	0.000093	-0.001327	0.003586	6709.352905	40636.551789	3998.236515	22195.225807
47.540000	-0.000435	-0.000078	0.001706	-0.000257	6754.694893	40956.092189	4014.819108	22366.089548
48.037500	0.000217	-0.000091	0.005901	-0.000240	6760.213125	40953.504487	4025.025031	22365.344933
48.535000	-0.000825	0.000569	0.006438	0.000452	6745.178677	40950.666496	4024.643591	22334.449542
49.035500	-0.002325	0.000375	-0.001434	0.004092	6700.972688	40617.288644	3996.771813	22172.877493
49.538500	0.000466	-0.000873	0.001217	-0.000522	6764.829159	40909.838371	4014.275445	22377.935539
50.035500	-0.000450	0.000165	0.003734	-0.000368	6755.533058	40987.118828	4020.033830	22371.065908
50.538000	0.001144	0.000842	0.006127	0.000131	6765.045519	41002.661224	4024.670342	22348.791802
51.036500	-0.000640	0.000800	0.001392	0.004421	6712.575818	40625.465167	4002.753408	22158.300331
51.536500	-0.000740	-0.000334	0.003042	0.006154	6696.892192	40378.076311	4002.556122	22081.924866
52.037000	-0.005400	-0.003034	0.006385	-0.005358	6755.879016	41143.998806	4038.861752	22595.230385
52.537000	-0.037434	-0.002177	0.024158	0.300720	4717.607490	21892.946914	3515.062371	12670.468892
53.037500	-0.023219	0.005162	0.010608	0.138947	5581.931182	30883.785570	3741.187011	17047.698614
53.535000	-0.026781	-0.003301	0.020643	0.014422	6415.146819	39423.682333	4025.221062	21721.541076
54.035000	0.006678	-0.003823	0.027563	-0.137518	8240.231794	54614.680417	4496.047322	29574.812888
54.535500	0.038166	0.003068	0.059568	-0.140748	8677.359733	55831.485460	4625.935989	29773.410850
55.036000	0.072887	0.027339	0.090989	-0.017594	7629.161498	45075.261142	4308.571864	23155.967188
55.536000	0.100203	0.045209	0.115862	0.011661	7608.481343	43986.786141	4295.025677	21841.144751
56.036500	0.139212	0.067645	0.156820	0.077641	7330.237942	40077.362841	4220.232777	19181.644100
56.534000	0.171576	0.087176	0.186143	0.133586	7100.749616	37095.987181	4145.253159	17222.519703
57.037000	0.200703	0.102511	0.216135	0.164338	7085.382303	35907.144906	4143.178074	16248.367930
57.534500	0.224833	0.117027	0.236382	0.209233	6894.078458	33684.533364	4077.852335	14944.546908
58.035000	0.237672	0.126156	0.250768	0.248533	6663.163957	31625.723127	4015.481924	13908.734447
58.535000	0.250914	0.133636	0.264327	0.278299	6525.950509	30194.232210	3976.787366	13184.285629
59.035500	0.261453	0.139757	0.279204	0.327986	6220.961375	27599.352454	3898.403210	12080.315039
59.535500	0.265085	0.142450	0.283440	0.349238	6092.410514	26570.647334	3862.316280	11645.370517
60.039000	0.275195	0.148075	0.294287	0.352788	6139.662929	26683.458929	3877.619356	11574.753597
60.539500	0.283337	0.151308	0.305337	0.387148	5955.007931	25045.951804	3829.621135	10920.393426
61.036500	0.284969	0.151424	0.310133	0.394009	5919.501634	24706.371338	3825.493359	10795.826207
61.537000	0.289491	0.154312	0.309457	0.398147	5922.092662	24644.035013	3815.943624	10721.639107
62.037000	0.291388	0.155977	0.320464	0.407041	5875.193517	24286.826508	3820.120924	10564.549315
62.535000	0.289663	0.154889	0.312129	0.411725	5832.896671	24005.931253	3794.696582	10483.115370
63.035000	0.294308	0.155881	0.320364	0.415243	5840.286001	23884.125782	3803.820603	10422.517344
63.536000	0.295816	0.156285	0.316778	0.427038	5773.514530	23343.686768	3774.428367	10222.904524
64.035500	0.297548	0.158399	0.319609	0.433291	5744.666911	23150.786334	3768.030301	10119.256878
64.536000	0.295803	0.157137	0.323139	0.432057	5741.418355	23149.516690	3776.950718	10139.589935
65.039000	0.298852	0.158529	0.321586	0.433686	5750.441178	23138.512833	3770.982566	10112.762561
65.537000	0.298621	0.159712	0.321481	0.436454	5731.429794	23065.199330	3765.630116	10067.401786
66.036500	0.302782	0.159659	0.313533	0.438403	5745.439610	22972.963554	3747.457350	10035.627198
66.537500	0.304058	0.161181	0.324285	0.442389	5728.287910	22859.997544	3759.836340	9971.104643
67.034500	0.304577	0.160478	0.326041	0.445207	5713.817756	22699.674481	3757.880271	9925.832274
67.535000	0.304519	0.160666	0.322897	0.449318	5687.772288	22522.630509	3744.648597	9860.331797
68.035500	0.304996	0.160612	0.323355	0.450696	5682.175200	22458.391156	3742.985385	9838.502948
68.535000	0.305627	0.159944	0.324459	0.452932	5672.238864	22328.775064	3740.945915	9803.242285
69.035500	0.306862	0.159761	0.328643	0.454861	5667.952087	22235.051765	3745.014940	9772.971065
69.539000	0.307867	0.161280	0.330395	0.457581	5657.386831	22181.962186	3743.266830	9730.515989
70.036000	0.309988	0.159444	0.329413	0.459653	5657.689063	22010.177627	3737.771179	9698.351858
70.537000	0.308252	0.158971	0.335955	0.460195	5643.719119	21965.847127	3748.602668	9689.962913
71.056000	0.313001	0.160597	0.332083	0.463272	5653.966383	21902.590270	3736.071010	9642.535387
71.548000	0.308196	0.158666	0.334400	0.463720	5621.907956	21799.355855	3739.422445	9635.655499
72.037500	0.310436	0.157397	0.331524	0.464746	5629.287306	21700.346593	3732.443088	9619.939331
72.537500	0.308206	0.157919	0.334210	0.466657	5604.216222	21640.668009	3733.824320	9590.752670
73.035000	0.310085	0.158219	0.329831	0.469028	5601.251764	21551.985035	3721.876432	9554.711326
73.535500	0.310444	0.158680	0.332978	0.471443	5588.906173	21468.753132	3723.163230	9518.208936
74.529000	0.307280	0.155602	0.330738	0.473729	5556.475157	21242.166544	3715.244036	9483.857189
75.109000	0.310175	0.155547	0.331613	0.474061	5571.678187	21225.894155	3716.189570	9478.872107
75.197500	0.309236	0.155327	0.335637	0.474089	5565.929810	21215.525880	3723.186520	9478.457987
75.537000	0.313597	0.157038	0.337433	0.476791	5575.796826	21173.992518	3721.594918	9438.099861
76.037000	0.311368	0.155450	0.335713	0.475794	5568.470343	21149.325434	3720.327503	9452.967543
76.537000	0.313709	0.155966	0.339899	0.477790	5570.515260	21087.563846	3724.174970	9423.244331
77.038000	0.309832	0.152943	0.325552	0.475673	5560.069226	21049.916304	3702.931680	9454.767175
77.535500	0.316722	0.155710	0.335917	0.479691	5577.142762	20998.032008	3713.882478	9395.077042
78.035500	0.314650	0.153128	0.337269	0.478224	5573.536488	20951.890673	3718.796304	9416.809755
78.535500	0.314195	0.153785	0.340468	0.479454	5563.523322	20928.241095	3722.249472	9398.583601
79.036000	0.313564	0.153585	0.336463	0.480427	5554.021731	20879.888105	3713.550769	9384.193149
79.536500	0.314170	0.152824	0.340654	0.480184	5559.048300	20858.592530	3721.293109	9387.792566
80.039500	0.314876	0.152658	0.335230	0.480736	5559.958650	20829.110140	3710.878606	9379.639394
80.537000	0.315154	0.151831	0.336851	0.479971	5566.141525	20826.534633	3715.019310	9390.930189
81.037500	0.314550	0.151414	0.337670	0.479670	5564.345577	20821.815111	3716.971179	9395.384197
81.535000	0.319427	0.153319	0.334480	0.482020	5579.378642	20803.550612	3707.365861	9360.722408
82.035000	0.316416	0.151133	0.337687	0.480886	5568.201709	20760.485453	3714.881668	9377.425038
82.535500	0.317209	0.151443	0.331187	0.480523	5575.080255	20788.042126	3704.277384	9382.781134
83.035500	0.315963	0.150020	0.338216	0.479423	5574.208295	20774.781203	3718.355046	9399.030509
83.536000	0.316829	0.149171	0.339975	0.478897	5582.516721	20761.618023	3722.360965	9406.828462
84.036500	0.315317	0.150344	0.337266	0.479814	5568.041873	20772.059321	3716.015040	9393.249494
84.536500	0.320468	0.151678	0.344309	0.480589	5594.178055	20794.951167	3727.017910	9381.807725
85.036500	0.313405	0.149032	0.343950	0.484179	5531.014685	20541.380845	3720.066869	9329.037882
85.537000	0.317619	0.151270	0.341429	0.479955	5580.916085	20804.211517	3723.055868	9391.164848
86.034500	0.318450	0.151136	0.341766	0.479619	5587.895227	20812.491881	3724.241535	9396.137626
86.534500	0.320696	0.149501	0.339550	0.478120	5610.413030	20806.927522	3722.979232	9418.346034
87.035000	0.317401	0.149284	0.341343	0.483467	5558.739497	20580.349393	3716.754802	9339.471017
87.535000	0.317882	0.148819	0.334931	0.477716	5595.900434	20795.514971	3715.602340	9424.347961
88.035500	0.320371	0.149566	0.346419	0.478129	5608.393262	20809.202843	3735.140193	9418.208084
88.536000	0.318511	0.147207	0.336650	0.475824	5611.081674	20807.008455	3721.918589	9452.517205
89.036500	0.321187	0.147358	0.345548	0.476577	5622.725764	20782.351186	3736.358239	9441.289191
89.536000	0.323066	0.148059	0.339339	0.477306	5629.709501	20781.182415	3724.040478	9430.433993
90.037000	0.321107	0.148340	0.345618	0.476630	5621.917689	20820.417200	3736.389120	9440.504417
90.534500	0.323968	0.147856	0.339335	0.476801	5638.281521	20793.566476	3724.922908	9437.950362
91.037500	0.319066	0.145096	0.337152	0.481072	5582.888471	20507.945747	3713.629212	9374.688123
91.535000	0.321477	0.146387	0.345779	0.476557	5624.603335	20743.486148	3736.806709	9441.589395
92.035000	0.324454	0.147529	0.346621	0.477929	5634.365407	20734.076986	3735.857559	9421.177763
92.535500	0.321681	0.146242	0.340170	0.477159	5622.188201	20712.982408	3725.765298	9432.622961
93.038500	0.324194	0.146537	0.343922	0.478956	5626.538565	20651.858506	3729.224698	9405.953114
93.536000	0.323552	0.144562	0.341277	0.476941	5634.889137	20653.454666	3728.106732	9435.863517
94.036000	0.324014	0.145158	0.340484	0.477189	5636.200734	20667.634712	3726.267406	9432.186913
94.536500	0.322301	0.144642	0.339097	0.477868	5621.650587	20619.111304	3722.625662	9422.084602
95.036500	0.323112	0.145000	0.342887	0.479758	5615.110044	20557.059125	3725.972070	9394.075809
95.537000	0.326318	0.145502	0.354812	0.480753	5628.519894	20537.172831	3745.517272	9379.381632
96.034500	0.325130	0.144498	0.346591	0.479404	5629.503468	20551.117841	3733.173072	9399.324818
96.535000	0.326417	0.144325	0.344023	0.480501	5630.657106	20499.884471	3726.666439	9383.100501
97.035500	0.323642	0.143687	0.343038	0.482116	5604.077829	20409.366401	3722.086509	9359.311416
97.535500	0.326099	0.142630	0.345270	0.481215	5624.388062	20403.154229	3727.611458	9372.580824
