sample name	sample
index	153
start time	 02-15-2021  02:43:36 PM


Wavelength (nm)	Absorbance
494.344910	-0.633254
494.563924	-0.633254
494.782919	-0.633254
495.001897	-0.116506
495.220856	-0.592917
495.439797	-0.876119
495.658719	-1.478233
495.877624	NaN
496.096510	NaN
496.315378	NaN
496.534227	1.880814
496.753059	NaN
496.971872	NaN
497.190667	0.250010
497.409444	0.176428
497.628203	0.151998
497.846943	0.151069
498.065665	0.151297
498.284369	0.152332
498.503055	0.150565
498.721723	0.149358
498.940372	0.146583
499.159003	0.146556
499.377616	0.148080
499.596210	0.152320
499.814787	0.150626
500.033345	0.150103
500.251885	0.148234
500.470406	0.150551
500.688910	0.147940
500.907395	0.146397
501.125862	0.144351
501.344311	0.146678
501.562742	0.142585
501.781154	0.139848
501.999548	0.138325
502.217924	0.140326
502.436282	0.140155
502.654621	0.143196
502.872942	0.143771
503.091245	0.145165
503.309530	0.141535
503.527797	0.140994
503.746045	0.142856
503.964275	0.143394
504.182487	0.142093
504.400681	0.139827
504.618856	0.138534
504.837013	0.140864
505.055152	0.140486
505.273273	0.141345
505.491376	0.143115
505.709460	0.145249
505.927526	0.145363
506.145574	0.146943
506.363604	0.147975
506.581615	0.147106
506.799608	0.146987
507.017583	0.148244
507.235540	0.149291
507.453478	0.149871
507.671399	0.148719
507.889301	0.148831
508.107185	0.148296
508.325050	0.148174
508.542898	0.148990
508.760727	0.148671
508.978538	0.147617
509.196330	0.145796
509.414105	0.147254
509.631861	0.147984
509.849599	0.149094
510.067319	0.149518
510.285021	0.149697
510.502704	0.150573
510.720369	0.148799
510.938016	0.148411
511.155645	0.152403
511.373255	0.152390
511.590848	0.151308
511.808422	0.150469
512.025977	0.150466
512.243515	0.150142
512.461034	0.150597
512.678536	0.152961
512.896018	0.155789
513.113483	0.155757
513.330930	0.155187
513.548358	0.155567
513.765768	0.156222
513.983160	0.157210
514.200533	0.156402
514.417889	0.154078
514.635226	0.154776
514.852545	0.154611
515.069845	0.153412
515.287128	0.153461
515.504392	0.153107
515.721638	0.154425
515.938866	0.152975
516.156075	0.154678
516.373267	0.157880
516.590440	0.156409
516.807594	0.155753
517.024731	0.155052
517.241850	0.155107
517.458950	0.158329
517.676032	0.158496
517.893095	0.159538
518.110141	0.161439
518.327168	0.159657
518.544177	0.162038
518.761168	0.161342
518.978141	0.161930
519.195095	0.161859
519.412031	0.160797
519.628949	0.161112
519.845849	0.159207
520.062731	0.157624
520.279594	0.159044
520.496439	0.156965
520.713266	0.159590
520.930074	0.158742
521.146865	0.160457
521.363637	0.160501
521.580391	0.161370
521.797127	0.163351
522.013844	0.162377
522.230543	0.163173
522.447224	0.162589
522.663887	0.161222
522.880532	0.162538
523.097158	0.163126
523.313766	0.161541
523.530356	0.161303
523.746928	0.162419
523.963481	0.164723
524.180017	0.166197
524.396534	0.167646
524.613032	0.169207
524.829513	0.169201
525.045975	0.170036
525.262420	0.173628
525.478845	0.174548
525.695253	0.175346
525.911643	0.177120
526.128014	0.175363
526.344367	0.176893
526.560702	0.176247
526.777018	0.177620
526.993316	0.176258
527.209597	0.175035
527.425858	0.174526
527.642102	0.172940
527.858328	0.173124
528.074535	0.175930
528.290724	0.174601
528.506894	0.174575
528.723047	0.174935
528.939181	0.175515
529.155297	0.176569
529.371395	0.176887
529.587475	0.177560
529.803536	0.175765
530.019579	0.173970
530.235604	0.175120
530.451611	0.176009
530.667600	0.176526
530.883570	0.176548
531.099522	0.175731
531.315456	0.176605
531.531372	0.177068
531.747269	0.179147
531.963148	0.179640
532.179009	0.179905
532.394852	0.180469
532.610676	0.180193
532.826482	0.181426
533.042271	0.181396
533.258040	0.181784
533.473792	0.182492
533.689525	0.181553
533.905240	0.183218
534.120937	0.183277
534.336616	0.182320
534.552277	0.181671
534.767919	0.181452
534.983543	0.182033
535.199149	0.181353
535.414736	0.180796
535.630306	0.182414
535.845857	0.180456
536.061390	0.181209
536.276904	0.182438
536.492401	0.183236
536.707879	0.184124
536.923339	0.184138
537.138781	0.183749
537.354204	0.185014
537.569610	0.185049
537.784997	0.186566
538.000366	0.185907
538.215716	0.186321
538.431049	0.186692
538.646363	0.187366
538.861659	0.187891
539.076937	0.189179
539.292196	0.189481
539.507438	0.189417
539.722661	0.188748
539.937866	0.189447
540.153052	0.189775
540.368221	0.191431
540.583371	0.190157
540.798503	0.191274
541.013617	0.191941
541.228712	0.191192
541.443789	0.192439
541.658848	0.192957
541.873889	0.193969
542.088912	0.194478
542.303916	0.193757
542.518902	0.194412
542.733870	0.194336
542.948820	0.194336
543.163752	0.195939
543.378665	0.195040
543.593560	0.195504
543.808437	0.194906
544.023295	0.195060
544.238136	0.194304
544.452958	0.195066
544.667762	0.194859
544.882548	0.195142
545.097315	0.195609
545.312064	0.196081
545.526795	0.197629
545.741508	0.198506
545.956203	0.198189
546.170879	0.199717
546.385537	0.199503
546.600177	0.199785
546.814799	0.199604
547.029402	0.198914
547.243988	0.198890
547.458555	0.197705
547.673103	0.197928
547.887634	0.199094
548.102146	0.198567
548.316640	0.198450
548.531116	0.199694
548.745574	0.200541
548.960013	0.200079
549.174435	0.200283
549.388838	0.200610
549.603222	0.200957
549.817589	0.200940
550.031937	0.201073
550.246267	0.202551
550.460579	0.203373
550.674873	0.202374
550.889148	0.203996
551.103405	0.205559
551.317644	0.206504
551.531865	0.207880
551.746068	0.207952
551.960252	0.207830
552.174418	0.206666
552.388566	0.207156
552.602696	0.208464
552.816807	0.207909
553.030900	0.205782
553.244975	0.205543
553.459032	0.204541
553.673070	0.204829
553.887091	0.206367
554.101093	0.207485
554.315077	0.206014
554.529042	0.206300
554.742990	0.207120
554.956919	0.208205
555.170830	0.208267
555.384722	0.208799
555.598597	0.208407
555.812453	0.206897
556.026291	0.207572
556.240111	0.208767
556.453913	0.209152
556.667696	0.209475
556.881461	0.210157
557.095208	0.209523
557.308937	0.209919
557.522647	0.210982
557.736339	0.211820
557.950013	0.210880
558.163669	0.210844
558.377307	0.210679
558.590926	0.210651
558.804527	0.211073
559.018110	0.212309
559.231675	0.212046
559.445221	0.210923
559.658749	0.211436
559.872259	0.211612
560.085751	0.211429
560.299225	0.211144
560.512680	0.211552
560.726117	0.210766
560.939536	0.211101
561.152937	0.211406
561.366319	0.212104
561.579683	0.212404
561.793029	0.212485
562.006357	0.212776
562.219667	0.213931
562.432958	0.214863
562.646231	0.216020
562.859486	0.216934
563.072723	0.216603
563.285941	0.217034
563.499141	0.216821
563.712323	0.218180
563.925487	0.218610
564.138632	0.217935
564.351760	0.218123
564.564869	0.217850
564.777960	0.217891
564.991032	0.218742
565.204087	0.218023
565.417123	0.218520
565.630141	0.217759
565.843140	0.218624
566.056122	0.218030
566.269085	0.217825
566.482030	0.217388
566.694957	0.217007
566.907866	0.216531
567.120756	0.218005
567.333628	0.218267
567.546482	0.219146
567.759318	0.218533
567.972135	0.219462
568.184935	0.218903
568.397716	0.219737
568.610478	0.219521
568.823223	0.220684
569.035949	0.221624
569.248657	0.221893
569.461347	0.222097
569.674019	0.221811
569.886672	0.221945
570.099308	0.222948
570.311925	0.223644
570.524523	0.224305
570.737104	0.224149
570.949666	0.223540
571.162210	0.223680
571.374736	0.223532
571.587244	0.224381
571.799733	0.225224
572.012205	0.224110
572.224658	0.224148
572.437092	0.223390
572.649509	0.223112
572.861907	0.221608
573.074287	0.221619
573.286649	0.222132
573.498993	0.222121
573.711318	0.222695
573.923625	0.222888
574.135914	0.222760
574.348185	0.222512
574.560438	0.222728
574.772672	0.224113
574.984888	0.224659
575.197086	0.224650
575.409266	0.225520
575.621427	0.224430
575.833570	0.225263
576.045695	0.225690
576.257802	0.226716
576.469890	0.226889
576.681961	0.227808
576.894013	0.227702
577.106046	0.226762
577.318062	0.226086
577.530059	0.226497
577.742039	0.226510
577.954000	0.226908
578.165942	0.226439
578.377867	0.226753
578.589773	0.226761
578.801661	0.227271
579.013531	0.228595
579.225382	0.228532
579.437216	0.228172
579.649031	0.229103
579.860828	0.228472
580.072606	0.229154
580.284367	0.229681
580.496109	0.229283
580.707833	0.229482
580.919539	0.229794
581.131227	0.230372
581.342896	0.230782
581.554547	0.230784
581.766180	0.230685
581.977795	0.231159
582.189391	0.230789
582.400969	0.232256
582.612529	0.232163
582.824071	0.231364
583.035595	0.232525
583.247100	0.233842
583.458587	0.233722
583.670056	0.235225
583.881506	0.236161
584.092939	0.236612
584.304353	0.235738
584.515749	0.236957
584.727127	0.237173
584.938486	0.235734
585.149828	0.234763
585.361151	0.234632
585.572456	0.234615
585.783742	0.234715
585.995011	0.235642
586.206261	0.235915
586.417493	0.235372
586.628706	0.236695
586.839902	0.237757
587.051079	0.238611
587.262238	0.239369
587.473379	0.239200
587.684502	0.239161
587.895606	0.238708
588.106692	0.238461
588.317760	0.238060
588.528810	0.238207
588.739841	0.238570
588.950855	0.239504
589.161850	0.239124
589.372827	0.239422
589.583785	0.239155
589.794726	0.239138
590.005648	0.239991
590.216552	0.241011
590.427437	0.241116
590.638305	0.240229
590.849154	0.239212
591.059985	0.239671
591.270798	0.239493
591.481592	0.240704
591.692369	0.241398
591.903127	0.242309
592.113867	0.242309
592.324588	0.242198
592.535292	0.242952
592.745977	0.244209
592.956644	0.245191
593.167293	0.245356
593.377923	0.244319
593.588536	0.244518
593.799130	0.244046
594.009706	0.243685
594.220263	0.243753
594.430803	0.243395
594.641324	0.243114
594.851827	0.242356
595.062312	0.243404
595.272778	0.243750
595.483227	0.243888
595.693657	0.243520
595.904069	0.243714
596.114462	0.244430
596.324838	0.244744
596.535195	0.245721
596.745534	0.246299
596.955855	0.246016
597.166157	0.245811
597.376441	0.245201
597.586707	0.245500
597.796955	0.245528
598.007185	0.245675
598.217396	0.246234
598.427589	0.245188
598.637764	0.245728
598.847921	0.245739
599.058060	0.246348
599.268180	0.246563
599.478282	0.247089
599.688366	0.248296
599.898431	0.247871
600.108479	0.248593
600.318508	0.249164
600.528519	0.248477
600.738511	0.248953
600.948486	0.248986
601.158442	0.249726
601.368380	0.249488
601.578300	0.249047
601.788202	0.249800
601.998085	0.249886
602.207950	0.249529
602.417797	0.249350
602.627626	0.249532
602.837436	0.250214
603.047228	0.250116
603.257002	0.250147
603.466758	0.250973
603.676496	0.250739
603.886215	0.250982
604.095916	0.250878
604.305599	0.252055
604.515264	0.252363
604.724910	0.252489
604.934538	0.252592
605.144148	0.252733
605.353740	0.252867
605.563314	0.253463
605.772869	0.253017
605.982406	0.253867
606.191925	0.254354
606.401425	0.255036
606.610908	0.255129
606.820372	0.255330
607.029818	0.255930
607.239246	0.255673
607.448655	0.255409
607.658047	0.255967
607.867420	0.256792
608.076775	0.255802
608.286111	0.254703
608.495430	0.254913
608.704730	0.254927
608.914012	0.255047
609.123275	0.254797
609.332521	0.254878
609.541748	0.255212
609.750957	0.254587
609.960148	0.255401
610.169321	0.255821
610.378475	0.256040
610.587611	0.257084
610.796729	0.257311
611.005829	0.257288
611.214910	0.257826
611.423974	0.257663
611.633019	0.258052
611.842045	0.257854
612.051054	0.258893
612.260044	0.259468
612.469017	0.259246
612.677970	0.259528
612.886906	0.260485
613.095824	0.260691
613.304723	0.261043
613.513604	0.260568
613.722467	0.261475
613.931311	0.260332
614.140138	0.260194
614.348946	0.260297
614.557736	0.260580
614.766507	0.259515
614.975261	0.259194
615.183996	0.259392
615.392713	0.259711
615.601412	0.259621
615.810092	0.260102
616.018754	0.260269
616.227399	0.260088
616.436024	0.259523
616.644632	0.260424
616.853222	0.260728
617.061793	0.260161
617.270346	0.260660
617.478880	0.260749
617.687397	0.261825
617.895895	0.262138
618.104375	0.263176
618.312837	0.263884
618.521281	0.264205
618.729706	0.264574
618.938113	0.265526
619.146502	0.265437
619.354873	0.265618
619.563226	0.265467
619.771560	0.265721
619.979876	0.265150
620.188174	0.265005
620.396453	0.264951
620.604715	0.264377
620.812958	0.264330
621.021183	0.265060
621.229390	0.265256
621.437578	0.265366
621.645748	0.265046
621.853900	0.265255
622.062034	0.265327
622.270150	0.265581
622.478247	0.266360
622.686326	0.266862
622.894387	0.267056
623.102430	0.267050
623.310454	0.266883
623.518461	0.267428
623.726449	0.268112
623.934418	0.268818
624.142370	0.269510
624.350303	0.269865
624.558218	0.269831
624.766115	0.270105
624.973994	0.270486
625.181855	0.270724
625.389697	0.271094
625.597521	0.270908
625.805327	0.271024
626.013114	0.270166
626.220883	0.270534
626.428634	0.270669
626.636367	0.271166
626.844082	0.271568
627.051778	0.272161
627.259457	0.271736
627.467117	0.271778
627.674758	0.272645
627.882382	0.273080
628.089987	0.272920
628.297574	0.273195
628.505143	0.272646
628.712694	0.272884
628.920226	0.272989
629.127740	0.273546
629.335236	0.273738
629.542714	0.272808
629.750174	0.273786
629.957615	0.274076
630.165038	0.274015
630.372443	0.274182
630.579829	0.274434
630.787198	0.274737
630.994548	0.274480
631.201880	0.275004
631.409194	0.275335
631.616489	0.275308
631.823766	0.275230
632.031025	0.275318
632.238266	0.275447
632.445489	0.274886
632.652693	0.274594
632.859879	0.275001
633.067047	0.275492
633.274197	0.275897
633.481329	0.275800
633.688442	0.276088
633.895537	0.276444
634.102614	0.277215
634.309672	0.277501
634.516713	0.278350
634.723735	0.278705
634.930739	0.278398
635.137724	0.278286
635.344692	0.279019
635.551641	0.279519
635.758572	0.280283
635.965485	0.280156
636.172379	0.280727
636.379256	0.280446
636.586114	0.280586
636.792954	0.281055
636.999775	0.281640
637.206579	0.281333
637.413364	0.281538
637.620131	0.281395
637.826880	0.281657
638.033610	0.281289
638.240323	0.281455
638.447017	0.281577
638.653692	0.281855
638.860350	0.282495
639.066990	0.282821
639.273611	0.283023
639.480214	0.283199
639.686798	0.283050
639.893365	0.283832
640.099913	0.283630
640.306443	0.283617
640.512955	0.283820
640.719449	0.283353
640.925924	0.283529
641.132381	0.283465
641.338820	0.284099
641.545241	0.284612
641.751644	0.284874
641.958028	0.285150
642.164394	0.285349
642.370742	0.284800
642.577071	0.284927
642.783383	0.285430
642.989676	0.286518
643.195951	0.286375
643.402207	0.286551
643.608446	0.286843
643.814666	0.287480
644.020868	0.288239
644.227052	0.288905
644.433218	0.289262
644.639365	0.289356
644.845494	0.288884
645.051605	0.289094
645.257698	0.289103
645.463772	0.289153
645.669828	0.289254
645.875866	0.288838
646.081886	0.289137
646.287888	0.289639
646.493871	0.289805
646.699836	0.290017
646.905783	0.290381
647.111712	0.290644
647.317622	0.290809
647.523514	0.291577
647.729388	0.292084
647.935244	0.292508
648.141082	0.292513
648.346901	0.292599
648.552702	0.293178
648.758485	0.293588
648.964250	0.293963
649.169996	0.294727
649.375724	0.294792
649.581434	0.295218
649.787126	0.295360
649.992800	0.295407
650.198455	0.296042
650.404092	0.295881
650.609711	0.295679
650.815311	0.296198
651.020894	0.296193
651.226458	0.296574
651.432004	0.296502
651.637532	0.296601
651.843041	0.297461
652.048532	0.296819
652.254006	0.297154
652.459460	0.297412
652.664897	0.297315
652.870315	0.297694
653.075716	0.298132
653.281097	0.298126
653.486461	0.299167
653.691807	0.299513
653.897134	0.300500
654.102443	0.300506
654.307734	0.300892
654.513006	0.301685
654.718261	0.300890
654.923497	0.300734
655.128715	0.300954
655.333915	0.300023
655.539096	0.299652
655.744259	0.299651
655.949404	0.300582
656.154531	0.300876
656.359640	0.301263
656.564730	0.301816
656.769802	0.301964
656.974856	0.302260
657.179892	0.303180
657.384909	0.303762
657.589908	0.304080
657.794889	0.303900
657.999852	0.303451
658.204797	0.302969
658.409723	0.303578
658.614631	0.304076
658.819521	0.304515
659.024393	0.304585
659.229246	0.304999
659.434081	0.305409
659.638898	0.305453
659.843697	0.306221
660.048478	0.306706
660.253240	0.306524
660.457984	0.306277
660.662710	0.306984
660.867417	0.307005
661.072107	0.306886
661.276778	0.307014
661.481431	0.307862
661.686066	0.307741
661.890682	0.307893
662.095281	0.307961
662.299861	0.308391
662.504422	0.308582
662.708966	0.309276
662.913491	0.309917
663.117999	0.309856
663.322488	0.309699
663.526958	0.309814
663.731411	0.309918
663.935845	0.310981
664.140261	0.311527
664.344659	0.311977
664.549038	0.311709
664.753400	0.311763
664.957743	0.311985
665.162068	0.312207
665.366375	0.312977
665.570663	0.313429
665.774933	0.313983
665.979185	0.313907
666.183419	0.313563
666.387635	0.313931
666.591832	0.313975
666.796011	0.314619
667.000172	0.315276
667.204315	0.315558
667.408439	0.315918
667.612545	0.315675
667.816634	0.315669
668.020703	0.316345
668.224755	0.316864
668.428788	0.317565
668.632803	0.317855
668.836800	0.318458
669.040779	0.318807
669.244739	0.319232
669.448681	0.319260
669.652605	0.319806
669.856511	0.320298
670.060399	0.320183
670.264268	0.320354
670.468119	0.320651
670.671952	0.320650
670.875767	0.320339
671.079563	0.320116
671.283341	0.320196
671.487101	0.320552
671.690843	0.320635
671.894567	0.321449
672.098272	0.321679
672.301959	0.321828
672.505628	0.321977
672.709278	0.322382
672.912911	0.322856
673.116525	0.323348
673.320121	0.323594
673.523699	0.323421
673.727258	0.323161
673.930799	0.323416
674.134322	0.323623
674.337827	0.323428
674.541314	0.323987
674.744782	0.324320
674.948232	0.324661
675.151664	0.324419
675.355078	0.324760
675.558474	0.324887
675.761851	0.324854
675.965210	0.325615
676.168551	0.325978
676.371873	0.326281
676.575178	0.326585
676.778464	0.326343
676.981732	0.326724
677.184981	0.327601
677.388213	0.328339
677.591426	0.328473
677.794621	0.328140
677.997798	0.328622
678.200956	0.328148
678.404097	0.328374
678.607219	0.329232
678.810323	0.329848
679.013408	0.329133
679.216476	0.329425
679.419525	0.329663
679.622556	0.329848
679.825569	0.329761
680.028563	0.330481
680.231540	0.330941
680.434498	0.330909
680.637438	0.331634
680.840359	0.332068
681.043263	0.331637
681.246148	0.331766
681.449015	0.332011
681.651864	0.332181
681.854694	0.332499
682.057506	0.332756
682.260301	0.333099
682.463076	0.332819
682.665834	0.333298
682.868573	0.334028
683.071295	0.334545
683.273998	0.334908
683.476682	0.335167
683.679349	0.335763
683.881997	0.335978
684.084627	0.336598
684.287239	0.336514
684.489833	0.337524
684.692408	0.337578
684.894965	0.337739
685.097504	0.338210
685.300025	0.339190
685.502527	0.339429
685.705012	0.339448
685.907478	0.339453
686.109925	0.339877
686.312355	0.339446
686.514766	0.339708
686.717159	0.340027
686.919534	0.340345
687.121891	0.340516
687.324230	0.340726
687.526550	0.340807
687.728852	0.341516
687.931136	0.342237
688.133401	0.342184
688.335649	0.342530
688.537878	0.342445
688.740089	0.343008
688.942281	0.342546
689.144456	0.342793
689.346612	0.342806
689.548750	0.342290
689.750870	0.342309
689.952971	0.342687
690.155055	0.343347
690.357120	0.343778
690.559167	0.343095
690.761195	0.343663
690.963206	0.344187
691.165198	0.345024
691.367172	0.345172
691.569128	0.345286
691.771065	0.345648
691.972984	0.345668
692.174885	0.346185
692.376768	0.346725
692.578633	0.346645
692.780479	0.346161
692.982308	0.346219
693.184118	0.347051
693.385909	0.347301
693.587683	0.347373
693.789438	0.347244
693.991175	0.346809
694.192894	0.346582
694.394595	0.346890
694.596277	0.347082
694.797941	0.347102
694.999587	0.347269
695.201215	0.347330
695.402824	0.347541
695.604416	0.347986
695.805989	0.348721
696.007543	0.349197
696.209080	0.349640
696.410598	0.350179
696.612099	0.350096
696.813580	0.349902
697.015044	0.350479
697.216490	0.350929
697.417917	0.351070
697.619326	0.350944
697.820717	0.351205
698.022089	0.350549
698.223444	0.350565
698.424780	0.350759
698.626098	0.350868
698.827397	0.350728
699.028679	0.350427
699.229942	0.350929
699.431187	0.351498
699.632414	0.351830
699.833622	0.352667
700.034813	0.352957
700.235985	0.353139
700.437139	0.353305
700.638274	0.352957
700.839392	0.353187
701.040491	0.352751
701.241572	0.352750
701.442635	0.352416
701.643679	0.352565
701.844706	0.352167
702.045714	0.352733
702.246704	0.352498
702.447675	0.352609
702.648629	0.352318
702.849564	0.352044
703.050481	0.352247
703.251380	0.352405
703.452260	0.352027
703.653122	0.351374
703.853966	0.350902
704.054792	0.351074
704.255600	0.351315
704.456389	0.351507
704.657160	0.351253
704.857913	0.350840
705.058648	0.351115
705.259365	0.351257
705.460063	0.351909
705.660743	0.352196
705.861405	0.352481
706.062048	0.352518
706.262674	0.352989
706.463281	0.353355
706.663870	0.353389
706.864441	0.353858
707.064993	0.353872
707.265527	0.353662
707.466043	0.353730
707.666541	0.353812
707.867021	0.353690
708.067482	0.353264
708.267925	0.352882
708.468350	0.352663
708.668757	0.351777
708.869145	0.351620
709.069516	0.352015
709.269868	0.351459
709.470201	0.350727
709.670517	0.350891
709.870814	0.351258
710.071093	0.351636
710.271354	0.351748
710.471597	0.351995
710.671821	0.351694
710.872028	0.351241
711.072216	0.351153
711.272385	0.351367
711.472537	0.350809
711.672670	0.350582
711.872785	0.350997
712.072882	0.350823
712.272961	0.350400
712.473021	0.350518
712.673063	0.350868
712.873087	0.350576
713.073093	0.350687
713.273081	0.351359
713.473050	0.351106
713.673001	0.350409
713.872934	0.350941
714.072849	0.351232
714.272745	0.351271
714.472623	0.351205
714.672483	0.350878
714.872325	0.350883
715.072148	0.350763
715.271954	0.350407
715.471741	0.350379
715.671509	0.350417
715.871260	0.350309
716.070992	0.350119
716.270707	0.350020
716.470403	0.350647
716.670080	0.350826
716.869740	0.350453
717.069381	0.350664
717.269004	0.350737
717.468609	0.350204
717.668195	0.350694
717.867764	0.350754
718.067314	0.350637
718.266846	0.350940
718.466360	0.350666
718.665855	0.350466
718.865332	0.350776
719.064791	0.350771
719.264232	0.350316
719.463655	0.349448
719.663059	0.349618
719.862445	0.349390
720.061813	0.349437
720.261163	0.349112
720.460494	0.349093
720.659807	0.348431
720.859102	0.348882
721.058379	0.349314
721.257638	0.349373
721.456878	0.348914
721.656100	0.349045
721.855304	0.348365
722.054490	0.347955
722.253657	0.347369
722.452806	0.347196
722.651937	0.346541
722.851050	0.345908
723.050145	0.345790
723.249221	0.345816
723.448279	0.345650
723.647319	0.345173
723.846340	0.345347
724.045344	0.345124
724.244329	0.345005
724.443296	0.344206
724.642245	0.344375
724.841175	0.343989
725.040088	0.344260
725.238982	0.344204
725.437857	0.344669
725.636715	0.344310
725.835554	0.344903
726.034376	0.345279
726.233179	0.345458
726.431963	0.345786
726.630730	0.345546
726.829478	0.345112
727.028208	0.344895
727.226920	0.344446
727.425614	0.344521
727.624289	0.344145
727.822946	0.343572
728.021585	0.344085
728.220206	0.343420
728.418808	0.343859
728.617392	0.343495
728.815958	0.342767
729.014506	0.342565
729.213036	0.342153
729.411547	0.341401
729.610040	0.340884
729.808515	0.339825
730.006972	0.339517
730.205410	0.338562
730.403831	0.338533
730.602233	0.339255
730.800616	0.339139
730.998982	0.338931
731.197329	0.339264
731.395658	0.339366
731.593969	0.339236
731.792262	0.339107
731.990536	0.339148
732.188793	0.338714
732.387031	0.337812
732.585250	0.337480
732.783452	0.337231
732.981635	0.337038
733.179800	0.336810
733.377947	0.336868
733.576076	0.336639
733.774186	0.336519
733.972278	0.336862
734.170352	0.336848
734.368408	0.336407
734.566446	0.336555
734.764465	0.336012
734.962466	0.336016
735.160449	0.335868
735.358413	0.335144
735.556360	0.334621
735.754288	0.334043
735.952198	0.333350
736.150090	0.333594
736.347963	0.333476
736.545818	0.333494
736.743655	0.333187
736.941474	0.333155
737.139275	0.333451
737.337057	0.333440
737.534821	0.332951
737.732567	0.333657
737.930295	0.332821
738.128005	0.332489
738.325696	0.332247
738.523369	0.332095
738.721024	0.331774
738.918660	0.331683
739.116279	0.331723
739.313879	0.331443
739.511461	0.330905
739.709024	0.331613
739.906570	0.331349
740.104097	0.331113
740.301606	0.330712
740.499097	0.330353
740.696569	0.329431
740.894024	0.329496
741.091460	0.328777
741.288878	0.327989
741.486277	0.326792
741.683659	0.326701
741.881022	0.326725
742.078367	0.326624
742.275694	0.326034
742.473002	0.326049
742.670293	0.325681
742.867565	0.326612
743.064819	0.327037
743.262054	0.327273
743.459272	0.326763
743.656471	0.326395
743.853652	0.325777
744.050815	0.326284
744.247959	0.326141
744.445085	0.325915
744.642194	0.325226
744.839283	0.324478
745.036355	0.324838
745.233408	0.324454
745.430444	0.323946
745.627461	0.324382
745.824459	0.324058
746.021440	0.324302
746.218402	0.323721
746.415346	0.323368
746.612272	0.323219
746.809180	0.322593
747.006069	0.322309
747.202940	0.322253
747.399793	0.321514
747.596628	0.320996
747.793444	0.320613
747.990243	0.320601
748.187023	0.320060
748.383784	0.319695
748.580528	0.319292
748.777253	0.319493
748.973960	0.319694
749.170649	0.319453
749.367320	0.319348
749.563973	0.318954
749.760607	0.318531
749.957223	0.318687
750.153821	0.318752
750.350400	0.318527
750.546962	0.318263
750.743505	0.317713
750.940030	0.318163
751.136536	0.318528
751.333025	0.317912
751.529495	0.317911
751.725947	0.317381
751.922381	0.317470
752.118796	0.317729
752.315194	0.317430
752.511573	0.317474
752.707934	0.316378
752.904276	0.315602
753.100601	0.315641
753.296907	0.315100
753.493195	0.314641
753.689465	0.314341
753.885716	0.313648
754.081949	0.312821
754.278164	0.311776
754.474361	0.312288
754.670540	0.312005
754.866700	0.311655
755.062843	0.311216
755.258967	0.311438
755.455072	0.310911
755.651160	0.310470
755.847229	0.310787
756.043280	0.311113
756.239313	0.310371
756.435328	0.310520
756.631324	0.310371
756.827302	0.310685
757.023262	0.310568
757.219204	0.309824
757.415127	0.310004
757.611033	0.309956
757.806920	0.309813
758.002788	0.309434
758.198639	0.308447
758.394471	0.308708
758.590286	0.309101
758.786081	0.308816
758.981859	0.309546
759.177619	0.309149
759.373360	0.309008
759.569083	0.308708
759.764788	0.309273
759.960474	0.309692
760.156143	0.309268
760.351793	0.308797
760.547425	0.308444
760.743038	0.307782
760.938634	0.308063
761.134211	0.308056
761.329770	0.307951
761.525311	0.307520
761.720833	0.307131
761.916338	0.307180
762.111824	0.306819
762.307292	0.306664
762.502741	0.306868
762.698173	0.307028
762.893586	0.306239
763.088981	0.306546
763.284358	0.306565
763.479716	0.306102
763.675057	0.305441
763.870379	0.305246
764.065683	0.305480
764.260968	0.305088
764.456236	0.304523
764.651485	0.304513
764.846716	0.303072
765.041929	0.303046
765.237123	0.303566
765.432299	0.303675
765.627457	0.302912
765.822597	0.302517
766.017719	0.302416
766.212822	0.302449
766.407907	0.302444
766.602974	0.303183
766.798023	0.302482
766.993054	0.302235
767.188066	0.301797
767.383060	0.301891
767.578036	0.301907
767.772993	0.301566
767.967933	0.300893
768.162854	0.300475
768.357757	0.300213
768.552642	0.300304
768.747508	0.299543
768.942356	0.299594
769.137186	0.299855
769.331998	0.299740
769.526792	0.299394
769.721567	0.299363
769.916324	0.299474
770.111063	0.298983
770.305784	0.298695
770.500486	0.299054
770.695171	0.299260
770.889837	0.299728
771.084484	0.300242
771.279114	0.300442
771.473725	0.300356
771.668318	0.300532
771.862893	0.300866
772.057450	0.301131
772.251988	0.300691
772.446509	0.300625
772.641011	0.299793
772.835494	0.298946
773.029960	0.299384
773.224407	0.299249
773.418836	0.298819
773.613247	0.298629
773.807640	0.297772
774.002014	0.298017
774.196370	0.297860
774.390708	0.298368
774.585028	0.298304
774.779330	0.297755
774.973613	0.297916
775.167878	0.298104
775.362125	0.298420
775.556354	0.299133
775.750564	0.299307
775.944756	0.299088
776.138930	0.298824
776.333086	0.299508
776.527223	0.299626
776.721343	0.299597
776.915444	0.299314
777.109526	0.299549
777.303591	0.299442
777.497637	0.299311
777.691666	0.299506
777.885676	0.298367
778.079667	0.297988
778.273641	0.298263
778.467596	0.297838
778.661533	0.297802
778.855452	0.297636
779.049352	0.297690
779.243235	0.297579
779.437099	0.297276
779.630945	0.297798
779.824773	0.297651
780.018582	0.297267
780.212373	0.297246
780.406146	0.297397
780.599901	0.296798
780.793638	0.296703
780.987356	0.296757
781.181056	0.296630
781.374738	0.297316
781.568402	0.297300
781.762047	0.297077
781.955674	0.296948
782.149283	0.296498
782.342874	0.296925
782.536447	0.297026
782.730001	0.297312
782.923537	0.297479
783.117055	0.296907
783.310555	0.296750
783.504036	0.297291
783.697499	0.297278
783.890944	0.298469
784.084371	0.298597
784.277780	0.298300
784.471170	0.298239
784.664542	0.298814
784.857896	0.298907
785.051231	0.298980
785.244549	0.298615
785.437848	0.299358
785.631129	0.298637
785.824392	0.298416
786.017636	0.298593
786.210863	0.298394
786.404071	0.297669
786.597260	0.298026
786.790432	0.298334
786.983585	0.298849
787.176721	0.298905
787.369838	0.298593
787.562936	0.298596
787.756017	0.298809
787.949079	0.299174
788.142123	0.299767
788.335149	0.299234
788.528156	0.299347
788.721146	0.299231
788.914117	0.299418
789.107070	0.299669
789.300005	0.299783
789.492921	0.298827
789.685819	0.298621
789.878699	0.298305
790.071561	0.299210
790.264405	0.299243
790.457230	0.298837
790.650037	0.298585
790.842826	0.298718
791.035597	0.299174
791.228349	0.300337
791.421084	0.300778
791.613800	0.300620
791.806497	0.300736
791.999177	0.300405
792.191838	0.300494
792.384481	0.301008
792.577106	0.301437
792.769713	0.301543
792.962301	0.301232
793.154871	0.301215
793.347423	0.302085
793.539957	0.301479
793.732473	0.301723
793.924970	0.302779
794.117449	0.302828
794.309910	0.303135
794.502353	0.303100
794.694777	0.303180
794.887183	0.302793
795.079571	0.302230
795.271941	0.302466
795.464293	0.302614
795.656626	0.302136
795.848941	0.301769
796.041238	0.301893
796.233516	0.301794
796.425777	0.302092
796.618019	0.302977
796.810243	0.303620
797.002449	0.303785
797.194636	0.303998
797.386805	0.304183
797.578956	0.304047
797.771089	0.304168
797.963204	0.304173
798.155300	0.304584
798.347378	0.304029
798.539438	0.303911
798.731480	0.304519
798.923503	0.304803
799.115509	0.304692
799.307496	0.304594
799.499465	0.304779
799.691415	0.305924
799.883348	0.306048
800.075262	0.306299
800.267158	0.306330
800.459035	0.306495
800.650895	0.306465
800.842736	0.307339
801.034559	0.308143
801.226364	0.308107
801.418150	0.307249
801.609919	0.306950
801.801669	0.307408
801.993401	0.307161
802.185114	0.306341
802.376810	0.306472
802.568487	0.305774
802.760146	0.306185
802.951787	0.306565
803.143409	0.306903
803.335014	0.307507
803.526600	0.307542
803.718168	0.308401
803.909717	0.309174
804.101249	0.309219
804.292762	0.309978
804.484257	0.310224
804.675734	0.309814
804.867192	0.309895
805.058632	0.309457
805.250054	0.309079
805.441458	0.309122
805.632844	0.309369
805.824211	0.309920
806.015561	0.310505
806.206891	0.310152
806.398204	0.311153
806.589499	0.311483
806.780775	0.312257
806.972033	0.313096
807.163273	0.313519
807.354495	0.313418
807.545698	0.312770
807.736883	0.313031
807.928050	0.313940
808.119199	0.314234
808.310329	0.314356
808.501441	0.314223
808.692535	0.314570
808.883611	0.314964
809.074669	0.315208
809.265708	0.315876
809.456729	0.315924
809.647732	0.315862
809.838717	0.315676
810.029683	0.316587
810.220632	0.317059
810.411562	0.317482
810.602474	0.317283
810.793367	0.317955
810.984242	0.318542
811.175100	0.318744
811.365938	0.318582
811.556759	0.318926
811.747562	0.318479
811.938346	0.319116
812.129112	0.319088
812.319860	0.319761
812.510589	0.319862
812.701300	0.320621
812.891994	0.320805
813.082668	0.321653
813.273325	0.321964
813.463964	0.322792
813.654584	0.322692
813.845186	0.323019
814.035769	0.322115
814.226335	0.322261
814.416882	0.321795
814.607411	0.321777
814.797922	0.321400
814.988415	0.321472
815.178889	0.321893
815.369345	0.322331
815.559783	0.322556
815.750203	0.323936
815.940605	0.324381
816.130988	0.324886
816.321353	0.325288
816.511700	0.326272
816.702028	0.326368
816.892339	0.326165
817.082631	0.326000
817.272905	0.325818
817.463161	0.326136
817.653398	0.326073
817.843617	0.326763
818.033819	0.327493
818.224001	0.327875
818.414166	0.328031
818.604312	0.328441
818.794440	0.329223
818.984550	0.330973
819.174642	0.331460
819.364716	0.331893
819.554771	0.332039
819.744808	0.331929
819.934827	0.332566
820.124827	0.332776
820.314810	0.332865
820.504774	0.333675
820.694720	0.333050
820.884647	0.333375
821.074557	0.334344
821.264448	0.334285
821.454321	0.334111
821.644176	0.333835
821.834012	0.334361
822.023831	0.334507
822.213631	0.334306
822.403413	0.334722
822.593176	0.335082
822.782922	0.335282
822.972649	0.335932
823.162358	0.336754
823.352049	0.337414
823.541721	0.337810
823.731376	0.339316
823.921012	0.339893
824.110629	0.340288
824.300229	0.339902
824.489811	0.340163
824.679374	0.340849
824.868919	0.341272
825.058445	0.341651
825.247954	0.342481
825.437444	0.342360
825.626916	0.342922
825.816370	0.343769
826.005806	0.344813
826.195223	0.344960
826.384622	0.345179
826.574003	0.345990
826.763366	0.345266
826.952711	0.345932
827.142037	0.345741
827.331345	0.345878
827.520635	0.345420
827.709906	0.346141
827.899160	0.346524
828.088395	0.347010
828.277612	0.346601
828.466810	0.348128
828.655991	0.347362
828.845153	0.347661
829.034297	0.348441
829.223423	0.349523
829.412531	0.349284
829.601620	0.349690
829.790691	0.349891
829.979744	0.350797
830.168779	0.351190
830.357795	0.352685
830.546793	0.353145
830.735773	0.353578
830.924735	0.353772
831.113679	0.354860
831.302604	0.355003
831.491511	0.355530
831.680400	0.355976
831.869271	0.355846
832.058123	0.355710
832.246957	0.355658
832.435773	0.355937
832.624571	0.356021
832.813351	0.355844
833.002112	0.356880
833.190855	0.357207
833.379580	0.357146
833.568287	0.357502
833.756975	0.358191
833.945645	0.359712
834.134297	0.359710
834.322931	0.360622
834.511547	0.360800
834.700144	0.360835
834.888723	0.361276
835.077284	0.362001
835.265826	0.362823
835.454351	0.364283
835.642857	0.364145
835.831345	0.365069
836.019815	0.364600
836.208266	0.365767
836.396699	0.366796
836.585114	0.367126
836.773511	0.367631
836.961890	0.368666
837.150250	0.367649
837.338592	0.368395
837.526916	0.369144
837.715222	0.370783
837.903510	0.370612
838.091779	0.371087
838.280030	0.372109
838.468263	0.372674
838.656477	0.371489
838.844674	0.372922
839.032852	0.373457
839.221012	0.373692
839.409153	0.372926
839.597277	0.374065
839.785382	0.374199
839.973469	0.374527
840.161538	0.374584
840.349589	0.375895
840.537621	0.375674
840.725635	0.376133
840.913631	0.376053
841.101609	0.377354
841.289568	0.377380
841.477509	0.377660
841.665432	0.377613
841.853337	0.377557
842.041224	0.377949
842.229092	0.378226
842.416942	0.379636
842.604774	0.380032
842.792588	0.379825
842.980383	0.380555
843.168160	0.380983
843.355919	0.381573
843.543660	0.382954
843.731382	0.383404
843.919087	0.383578
844.106773	0.382972
844.294441	0.383345
844.482090	0.384265
844.669722	0.384571
844.857335	0.384914
845.044930	0.386021
845.232507	0.386205
845.420065	0.386726
845.607605	0.388088
845.795127	0.388548
845.982631	0.389549
846.170117	0.390213
846.357584	0.390710
846.545033	0.391570
846.732464	0.391123
846.919877	0.391521
847.107272	0.392000
847.294648	0.392321
847.482006	0.392782
847.669346	0.392900
847.856667	0.392875
848.043971	0.392620
848.231256	0.392770
848.418523	0.394220
848.605771	0.395437
848.793002	0.396440
848.980214	0.396480
849.167408	0.396939
849.354584	0.397431
849.541742	0.397634
849.728881	0.398232
849.916002	0.399576
850.103105	0.399290
850.290190	0.398956
850.477256	0.398875
850.664304	0.400015
850.851334	0.400427
851.038346	0.400335
851.225340	0.400943
851.412315	0.402400
851.599272	0.402062
851.786211	0.402654
851.973132	0.403708
852.160034	0.403799
852.346918	0.403685
852.533784	0.403206
852.720632	0.403262
852.907462	0.403447
853.094273	0.403692
853.281066	0.403875
853.467841	0.403512
853.654598	0.404163
853.841336	0.405359
854.028056	0.406157
854.214758	0.407279
854.401442	0.408509
854.588107	0.409979
854.774755	0.410533
854.961384	0.410963
855.147995	0.411869
855.334587	0.412486
855.521162	0.412147
855.707718	0.411991
855.894256	0.412446
856.080775	0.412650
856.267277	0.412153
856.453760	0.412710
856.640225	0.413160
856.826672	0.414315
857.013101	0.414440
857.199511	0.415424
857.385903	0.415925
857.572277	0.416959
857.758633	0.417284
857.944970	0.418661
858.131290	0.417669
858.317591	0.418754
858.503873	0.417588
858.690138	0.417809
858.876384	0.418941
859.062612	0.419924
859.248822	0.420768
859.435014	0.421145
859.621188	0.420969
859.807343	0.422610
859.993480	0.422151
860.179599	0.424434
860.365699	0.423781
860.551781	0.423643
860.737846	0.423431
860.923891	0.424051
861.109919	0.424825
861.295929	0.426142
861.481920	0.426465
861.667893	0.427422
861.853848	0.425844
862.039784	0.426900
862.225702	0.426410
862.411603	0.427574
862.597484	0.427233
862.783348	0.426990
862.969193	0.426378
863.155021	0.425299
863.340830	0.425771
863.526620	0.426776
863.712393	0.427195
863.898147	0.427838
864.083883	0.427495
864.269601	0.428098
864.455301	0.428936
864.640982	0.429463
864.826645	0.431591
865.012290	0.432093
865.197917	0.432464
865.383526	0.433007
865.569116	0.433965
865.754688	0.434679
865.940242	0.433887
866.125777	0.434279
866.311295	0.435120
866.496794	0.435161
866.682275	0.436295
866.867737	0.437364
867.053182	0.436621
867.238608	0.437533
867.424016	0.437146
867.609406	0.438038
867.794778	0.439355
867.980131	0.438731
868.165466	0.439058
868.350783	0.438539
868.536082	0.438148
868.721362	0.438625
868.906625	0.437403
869.091869	0.438295
869.277094	0.437719
869.462302	0.437293
869.647491	0.437734
869.832662	0.437038
870.017815	0.437848
870.202950	0.438317
870.388066	0.438830
870.573165	0.439732
870.758245	0.439903
870.943306	0.441461
871.128350	0.441200
871.313375	0.443053
871.498382	0.444769
871.683371	0.444356
871.868342	0.445222
872.053294	0.446145
872.238229	0.445967
872.423144	0.446501
872.608042	0.445666
872.792922	0.446782
872.977783	0.446209
873.162626	0.445308
873.347451	0.445709
873.532258	0.445569
873.717046	0.445437
873.901816	0.446556
874.086568	0.445645
874.271302	0.447553
874.456017	0.447083
874.640715	0.446677
874.825394	0.447290
875.010055	0.447416
875.194697	0.447827
875.379322	0.449808
875.563928	0.449240
875.748516	0.451392
875.933085	0.450204
876.117637	0.450917
876.302170	0.451091
876.486685	0.451721
876.671182	0.452271
876.855661	0.451807
877.040121	0.449800
877.224563	0.449973
877.408987	0.449076
877.593393	0.449911
877.777780	0.449567
877.962150	0.449617
878.146501	0.449115
878.330833	0.449283
878.515148	0.451025
878.699444	0.451010
878.883722	0.451789
879.067982	0.452042
879.252224	0.452100
879.436447	0.452472
879.620653	0.453321
879.804840	0.453688
879.989008	0.453333
880.173159	0.453056
880.357291	0.453470
880.541405	0.452355
880.725501	0.451847
880.909579	0.450597
881.093638	0.451423
881.277680	0.450606
881.461703	0.452252
881.645707	0.451659
881.829694	0.450517
882.013662	0.449867
882.197612	0.450529
882.381544	0.451225
882.565458	0.453347
882.749353	0.451944
882.933230	0.453424
883.117089	0.452570
883.300930	0.452795
883.484753	0.453114
883.668557	0.455145
883.852343	0.455729
884.036111	0.456459
884.219861	0.456015
884.403592	0.457155
884.587305	0.455462
884.771000	0.454707
884.954677	0.455267
885.138335	0.455445
885.321976	0.454270
885.505598	0.454468
885.689201	0.453625
885.872787	0.453528
886.056354	0.453437
886.239904	0.454915
886.423434	0.455604
886.606947	0.456279
886.790442	0.456073
886.973918	0.457483
887.157376	0.457488
887.340816	0.457640
887.524237	0.457315
887.707641	0.458292
887.891026	0.455955
888.074393	0.455256
888.257741	0.454834
888.441072	0.456233
888.624384	0.455260
888.807678	0.453611
888.990954	0.453459
889.174211	0.454053
889.357451	0.453552
889.540672	0.456067
889.723875	0.454397
889.907059	0.453826
890.090226	0.453195
890.273374	0.453520
890.456504	0.455580
890.639616	0.455094
890.822709	0.454513
891.005785	0.454077
891.188842	0.452554
891.371881	0.454675
891.554901	0.455907
891.737904	0.454937
891.920888	0.454929
892.103854	0.453719
892.286802	0.453831
892.469731	0.452924
892.652643	0.452550
892.835536	0.452284
893.018410	0.451418
893.201267	0.450042
893.384106	0.451373
893.566926	0.450823
893.749728	0.450762
893.932511	0.450627
894.115277	0.451225
894.298024	0.451457
894.480753	0.452563
894.663464	0.452057
894.846157	0.452587
895.028831	0.451196
895.211487	0.451939
895.394125	0.450973
895.576745	0.451590
895.759346	0.452021
895.941930	0.452243
896.124495	0.451964
896.307041	0.452609
896.489570	0.451531
896.672080	0.451351
896.854573	0.450256
897.037046	0.450259
897.219502	0.449757
897.401940	0.449579
897.584359	0.449806
897.766760	0.448313
897.949143	0.447644
898.131507	0.447619
898.313854	0.448384
898.496182	0.447476
898.678492	0.449309
898.860783	0.450281
899.043057	0.450166
899.225312	0.449148
899.407549	0.450184
899.589768	0.450046
899.771968	0.450208
899.954151	0.449216
900.136315	0.450172
900.318461	0.448843
900.500588	0.447769
900.682698	0.446515
900.864789	0.446413
901.046862	0.445900
901.228917	0.445827
901.410953	0.445500
901.592971	0.444560
901.774972	0.443718
901.956953	0.441839
902.138917	0.441435
902.320862	0.441106
902.502790	0.440585
902.684699	0.439389
902.866589	0.438643
903.048462	0.438062
903.230316	0.437540
903.412152	0.439502
903.593970	0.440933
903.775770	0.439837
903.957551	0.440067
904.139314	0.439566
904.321059	0.439895
904.502786	0.439841
904.684494	0.439631
904.866185	0.439633
905.047857	0.436725
905.229510	0.436858
905.411146	0.435852
905.592763	0.435816
905.774363	0.433596
905.955943	0.433050
906.137506	0.433184
906.319051	0.432360
906.500577	0.432813
906.682085	0.433608
906.863575	0.433063
907.045046	0.432847
907.226500	0.431570
907.407935	0.432607
907.589352	0.432416
907.770750	0.429646
907.952131	0.430724
908.133493	0.429405
908.314837	0.428158
908.496163	0.427052
908.677470	0.426545
908.858760	0.425728
909.040031	0.425045
909.221284	0.425506
909.402518	0.427058
909.583735	0.425697
909.764933	0.426267
909.946113	0.425683
910.127275	0.424190
910.308418	0.423264
910.489544	0.423832
910.670651	0.423886
910.851740	0.422607
911.032810	0.422186
911.213863	0.421451
911.394897	0.419673
911.575913	0.419648
911.756911	0.418680
911.937890	0.418600
912.118851	0.417689
912.299794	0.417010
912.480719	0.415026
912.661626	0.414728
912.842514	0.414958
913.023384	0.414873
913.204236	0.414359
913.385070	0.413655
913.565886	0.412759
913.746683	0.413462
913.927462	0.412935
914.108223	0.413531
914.288965	0.412649
914.469690	0.411870
914.650396	0.410624
914.831084	0.409035
915.011754	0.409916
915.192405	0.408751
915.373038	0.406499
915.553653	0.405559
915.734250	0.405013
915.914829	0.403773
916.095389	0.400391
916.275931	0.400386
916.456455	0.399934
916.636961	0.399061
916.817448	0.400592
916.997917	0.400194
917.178368	0.398695
917.358801	0.395672
917.539216	0.395229
917.719612	0.395716
917.899990	0.394512
918.080350	0.393510
918.260692	0.391932
918.441015	0.391059
918.621320	0.388019
918.801607	0.388208
918.981876	0.389035
919.162127	0.388022
919.342359	0.385775
919.522573	0.385468
919.702769	0.385518
919.882947	0.385007
920.063106	0.383595
920.243247	0.384023
920.423370	0.385024
920.603475	0.386324
920.783562	0.386913
920.963630	0.389872
921.143680	0.389242
921.323712	0.387552
921.503725	0.386113
921.683721	0.385044
921.863698	0.385481
922.043657	0.381439
922.223598	0.379178
922.403520	0.377475
922.583424	0.375832
922.763311	0.373471
922.943178	0.372729
923.123028	0.373820
923.302859	0.372639
923.482673	0.372282
923.662467	0.372453
923.842244	0.371885
924.022003	0.370283
924.201743	0.369452
924.381465	0.370011
924.561169	0.370368
924.740854	0.369182
924.920522	0.367700
925.100171	0.364748
925.279802	0.364699
925.459414	0.362663
925.639009	0.360310
925.818585	0.359359
925.998143	0.358671
926.177683	0.354151
926.357205	0.352294
926.536708	0.352664
926.716193	0.353709
926.895660	0.350878
927.075109	0.351701
927.254539	0.352396
927.433951	0.352378
927.613345	0.351107
927.792721	0.353693
927.972079	0.353603
928.151418	0.352401
928.330739	0.349501
928.510042	0.351924
928.689327	0.349823
928.868593	0.351131
929.047841	0.347985
929.227071	0.346792
929.406283	0.345728
929.585476	0.343489
929.764652	0.342917
929.943809	0.344040
930.122948	0.341818
930.302068	0.341610
930.481171	0.340461
930.660255	0.338263
930.839321	0.337272
931.018369	0.334345
931.197398	0.332825
931.376409	0.333575
931.555402	0.331593
931.734377	0.329422
931.913334	0.328055
932.092272	0.326109
932.271192	0.327629
932.450094	0.323060
932.628978	0.323154
932.807844	0.322471
932.986691	0.320142
933.165520	0.320928
933.344331	0.319997
933.523123	0.317043
933.701898	0.313809
933.880654	0.313562
934.059392	0.315472
934.238111	0.314773
934.416813	0.316043
934.595496	0.313705
934.774161	0.311290
934.952808	0.309642
935.131437	0.311011
935.310047	0.310603
935.488639	0.306785
935.667213	0.308255
935.845769	0.308997
936.024306	0.305409
936.202825	0.304002
936.381326	0.306645
936.559809	0.305903
936.738274	0.305094
936.916720	0.303720
937.095148	0.303813
937.273558	0.300282
937.451950	0.299671
937.630323	0.299938
937.808678	0.299211
937.987015	0.292864
938.165334	0.291347
938.343635	0.287305
938.521917	0.286615
938.700181	0.287987
938.878427	0.286976
939.056655	0.279959
939.234864	0.279790
939.413055	0.278918
939.591228	0.278650
939.769383	0.277183
939.947519	0.277416
940.125638	0.276726
940.303738	0.274118
940.481820	0.275070
940.659883	0.275165
940.837929	0.272505
941.015956	0.274051
941.193965	0.277746
941.371955	0.280356
941.549928	0.279204
941.727882	0.279202
941.905818	0.279052
942.083736	0.277008
942.261636	0.281460
942.439517	0.279524
942.617380	0.277411
942.795225	0.267767
942.973052	0.264517
943.150860	0.265210
943.328651	0.261670
943.506423	0.260056
943.684176	0.259992
943.861912	0.257956
944.039629	0.258964
944.217328	0.257795
944.395009	0.259335
944.572672	0.254811
944.750317	0.251919
944.927943	0.246468
945.105551	0.247077
945.283141	0.242379
945.460712	0.243205
945.638265	0.240016
945.815801	0.237323
945.993317	0.234606
946.170816	0.236946
946.348297	0.239554
946.525759	0.245724
946.703203	0.239563
946.880629	0.238761
947.058036	0.234122
947.235425	0.234293
947.412797	0.231771
947.590149	0.229631
947.767484	0.227954
947.944800	0.226265
948.122099	0.221857
948.299379	0.219047
948.476640	0.225577
948.653884	0.220038
948.831109	0.220064
949.008316	0.219890
949.185505	0.222661
949.362676	0.219308
949.539828	0.214668
949.716962	0.212231
949.894078	0.211380
950.071176	0.200518
950.248256	0.202728
950.425317	0.197950
950.602360	0.193704
950.779385	0.191923
950.956391	0.192015
951.133380	0.185962
951.310350	0.186791
951.487302	0.188462
951.664235	0.191812
951.841151	0.188847
952.018048	0.183304
952.194927	0.187589
952.371788	0.192721
952.548631	0.192381
952.725455	0.189928
952.902261	0.186837
953.079049	0.181638
953.255819	0.178261
953.432570	0.176486
953.609303	0.186256
953.786018	0.182279
953.962715	0.173574
954.139394	0.172398
954.316054	0.179854
954.492696	0.177959
954.669320	0.177291
954.845926	0.177234
955.022513	0.180114
955.199083	0.181034
955.375634	0.185473
955.552166	0.187305
955.728681	0.187556
955.905177	0.186206
956.081655	0.189370
956.258115	0.188991
956.434557	0.194031
956.610980	0.190239
956.787385	0.184306
956.963772	0.171920
957.140141	0.169936
957.316492	0.175295
957.492824	0.172845
957.669138	0.170923
957.845434	0.175213
958.021712	0.170625
958.197971	0.175475
958.374212	0.170511
958.550435	0.177344
958.726640	0.176055
958.902826	0.172301
959.078995	0.170435
959.255145	0.172002
959.431277	0.168371
959.607390	0.164801
959.783486	0.167453
959.959563	0.168519
960.135622	0.165171
960.311662	0.165580
960.487685	0.154793
960.663689	0.164399
960.839675	0.154682
961.015643	0.153968
961.191593	0.160698
961.367524	0.145359
961.543437	0.150429
961.719332	0.155755
961.895209	0.153809
962.071067	0.165456
962.246907	0.158985
962.422730	0.177847
962.598533	0.186175
962.774319	0.188376
962.950086	0.194142
963.125835	0.193726
963.301566	0.192235
963.477279	0.185887
963.652973	0.174643
963.828650	0.168756
964.004308	0.156287
964.179947	0.144864
964.355569	0.133845
964.531172	0.128730
964.706757	0.132082
964.882324	0.126363
965.057873	0.139216
965.233403	0.136879
965.408916	0.144440
965.584410	0.146685
965.759885	0.148669
965.935343	0.152197
966.110782	0.152999
966.286203	0.142015
966.461606	0.146093
966.636991	0.136557
966.812357	0.143252
966.987705	0.134620
967.163035	0.135707
967.338347	0.140008
967.513641	0.142307
967.688916	0.145723
967.864173	0.147856
968.039412	0.147953
968.214632	0.138198
968.389835	0.151629
968.565019	0.151933
968.740185	0.145158
968.915333	0.134481
969.090462	0.129552
969.265573	0.132655
969.440667	0.134708
969.615741	0.129754
969.790798	0.145821
969.965836	0.133749
970.140856	0.130686
970.315858	0.128018
970.490842	0.141853
970.665808	0.134101
970.840755	0.133280
971.015684	0.131061
971.190595	0.134334
971.365487	0.132114
971.540362	0.130434
971.715218	0.131208
971.890056	0.126415
972.064875	0.125304
972.239677	0.120573
972.414460	0.120901
972.589225	0.117461
972.763972	0.116805
972.938700	0.112427
973.113411	0.111018
973.288103	0.111756
973.462777	0.129351
973.637432	0.126113
973.812070	0.141752
973.986689	0.133458
974.161290	0.135092
974.335873	0.139771
974.510437	0.142835
974.684984	0.135875
974.859512	0.141599
975.034022	0.136013
975.208513	0.128253
975.382987	0.128897
975.557442	0.134623
975.731879	0.139937
975.906298	0.134177
976.080698	0.123489
976.255080	0.135863
976.429445	0.135659
976.603790	0.133366
976.778118	0.141771
976.952427	0.141783
977.126719	0.132548
977.300992	0.132679
977.475246	0.124396
977.649483	0.136944
977.823701	0.122076
977.997901	0.111243
978.172083	0.117395
978.346247	0.118960
978.520392	0.117182
978.694519	0.116601
978.868628	0.113688
979.042719	0.124519
979.216791	0.122741
979.390845	0.130594
979.564882	0.140692
979.738899	0.136734
979.912899	0.133819
980.086880	0.132173
980.260843	0.133542
980.434788	0.135050
980.608715	0.134918
980.782623	0.133898
980.956514	0.140088
981.130386	0.142262
981.304240	0.143099
981.478075	0.140491
981.651892	0.132752
981.825692	0.139207
981.999472	0.132631
982.173235	0.127827
982.346980	0.123878
982.520706	0.124252
982.694414	0.123757
982.868104	0.118224
983.041775	0.113815
983.215428	0.119678
983.389064	0.121395
983.562680	0.125390
983.736279	0.123867
983.909860	0.131222
984.083422	0.124180
984.256966	0.126372
984.430491	0.127275
984.603999	0.137139
984.777488	0.137754
984.950959	0.137416
985.124412	0.135932
985.297847	0.142469
985.471263	0.143368
985.644661	0.142671
985.818041	0.140053
985.991403	0.141645
986.164747	0.126855
986.338072	0.123875
986.511379	0.126002
986.684668	0.123836
986.857938	0.121180
987.031191	0.113877
987.204425	0.115817
987.377641	0.109119
987.550839	0.112162
987.724018	0.122685
987.897179	0.127051
988.070322	0.125874
988.243447	0.127707
988.416554	0.130948
988.589642	0.128338
988.762712	0.128870
988.935764	0.134262
989.108798	0.140509
989.281813	0.148998
989.454811	0.146014
989.627790	0.143478
989.800751	0.144647
989.973693	0.147906
990.146617	0.154719
990.319524	0.156600
990.492412	0.167451
990.665281	0.154841
990.838133	0.148944
991.010966	0.151237
991.183781	0.149990
991.356578	0.146499
991.529356	0.143994
991.702117	0.142589
991.874859	0.133535
992.047583	0.127351
992.220288	0.135565
992.392976	0.136963
992.565645	0.134719
992.738296	0.141665
992.910929	0.146068
993.083543	0.146235
993.256139	0.159505
993.428718	0.170577
993.601277	0.167882
993.773819	0.160004
993.946342	0.155821
994.118848	0.162604
994.291335	0.154242
994.463803	0.156338
994.636254	0.159656
994.808686	0.142371
994.981100	0.141782
995.153496	0.142112
995.325874	0.143037
995.498233	0.135664
995.670574	0.134626
995.842897	0.138564
996.015202	0.137864
996.187488	0.128585
996.359757	0.133902
996.532007	0.130596
996.704239	0.129831
996.876452	0.134854
997.048648	0.139580
997.220825	0.139694
997.392984	0.132750
997.565124	0.132861
997.737247	0.132095
997.909351	0.132186
998.081437	0.132057
998.253505	0.133170
998.425554	0.124078
998.597586	0.123588
998.769599	0.111332
998.941594	0.114978
999.113571	0.107293
999.285529	0.109749
999.457469	0.110804
999.629391	0.111312
999.801295	0.108569
999.973181	0.112204
1000.145048	0.113545
1000.316897	0.127185
1000.488728	0.132346
1000.660541	0.137275
1000.832335	0.138917
1001.004111	0.139513
1001.175869	0.136436
1001.347609	0.143605
1001.519331	0.142526
1001.691034	0.151097
1001.862719	0.145149
1002.034386	0.139227
1002.206035	0.141172
1002.377665	0.142741
1002.549277	0.147059
1002.720871	0.146614
1002.892447	0.135522
1003.064004	0.140652
1003.235544	0.133889
1003.407065	0.139039
1003.578568	0.137695
1003.750052	0.136594
1003.921519	0.137302
1004.092967	0.128158
1004.264397	0.127284
1004.435809	0.135219
1004.607202	0.131998
1004.778577	0.131078
1004.949934	0.126613
1005.121273	0.131442
1005.292594	0.128896
1005.463896	0.128352
1005.635180	0.125873
1005.806446	0.127785
1005.977694	0.127184
1006.148923	0.126335
1006.320135	0.127559
1006.491328	0.122164
1006.662503	0.124274
1006.833659	0.132189
1007.004798	0.137577
1007.175918	0.144160
1007.347020	0.142900
1007.518103	0.139802
1007.689169	0.139630
1007.860216	0.137832
1008.031245	0.140684
1008.202256	0.130284
1008.373248	0.125006
1008.544223	0.114269
1008.715179	0.113115
1008.886117	0.125040
1009.057036	0.131540
1009.227938	0.134988
1009.398821	0.129170
1009.569686	0.131565
1009.740533	0.140805
1009.911361	0.142663
1010.082172	0.146178
1010.252964	0.147771
1010.423738	0.139416
1010.594493	0.132060
1010.765231	0.134924
1010.935950	0.148359
1011.106651	0.148004
1011.277334	0.144814
1011.447998	0.143009
1011.618645	0.145724
1011.789273	0.151545
1011.959882	0.145465
1012.130474	0.143151
1012.301048	0.136482
1012.471603	0.131173
1012.642140	0.134930
1012.812658	0.139430
1012.983159	0.142247
1013.153641	0.134314
1013.324105	0.131818
1013.494551	0.133707
1013.664979	0.133528
1013.835388	0.134585
1014.005779	0.136221
1014.176152	0.138049
1014.346507	0.138054
1014.516843	0.134836
1014.687162	0.141228
1014.857462	0.137642
1015.027744	0.140974
1015.198007	0.148200
1015.368252	0.152647
1015.538480	0.151169
1015.708689	0.147761
1015.878879	0.142738
1016.049052	0.144432
1016.219206	0.138678
1016.389342	0.133159
1016.559460	0.131506
1016.729559	0.123245
1016.899641	0.122965
1017.069704	0.126052
1017.239749	0.118878
1017.409775	0.120566
1017.579784	0.124366
1017.749774	0.124767
1017.919746	0.129283
1018.089700	0.128941
1018.259635	0.136142
1018.429553	0.129049
1018.599452	0.124299
1018.769333	0.134388
1018.939195	0.136605
1019.109040	0.130505
1019.278866	0.134862
1019.448674	0.133995
1019.618464	0.132691
1019.788235	0.130095
1019.957989	0.135278
1020.127724	0.135767
1020.297441	0.129867
1020.467139	0.130307
1020.636820	0.131147
1020.806482	0.128054
1020.976126	0.128074
1021.145752	0.131516
1021.315359	0.127999
1021.484948	0.128133
1021.654519	0.123194
1021.824072	0.120532
1021.993607	0.116920
1022.163123	0.118662
1022.332621	0.120730
1022.502101	0.125140
1022.671563	0.122547
1022.841007	0.123350
1023.010432	0.117678
1023.179839	0.120844
1023.349228	0.125182
1023.518598	0.125642
1023.687951	0.125670
1023.857285	0.117780
1024.026601	0.111774
1024.195899	0.114067
1024.365178	0.114144
1024.534439	0.119693
1024.703682	0.121385
1024.872907	0.121389
1025.042114	0.127890
1025.211302	0.125742
1025.380472	0.132398
1025.549624	0.131978
1025.718758	0.132155
1025.887873	0.130790
1026.056970	0.129063
1026.226049	0.127565
1026.395110	0.122004
1026.564153	0.116148
1026.733177	0.118494
1026.902183	0.118003
1027.071171	0.118743
1027.240141	0.120086
1027.409092	0.122673
1027.578026	0.124354
1027.746940	0.122829
1027.915837	0.126750
1028.084716	0.123770
1028.253576	0.117742
1028.422418	0.116540
1028.591242	0.120076
1028.760048	0.116507
1028.928835	0.112799
1029.097604	0.105230
1029.266355	0.106543
1029.435088	0.110526
1029.603803	0.116084
1029.772499	0.119753
1029.941177	0.124165
1030.109837	0.114932
1030.278478	0.118692
1030.447102	0.129553
1030.615707	0.137717
1030.784294	0.137881
1030.952863	0.129120
1031.121413	0.124862
1031.289945	0.126343
1031.458460	0.129382
1031.626955	0.140379
1031.795433	0.140111
1031.963892	0.132138
1032.132334	0.125181
1032.300756	0.130104
1032.469161	0.137522
1032.637548	0.139252
1032.805916	0.141106
1032.974266	0.137540
1033.142598	0.134886
1033.310911	0.132361
1033.479207	0.133436
1033.647484	0.136979
1033.815743	0.137435
1033.983983	0.132865
1034.152206	0.131212
1034.320410	0.125690
1034.488596	0.129671
1034.656764	0.134493
1034.824914	0.131782
1034.993045	0.128790
1035.161158	0.129584
1035.329253	0.123692
1035.497330	0.119193
1035.665388	0.118536
1035.833428	0.119692
1036.001450	0.110458
1036.169454	0.106530
1036.337440	0.106422
1036.505407	0.111186
1036.673356	0.107217
1036.841287	0.100177
1037.009200	0.109869
1037.177094	0.116413
1037.344970	0.117901
1037.512828	0.132481
1037.680668	0.130190
1037.848489	0.128984
1038.016293	0.124651
1038.184078	0.134465
1038.351845	0.144104
1038.519593	0.138971
1038.687324	0.130528
1038.855036	0.130681
1039.022730	0.118493
1039.190406	0.119597
1039.358063	0.120444
1039.525702	0.118622
1039.693323	0.117480
1039.860926	0.119562
1040.028511	0.117820
1040.196077	0.116669
1040.363625	0.124345
1040.531155	0.119694
1040.698667	0.124646
1040.866161	0.127935
1041.033636	0.130290
1041.201093	0.125599
1041.368532	0.119408
1041.535952	0.120450
1041.703355	0.129282
1041.870739	0.123665
1042.038105	0.128908
1042.205452	0.122647
1042.372782	0.119470
1042.540093	0.126441
1042.707386	0.129199
1042.874661	0.139355
1043.041918	0.140845
1043.209156	0.130225
1043.376376	0.132901
1043.543578	0.138160
1043.710762	0.139513
1043.877927	0.146368
1044.045074	0.137618
1044.212203	0.137302
1044.379314	0.132293
1044.546407	0.134123
1044.713481	0.134696
1044.880537	0.128945
1045.047575	0.123139
1045.214595	0.123798
1045.381596	0.116568
1045.548579	0.121277
1045.715544	0.118105
1045.882491	0.116954
1046.049420	0.112406
1046.216330	0.117240
1046.383222	0.117747
1046.550096	0.117868
1046.716951	0.119179
1046.883789	0.125123
1047.050608	0.120515
1047.217409	0.121621
1047.384192	0.123890
1047.550956	0.128912
1047.717703	0.128563
1047.884431	0.127818
1048.051140	0.133599
1048.217832	0.131686
1048.384505	0.130771
1048.551161	0.135756
1048.717798	0.140779
1048.884416	0.143062
1049.051017	0.146583
1049.217599	0.145995
1049.384163	0.144642
1049.550709	0.143118
1049.717237	0.144720
1049.883746	0.143842
1050.050237	0.137898
1050.216710	0.137219
1050.383165	0.128081
1050.549601	0.120492
1050.716019	0.125599
1050.882420	0.131247
1051.048801	0.120338
1051.215165	0.117639
1051.381510	0.119666
1051.547837	0.125465
1051.714146	0.123558
1051.880437	0.130558
1052.046709	0.126373
1052.212964	0.113687
1052.379200	0.115002
1052.545417	0.125453
1052.711617	0.124624
1052.877798	0.122656
1053.043961	0.124335
1053.210106	0.123729
1053.376233	0.122828
1053.542341	0.138016
1053.708432	0.147464
1053.874504	0.149017
1054.040557	0.145115
1054.206593	0.143184
1054.372610	0.142089
1054.538609	0.137102
1054.704590	0.134656
1054.870553	0.138053
1055.036497	0.123122
1055.202424	0.122870
1055.368331	0.114540
1055.534221	0.118272
1055.700093	0.122983
1055.865946	0.122285
1056.031781	0.124024
1056.197598	0.125733
1056.363397	0.124140
1056.529177	0.139074
1056.694939	0.134785
1056.860683	0.137065
1057.026409	0.136619
1057.192116	0.130654
1057.357806	0.130432
1057.523477	0.129532
1057.689130	0.130299
1057.854764	0.125156
1058.020381	0.119618
1058.185979	0.118440
1058.351559	0.117583
1058.517120	0.114734
1058.682664	0.116484
1058.848189	0.116900
1059.013696	0.121299
1059.179185	0.114684
1059.344656	0.120852
1059.510108	0.115143
1059.675542	0.127466
1059.840958	0.126929
1060.006356	0.131706
1060.171735	0.135024
1060.337096	0.131081
1060.502439	0.129608
1060.667764	0.143334
1060.833071	0.146924
1060.998359	0.152193
1061.163629	0.142370
1061.328881	0.145172
1061.494115	0.150500
1061.659330	0.149976
1061.824527	0.153735
1061.989706	0.155000
1062.154867	0.148425
1062.320010	0.130640
1062.485134	0.127555
1062.650240	0.130167
1062.815328	0.132688
1062.980398	0.122420
1063.145449	0.125180
1063.310482	0.132046
1063.475497	0.127171
1063.640494	0.134228
1063.805473	0.144125
1063.970433	0.149241
1064.135375	0.146708
1064.300299	0.147801
1064.465204	0.145976
1064.630092	0.143653
1064.794961	0.138101
1064.959812	0.136591
1065.124645	0.126983
1065.289459	0.132618
1065.454256	0.131943
1065.619034	0.137542
1065.783793	0.132275
1065.948535	0.127009
1066.113258	0.126834
1066.277964	0.129257
1066.442651	0.133737
1066.607319	0.136606
1066.771970	0.143301
1066.936602	0.131356
1067.101216	0.132377
1067.265812	0.127791
1067.430389	0.140101
1067.594949	0.139600
1067.759490	0.133004
1067.924013	0.128876
1068.088518	0.119773
1068.253004	0.103558
1068.417472	0.109216
1068.581922	0.101847
1068.746354	0.104218
1068.910768	0.101252
1069.075163	0.102585
1069.239540	0.108502
1069.403899	0.108183
1069.568240	0.111837
1069.732562	0.114634
1069.896866	0.114613
1070.061152	0.120734
1070.225420	0.127813
1070.389670	0.126288
1070.553901	0.119938
1070.718114	0.119432
1070.882309	0.118003
1071.046486	0.123071
1071.210644	0.122953
1071.374784	0.123030
1071.538906	0.116314
1071.703010	0.122012
1071.867096	0.125627
1072.031163	0.141696
1072.195212	0.127751
1072.359243	0.124698
1072.523256	0.113982
1072.687250	0.114234
1072.851226	0.120410
1073.015184	0.125619
1073.179124	0.113020
1073.343045	0.109814
1073.506949	0.100974
1073.670834	0.112751
1073.834701	0.121809
1073.998549	0.134704
1074.162380	0.134080
1074.326192	0.132683
1074.489986	0.132752
1074.653761	0.133320
1074.817519	0.144983
1074.981258	0.146921
1075.144979	0.140420
1075.308682	0.146327
1075.472367	0.152168
1075.636033	0.141103
1075.799681	0.148076
1075.963311	0.149852
1076.126923	0.150406
1076.290516	0.137355
1076.454092	0.122810
1076.617649	0.124378
1076.781187	0.119728
1076.944708	0.111965
1077.108210	0.130336
1077.271695	0.132713
1077.435160	0.135112
1077.598608	0.137778
1077.762038	0.143132
1077.925449	0.157646
1078.088842	0.158282
1078.252217	0.165776
1078.415573	0.156330
1078.578912	0.154254
1078.742232	0.134311
1078.905534	0.142180
1079.068817	0.146556
1079.232083	0.147555
1079.395330	0.154507
1079.558559	0.165447
1079.721770	0.145708
1079.884962	0.154544
1080.048136	0.154643
1080.211293	0.161097
1080.374430	0.145052
1080.537550	0.127084
1080.700651	0.124269
1080.863735	0.114339
1081.026800	0.118630
1081.189846	0.131606
1081.352875	0.138799
1081.515885	0.138123
1081.678877	0.151130
1081.841851	0.156943
1082.004807	0.171711
1082.167744	0.173589
1082.330663	0.164347
1082.493564	0.145550
1082.656447	0.146123
1082.819312	0.138545
1082.982158	0.143749
1083.144986	0.138752
1083.307796	0.139628
1083.470587	0.132890
1083.633361	0.123392
1083.796116	0.137583
1083.958853	0.153494
1084.121571	0.151097
1084.284272	0.149536
1084.446954	0.133967
1084.609618	0.133444
1084.772264	0.125526
1084.934892	0.129005
1085.097501	0.138005
1085.260092	0.135449
1085.422665	0.132565
1085.585220	0.129138
1085.747756	0.126226
1085.910274	0.130983
1086.072774	0.144058
1086.235256	0.151684
1086.397720	0.164156
1086.560165	0.160256
1086.722592	0.154354
1086.885001	0.151271
1087.047392	0.151268
1087.209764	0.163229
1087.372119	0.168491
1087.534455	0.147055
1087.696772	0.139330
1087.859072	0.134242
1088.021353	0.130074
1088.183616	0.131457
1088.345861	0.123828
1088.508088	0.124361
1088.670296	0.120487
1088.832486	0.118265
1088.994658	0.128088
1089.156812	0.132447
1089.318948	0.130254
1089.481065	0.132303
1089.643164	0.124165
1089.805245	0.135833
1089.967308	0.141219
1090.129352	0.147288
1090.291378	0.143411
1090.453386	0.132809
1090.615376	0.131420
1090.777347	0.124096
1090.939301	0.130006
1091.101236	0.138593
1091.263153	0.134915
1091.425051	0.129695
1091.586932	0.123124
1091.748794	0.124253
1091.910638	0.128098
1092.072463	0.131581
1092.234271	0.125449
1092.396060	0.140701
1092.557831	0.149777
1092.719584	0.144550
1092.881319	0.134540
1093.043035	0.138734
1093.204733	0.139207
1093.366413	0.160208
1093.528075	0.165501
1093.689718	0.175310
1093.851343	0.151643
1094.012950	0.141398
1094.174539	0.140639
1094.336110	0.144885
1094.497662	0.131717
1094.659196	0.138901
1094.820712	0.129213
1094.982210	0.110982
1095.143689	0.120588
1095.305151	0.137418
1095.466594	0.146950
1095.628018	0.151717
1095.789425	0.175108
1095.950813	0.192882
1096.112183	0.184740
1096.273535	0.165527
1096.434869	0.178027
1096.596184	0.191322
1096.757482	0.200654
1096.918761	0.204007
1097.080021	0.197349
1097.241264	0.181554
1097.402488	0.172789
1097.563694	0.164520
1097.724882	0.161884
1097.886052	0.142397
1098.047203	0.129721
1098.208336	0.118298
1098.369451	0.118961
1098.530548	0.130188
1098.691627	0.139692
1098.852687	0.127268
1099.013729	0.143594
1099.174753	0.164459
1099.335758	0.170159
1099.496746	0.148517
1099.657715	0.120049
1099.818666	0.092505
1099.979599	0.079915
1100.140513	0.083119
1100.301409	0.107502
1100.462287	0.116315
1100.623147	0.109805
1100.783989	0.104278
1100.944812	0.104543
1101.105617	0.113254
1101.266404	0.135544
1101.427173	0.153364
1101.587923	0.136051
1101.748656	0.121976
1101.909370	0.120533
1102.070066	0.088051
1102.230743	0.121212
1102.391403	0.126450
1102.552044	0.146944
1102.712667	0.156106
1102.873271	0.130785
1103.033858	0.145481
1103.194426	0.163129
1103.354976	0.162617
1103.515508	0.222873
1103.676021	0.212754
1103.836517	0.222523
1103.996994	0.222716
1104.157453	0.194612
1104.317893	0.213201
1104.478316	0.206580
1104.638720	0.193147
1104.799106	0.171418
1104.959474	0.135644
1105.119823	0.130245
1105.280155	0.134426
1105.440468	0.116557
1105.600763	0.127841
1105.761039	0.127932
1105.921298	0.140501
1106.081538	0.138369
1106.241760	0.129997
1106.401964	0.109051
1106.562149	0.111590
1106.722316	0.104408
1106.882465	0.109916
1107.042596	0.126721
1107.202709	0.119176
1107.362803	0.092930
1107.522879	0.090305
1107.682937	0.090331
1107.842977	0.099789
1108.002999	0.100210
1108.163002	0.108042
1108.322987	0.117885
1108.482954	0.095449
1108.642902	0.118500
1108.802833	0.130174
1108.962745	0.121331
1109.122639	0.130440
1109.282515	0.143310
1109.442372	0.152980
1109.602211	0.152229
1109.762032	0.140587
1109.921835	0.159045
1110.081620	0.153604
1110.241386	0.157926
1110.401134	0.162846
1110.560864	0.179671
1110.720576	0.187884
1110.880269	0.191340
1111.039945	0.213700
1111.199602	0.197797
1111.359240	0.179590
1111.518861	0.165011
1111.678463	0.172678
1111.838047	0.167279
1111.997613	0.183940
1112.157161	0.192994
1112.316690	0.192652
1112.476202	0.172560
1112.635695	0.194672
1112.795169	0.204705
1112.954626	0.203302
1113.114064	0.171259
1113.273484	0.186225
1113.432886	0.149265
1113.592270	0.177685
1113.751635	0.127739
1113.910983	0.124837
1114.070312	0.139008
1114.229622	0.145435
1114.388915	0.150981
1114.548189	0.180316
1114.707445	0.171113
1114.866683	0.193963
1115.025903	0.162418
1115.185104	0.214138
1115.344287	0.209699
1115.503452	0.195308
1115.662599	0.186318
1115.821727	0.207396
1115.980838	0.226998
1116.139930	0.251005
1116.299004	0.229196
1116.458059	0.235557
1116.617097	0.217220
1116.776116	0.222601
1116.935117	0.226522
1117.094099	0.224889
1117.253064	0.194737
1117.412010	0.146269
1117.570938	0.136583
1117.729848	0.145301
1117.888740	0.111592
1118.047613	0.102224
1118.206468	0.099816
1118.365305	0.091573
1118.524124	0.120131
1118.682924	0.105382
1118.841707	0.103789
1119.000471	0.084228
1119.159216	0.093386
1119.317944	0.124335
1119.476653	0.150732
1119.635344	0.139254
1119.794017	0.129911
1119.952672	0.113536
1120.111308	0.154889
1120.269927	0.150451
1120.428527	0.134761
1120.587108	0.123389
1120.745672	0.110750
1120.904217	0.100978
1121.062744	0.136911
1121.221253	0.176493
1121.379744	0.160458
1121.538216	0.160473
1121.696671	0.226665
1121.855107	0.255972
1122.013524	0.239431
1122.171924	0.267024
1122.330305	0.262240
1122.488668	0.201590
1122.647013	0.244608
1122.805340	0.244342
1122.963648	0.228322
1123.121938	0.178946
1123.280210	0.184690
1123.438464	0.216899
1123.596700	0.238259
1123.754917	0.257116
1123.913116	0.283101
1124.071297	0.170936
1124.229459	0.181481
1124.387604	0.164675
1124.545730	0.176770
1124.703838	0.211777
1124.861928	0.213451
1125.019999	0.190604
1125.178052	0.164111
1125.336088	0.157952
1125.494104	0.207803
1125.652103	0.206018
1125.810083	0.212287
1125.968045	0.193872
1126.125989	0.206764
1126.283915	0.164475
1126.441823	0.161210
1126.599712	0.182294
1126.757583	0.228305
1126.915436	0.215758
1127.073270	0.193608
1127.231087	0.181797
1127.388885	0.195522
1127.546665	0.168715
1127.704426	0.196706
1127.862170	0.187184
1128.019895	0.185291
1128.177602	0.161680
1128.335291	0.154348
1128.492961	0.150323
1128.650614	0.167493
1128.808248	0.178363
1128.965864	0.191647
1129.123461	0.244514
1129.281041	0.309966
1129.438602	0.321685
1129.596145	0.310767
1129.753670	0.340317
1129.911176	0.358137
1130.068665	0.382055
1130.226135	0.368017
1130.383587	0.323528
1130.541020	0.267301
1130.698436	0.213107
1130.855833	0.225843
1131.013212	0.181246
1131.170573	0.168196
1131.327915	0.162584
1131.485239	0.156422
1131.642545	0.169575
1131.799833	0.145672
1131.957103	0.125409
1132.114354	0.126811
1132.271588	0.125890
1132.428803	0.170667
1132.585999	0.110021
1132.743178	0.131557
1132.900338	0.135786
1133.057480	0.140234
1133.214604	0.160335
1133.371710	0.169665
1133.528797	0.211043
1133.685866	0.187893
1133.842917	0.198416
1133.999950	0.278355
1134.156964	0.283109
1134.313960	0.262771
1134.470938	0.217321
1134.627898	0.238266
1134.784840	0.257933
1134.941763	0.227846
1135.098668	0.228028
1135.255555	0.212987
1135.412424	0.200457
1135.569274	0.211186
1135.726107	0.226286
1135.882921	0.272012
1136.039716	0.320164
1136.196494	0.280695
1136.353253	0.280612
1136.509995	0.260725
1136.666717	0.274328
1136.823422	0.284910
1136.980109	0.256075
1137.136777	0.253319
1137.293427	0.233597
1137.450059	0.178391
1137.606672	0.208957
1137.763267	0.158575
1137.919844	0.180697
1138.076403	0.183635
1138.232944	0.172188
1138.389466	0.199871
1138.545971	0.181639
1138.702457	0.189145
1138.858924	0.184149
1139.015374	0.186621
1139.171805	0.219228
1139.328218	0.165165
1139.484613	0.132552
1139.640990	0.099606
1139.797348	0.080354
1139.953688	0.097510
1140.110010	0.118690
1140.266314	0.091778
1140.422600	0.103951
1140.578867	0.103149
1140.735116	0.157183
1140.891347	0.210350
1141.047559	0.242776
1141.203754	0.248238
1141.359930	0.247168
1141.516088	0.204458
1141.672228	0.304319
1141.828349	0.224863
1141.984452	0.210608
1142.140537	0.193882
1142.296604	0.178132
1142.452653	0.175632
1142.608683	0.142239
1142.764695	0.108006
1142.920689	0.113959
1143.076665	0.108087
1143.232622	0.132522
1143.388562	0.128221
1143.544483	0.133362
1143.700385	0.104644
1143.856270	0.045568
1144.012136	0.067470
1144.167985	0.093538
1144.323814	0.143775
1144.479626	0.160317
1144.635420	0.175081
1144.791195	0.165253
1144.946952	0.122829
1145.102691	0.170009
1145.258411	0.227193
1145.414113	0.202106
1145.569798	0.204941
1145.725463	0.208025
1145.881111	0.157766
1146.036741	0.213284
1146.192352	0.249198
1146.347945	0.297822
1146.503519	0.242260
1146.659076	0.268712
1146.814614	0.325965
1146.970134	0.325870
1147.125636	0.297926
1147.281120	0.298492
1147.436585	0.224309
1147.592032	0.219393
1147.747461	0.179700
1147.902872	0.199374
1148.058265	0.219055
1148.213639	0.188730
1148.368995	0.168476
1148.524333	0.147257
1148.679653	0.132214
1148.834954	0.134489
1148.990237	0.217448
1149.145502	0.247666
1149.300749	0.223189
1149.455977	0.124190
1149.611188	0.122819
1149.766380	0.182448
1149.921553	0.169169
1150.076709	0.239802
1150.231846	0.213721
1150.386966	0.179242
1150.542066	0.152670
1150.697149	0.163884
1150.852214	0.309311
1151.007260	0.360569
1151.162288	0.308537
1151.317298	0.347780
1151.472289	0.270555
1151.627263	0.309079
1151.782218	0.220218
1151.937155	0.296205
1152.092073	0.343867
1152.246974	0.349832
1152.401856	0.310578
1152.556720	0.364206
1152.711566	0.288984
1152.866393	0.205542
1153.021203	0.265695
1153.175994	0.384549
1153.330767	0.393102
1153.485521	0.434913
1153.640258	0.448408
1153.794976	0.432223
1153.949676	0.415103
1154.104358	0.423501
1154.259021	0.577397
1154.413667	0.548244
1154.568294	0.414980
1154.722903	0.353982
1154.877493	0.302779
1155.032066	0.278854
1155.186620	0.243443
1155.341156	0.152242
1155.495674	0.283150
1155.650173	0.331461
1155.804654	0.232746
1155.959118	0.312518
1156.113562	0.285655
1156.267989	0.236426
1156.422397	0.222627
1156.576788	0.263555
1156.731160	0.361974
1156.885513	0.233900
1157.039849	0.248809
1157.194166	0.431182
1157.348465	0.303110
1157.502746	0.342681
1157.657009	0.343742
1157.811253	0.387903
1157.965479	0.291376
1158.119687	0.269241
1158.273877	0.280983
1158.428048	0.230500
1158.582201	0.178328
1158.736337	0.191849
1158.890453	0.226318
1159.044552	0.291013
1159.198632	0.390139
1159.352694	0.503975
1159.506738	0.356821
1159.660764	0.359850
1159.814771	0.365012
1159.968761	0.315984
1160.122732	0.315961
1160.276685	0.166687
1160.430619	0.138421
1160.584535	0.023020
1160.738434	0.006387
1160.892313	0.028042
1161.046175	-0.000245
1161.200019	0.012491
1161.353844	0.001952
1161.507651	-0.039785
1161.661440	-0.005557
1161.815210	-0.001609
1161.968962	0.040657
1162.122697	0.028158
1162.276412	0.035783
1162.430110	0.039835
1162.583789	0.018572
1162.737451	0.008210
1162.891094	0.105579
1163.044718	0.106907
1163.198325	0.103441
1163.351913	0.144725
1163.505483	0.161492
1163.659035	0.203941
1163.812569	0.232434
1163.966084	0.234327
1164.119581	0.289716
1164.273060	0.249479
1164.426521	0.316096
1164.579964	0.247511
1164.733388	0.350756
1164.886794	0.368282
1165.040182	0.253922
1165.193551	0.334831
1165.346903	0.274345
1165.500236	0.247693
1165.653551	0.174803
1165.806848	0.275847
1165.960126	0.235888
1166.113386	0.052432
1166.266628	0.074837
1166.419852	0.173718
1166.573058	0.096555
1166.726245	0.199951
1166.879414	0.271429
1167.032565	0.221676
1167.185698	0.173698
1167.338812	0.394043
1167.491909	0.386677
1167.644987	0.390801
1167.798046	0.285553
1167.951088	0.351603
1168.104111	0.218386
1168.257117	0.220731
1168.410103	0.320674
1168.563072	0.388913
1168.716023	0.295645
1168.868955	0.334306
1169.021869	0.256179
1169.174765	0.291000
1169.327642	0.374191
1169.480501	0.381565
1169.633343	0.283237
1169.786165	0.318682
1169.938970	0.261671
1170.091757	0.256769
1170.244525	0.305279
1170.397275	0.411020
1170.550007	0.304729
1170.702720	0.146742
1170.855415	0.023633
1171.008092	0.056473
1171.160751	0.082591
1171.313392	0.105170
1171.466014	-0.568532
1171.618619	NaN
1171.771205	NaN
1171.923772	NaN
