sample name	sample
index	1420
start time	 05-10-2021  12:04:03 PM
880	0.264905
Peak Time (s)	91.035
Peak Height 	0.2649
calc peak height	90,93
Baseline Time (s)	10.035
Baseline Value 	-0.005515
subtract baseline	10,4
Abs	0.185871
Peak Time (s)	91.535
Peak Height 	0.1859
calc peak height	90,93
Baseline Time (s)	9.037
Baseline Value 	8.1485E-4
subtract baseline	10,3
PK_550	0.105336
Peak Time (s)	90.037
Peak Height 	0.1053
calc peak height	90,93
Baseline Time (s)	10.035
Baseline Value 	4.017E-4
subtract baseline	10,2
PK_880	0.170589
Peak Time (s)	90.037
Peak Height 	0.1706
calc peak height	90,93
Baseline Time (s)	10.035
Baseline Value 	0.002029
subtract baseline	10,1


Time (s)	A880-A510	A880-A775	A880-A975	A880	I510	I775	I975	I880	
0.034500	-0.001295	-0.000189	0.000082	0.002636	6463.877090	43955.310652	3926.111199	22588.429097
0.540500	0.000368	-0.000175	-0.000442	0.004942	6458.529218	43739.424476	3918.896220	22483.956280
1.035500	-0.001786	-0.000346	-0.000233	0.003863	6449.609659	43824.829875	3922.173945	22532.782792
1.535000	-0.002267	-0.000314	-0.001516	0.007561	6415.140890	43481.112513	3909.549126	22365.939629
2.039000	-0.000988	0.000016	-0.000847	0.001326	6477.347860	44098.572997	3927.084845	22648.019933
2.536000	-0.000236	-0.000513	0.005986	0.000516	6490.427167	44125.286227	3946.825630	22685.001599
3.036500	-0.001411	0.000495	0.002037	-0.001225	6495.175665	44386.872633	3941.087902	22764.638165
3.536500	-0.001606	0.000116	0.005727	0.002698	6460.779279	43978.348819	3940.485110	22585.641224
4.037000	0.000152	0.000295	-0.001288	0.001553	6484.987592	44103.550462	3925.378134	22637.707389
4.534000	0.000040	0.000174	0.002759	0.001301	6486.161191	44115.974038	3936.418942	22649.171597
5.035000	0.001059	0.000804	0.004691	0.001077	6496.573578	44196.968504	3941.998803	22659.369111
5.535500	-0.000973	-0.000008	0.001110	0.000443	6484.861848	44180.088183	3934.380591	22688.316393
6.035500	-0.001424	-0.000566	0.003500	-0.000776	6491.287220	44242.952569	3943.716789	22744.034347
6.538500	0.000700	0.000269	0.004123	0.000206	6500.877598	44228.985091	3942.785145	22699.137389
7.036000	-0.000046	0.000077	-0.001004	0.000414	6492.869970	44190.989775	3929.022289	22689.651435
7.536500	0.001492	-0.000749	-0.000201	-0.000638	6514.657318	44212.401257	3933.787198	22737.724968
8.036500	-0.002700	-0.000652	-0.001056	-0.000581	6478.980612	44216.196639	3931.441632	22735.119863
8.537000	-0.000377	0.000144	-0.003447	0.000068	6492.994973	44230.236938	3923.656016	22705.438406
9.037500	-0.000439	-0.000244	0.000000	-0.000496	6497.203338	44246.888779	3933.938662	22731.219041
9.535000	0.002108	-0.000005	0.001795	-0.000487	6518.577138	44268.799904	3938.548200	22730.806426
10.035000	0.000000	0.000000	-0.001715	0.000000	6496.730895	44222.986770	3928.259392	22708.555575
10.535500	0.001184	0.000066	-0.002268	-0.000207	6508.428148	44248.889696	3927.372073	22718.012682
11.035500	-0.002575	-0.000154	0.001608	0.003491	6446.154328	43877.990938	3927.828359	22549.636371
11.536000	0.000751	0.000466	0.002406	0.000295	6500.561384	44239.305833	3938.108370	22695.087269
12.035500	0.001119	0.000284	0.006937	0.000611	6500.993708	44191.878923	3949.056689	22680.642795
12.536000	0.000543	-0.000011	0.001008	0.000126	6500.234201	44209.969434	3934.932895	22702.788995
13.037000	-0.001141	-0.000860	-0.003639	0.003543	6457.613334	43806.554079	3914.336946	22547.285204
13.537000	-0.000143	0.000734	0.003287	0.000432	6491.907740	44251.727430	3940.035073	22688.841029
14.037500	-0.002422	-0.000993	-0.003690	0.001818	6461.306467	43956.625085	3918.581638	22625.629749
14.537500	-0.001496	-0.000212	0.000369	0.001923	6468.142374	44020.585383	3928.672247	22620.876530
15.034500	-0.002932	-0.000152	0.002300	0.005602	6425.778035	43679.636870	3924.198027	22454.146886
15.535500	-0.000597	0.000511	0.005468	0.002151	6473.735559	44067.450045	3941.231637	22610.497538
16.035500	0.001767	-0.000067	0.001022	0.000196	6509.945432	44197.994104	3934.789986	22699.604209
16.536500	-0.001546	0.000153	0.000940	0.000028	6483.543087	44234.892226	3935.011630	22707.285086
17.036500	-0.000686	0.000585	0.002866	0.002965	6466.208823	43997.330235	3932.407463	22573.496441
17.536500	0.001218	0.000306	0.000218	0.001205	6496.841026	44137.632073	3930.126965	22653.566832
18.037000	0.000137	0.000081	-0.004595	0.001460	6485.633904	44092.100264	3917.190490	22641.925569
18.537500	-0.000543	0.000085	0.002715	0.001833	6476.835247	44057.155213	3934.932069	22624.929409
19.037500	-0.000774	0.000011	0.001945	0.001962	6473.828644	44037.914334	3932.619106	22619.062967
19.537500	-0.002580	-0.000872	-0.001607	0.000522	6470.775646	44090.636344	3927.198593	22684.696101
20.035500	-0.000663	-0.000391	0.002365	0.001321	6480.115524	44060.552485	3935.352360	22648.281186
20.535500	-0.000269	-0.000504	-0.002586	0.000951	6486.502851	44084.954357	3923.599366	22665.146490
21.035500	-0.001953	-0.000374	0.002301	0.001603	6466.991997	44035.460868	3934.458724	22635.408118
21.536500	-0.000651	0.000900	0.000427	0.001488	6478.811684	44167.102048	3929.936873	22640.656523
22.036500	-0.000299	0.000182	0.000463	0.001687	6480.094772	44080.112593	3929.518234	22631.585353
22.537000	-0.001629	-0.000177	0.003577	0.000747	6476.834210	44135.229401	3939.966700	22674.423685
23.037000	-0.001054	0.000323	0.002346	0.001773	6473.068248	44085.416061	3934.137687	22627.680736
23.537500	-0.000174	0.000821	-0.000250	0.001720	6480.868904	44137.596990	3927.607093	22630.106830
24.040500	0.000674	0.000484	0.007191	0.001402	6490.621095	44135.805382	3947.655316	22644.557863
24.535000	-0.000590	-0.000457	-0.001171	0.000541	6487.244472	44128.238274	3928.264797	22683.827130
25.035000	-0.002066	-0.000179	0.000715	0.000737	6473.267414	44135.984277	3932.605817	22674.887710
25.535500	-0.001575	0.000561	0.002124	0.001296	6472.705343	44153.151985	3934.796527	22649.412846
26.036000	-0.000577	0.000851	-0.002070	0.001720	6477.498803	44140.493813	3922.955932	22630.107914
26.536500	0.000991	0.000282	0.003154	0.001196	6495.009109	44136.208272	3937.711301	22653.962874
27.036500	0.000115	0.000804	0.004795	-0.001097	6506.918720	44404.075552	3947.925641	22758.760228
27.536500	0.001174	0.000631	-0.000450	0.000065	6506.050070	44276.792826	3931.338246	22705.573226
28.037000	0.000097	0.000232	0.000206	0.000134	6496.421845	44232.294912	3932.847584	22702.440421
28.540500	0.000765	0.000439	0.003314	0.000316	6500.501846	44234.675721	3940.403224	22694.130708
29.034500	-0.000765	-0.000162	0.004243	0.000235	6488.343365	44185.270178	3943.021817	22697.805929
29.535500	0.000518	0.000647	0.000788	0.001523	6488.308384	44139.868887	3930.775735	22639.084362
30.035500	0.002680	0.000543	0.002386	0.000597	6514.267041	44217.855477	3937.275448	22681.307880
30.536000	-0.001186	0.000184	0.000918	0.002355	6467.128166	44017.134681	3928.972472	22601.221817
31.036000	-0.001571	-0.000223	0.005783	0.002066	6466.322117	44005.990435	3942.268680	22614.368374
31.536500	0.000344	0.000967	0.006194	0.001252	6489.110876	44195.908993	3945.449802	22651.400303
32.036000	-0.000240	-0.000342	-0.003132	0.000411	6491.269680	44151.526527	3923.586146	22689.794045
32.536500	-0.001359	-0.000297	-0.002834	-0.000108	6486.241678	44204.968678	3925.670028	22713.473302
33.037500	0.001143	0.000227	0.002188	0.000481	6502.289741	44198.874408	3937.063202	22686.579657
33.537500	-0.000996	0.000352	0.004532	0.001619	6474.846261	44102.730382	3940.184661	22634.710848
34.040500	0.000495	0.001077	0.001073	0.003175	6474.300199	44024.019404	3927.266811	22563.960972
34.535000	-0.000239	0.000308	0.000902	0.001905	6478.770774	44071.459516	3930.083982	22621.660128
35.035500	-0.000932	-0.000021	0.003784	0.001848	6473.460551	44045.735374	3937.655321	22624.267395
35.536000	-0.000663	-0.000076	0.001263	0.001870	6475.529926	44038.475484	3931.102332	22623.279940
36.036500	-0.001950	0.000589	0.003966	0.002119	6462.725281	44077.786551	3937.425414	22611.947756
36.536500	0.000285	0.000746	0.002043	0.002296	6479.889727	44075.969436	3932.013164	22603.902450
37.037000	-0.002346	0.000008	-0.000468	0.002369	6457.361351	43999.126092	3925.387670	22600.573276
37.537000	0.000989	0.000848	0.004344	0.002545	6483.694573	44062.011132	3937.302198	22592.582357
38.037500	-0.002353	-0.000661	0.001137	0.001198	6467.038935	44046.682677	3932.505512	22653.869924
38.535000	-0.001728	0.000334	0.000158	0.002017	6465.422982	44063.227675	3927.888004	22616.558877
39.035500	0.000121	-0.000485	0.002070	0.001566	6484.618808	44028.513413	3933.961573	22637.110683
39.535500	-0.001102	-0.000162	0.000809	0.001418	6475.634572	44073.131482	3931.098356	22643.859272
40.036000	-0.000025	0.000686	-0.000946	0.001863	6480.915447	44111.309777	3925.459056	22623.596207
40.536000	-0.001334	0.000283	0.000154	0.001890	6469.759512	44070.498736	3928.203791	22622.350692
41.036500	-0.001232	-0.000539	0.003466	0.001559	6473.368108	44024.023561	3937.578754	22637.414676
41.536500	-0.000305	0.000465	0.004747	0.001373	6482.672807	44136.830175	3941.377988	22645.913176
42.037000	-0.001229	-0.000305	0.001633	0.001373	6474.948833	44063.780804	3933.331739	22645.916094
42.537000	0.000453	0.000704	0.004570	0.001922	6484.424979	44107.393325	3939.498847	22620.917559
43.035000	-0.001875	0.000007	0.000447	0.002122	6463.326038	44022.465597	3928.362399	22611.808331
43.537500	0.001409	-0.000229	0.005326	-0.003032	6534.208391	44490.293140	3954.374195	22847.601920
44.035000	-0.000045	0.001065	0.005230	0.000210	6494.586271	44304.264191	3945.652804	22698.937956
44.535000	0.001585	0.001254	-0.001860	0.000955	6502.024269	44251.408165	3925.441842	22664.938931
45.036000	-0.002283	0.000565	0.001038	0.004624	6439.201077	43838.991372	3923.473963	22498.340714
45.541000	-0.000440	0.001105	0.004422	0.000730	6486.922082	44258.600124	3942.201133	22675.213844
46.037000	-0.000388	-0.000382	0.002144	-0.000119	6494.476634	44198.011078	3938.500035	22713.993821
46.536500	-0.001460	-0.000599	0.003904	-0.000538	6488.999608	44217.196164	3944.149474	22733.149705
47.037000	-0.002230	-0.000112	0.003615	0.004477	6440.856853	43789.075913	3930.447176	22504.994069
47.537500	0.000306	0.000277	0.004076	0.002873	6475.247803	43977.025194	3935.762650	22577.689410
48.039500	0.001068	0.000507	0.003378	0.000298	6503.198856	44242.857591	3940.614867	22694.931636
48.538000	0.000265	0.000476	0.004107	0.000710	6492.992997	44200.679200	3941.436136	22676.113465
49.038000	-0.003132	0.000149	-0.006365	0.005382	6425.948149	43728.566445	3902.843846	22464.088325
49.535500	0.000621	0.000474	0.005589	-0.001935	6518.253612	44452.673851	3952.190921	22797.203004
50.038500	0.002080	0.000265	0.004618	0.000603	6509.147535	44190.832358	3943.041355	22681.000786
50.539500	-0.003148	-0.010521	0.005745	0.014053	6355.135659	41951.904573	3911.491304	22076.515077
51.039500	0.011614	-0.024838	0.074476	0.466468	4129.781104	16258.819775	3268.388225	9639.391211
51.537000	-0.007359	-0.029118	-0.015495	-0.055660	6925.681389	46824.691575	4040.934445	25422.834760
52.037000	-0.019356	-0.091700	-0.037314	-0.269181	9331.984913	65062.853023	4721.053084	39751.513268
52.537000	-0.015610	-0.089577	-0.021722	-0.267688	9365.708602	65153.157315	4783.938376	39624.907907
53.035000	-0.009266	-0.046078	-0.010566	-0.195472	8448.777310	61172.386347	4525.727700	33992.513903
53.537500	-0.006103	-0.025153	-0.004273	-0.127618	7674.005647	55208.035242	4299.671122	29489.108399
54.035500	-0.011992	-0.023887	-0.009982	-0.138746	7732.544336	56721.115594	4318.309418	30180.270325
54.536000	-0.009143	-0.029207	-0.007956	-0.168621	8114.616882	59849.424322	4432.867812	32125.855461
55.039000	0.002341	-0.026739	0.014098	-0.146784	7990.612883	57367.180416	4433.680818	30690.644758
55.536500	0.011657	-0.013611	0.024304	-0.082395	7378.421164	51307.631379	4243.852049	26855.535599
56.036500	0.020967	-0.002180	0.033610	-0.008561	6753.275240	44834.062907	4046.608447	23103.749324
56.540500	0.039623	0.009564	0.046266	0.017903	6683.723160	43437.816841	4008.073634	21906.884102
57.046000	0.044234	0.016295	0.056724	0.071272	6276.642625	39314.210496	3895.851251	19704.192406
57.534500	0.059025	0.023530	0.071347	0.089085	6252.887338	38439.037741	3887.946482	19027.249896
58.035000	0.068936	0.030656	0.083214	0.112789	6146.522502	37109.454978	3859.101884	18168.384833
58.535500	0.079441	0.037450	0.091158	0.128889	6104.324522	36385.103638	3839.682806	17611.200431
59.035500	0.086270	0.043915	0.101493	0.144834	6036.737514	35662.932422	3826.533639	17079.376105
59.538500	0.092868	0.047112	0.106302	0.168170	5916.273187	34180.176842	3784.302443	16335.408539
60.036500	0.103246	0.054970	0.117678	0.183849	5879.075737	33622.604104	3774.746701	15857.517276
60.536000	0.111591	0.058399	0.125579	0.199202	5830.597646	32791.652536	3758.424673	15406.015353
61.037000	0.113454	0.060243	0.128763	0.216170	5728.724978	31769.989941	3728.960311	14925.236919
61.537000	0.117047	0.061916	0.136133	0.230100	5661.028382	30967.740452	3715.263797	14544.336548
62.039000	0.120745	0.065764	0.139493	0.228977	5692.401860	31290.361404	3724.600821	14574.584183
62.534500	0.122835	0.068060	0.142785	0.228015	5712.436394	31503.774632	3733.550983	14600.553301
63.047000	0.129114	0.071407	0.142790	0.224588	5777.123521	31952.802051	3740.835695	14693.577795
63.535500	0.128584	0.072840	0.145485	0.223613	5780.125628	32114.206342	3748.692232	14720.196080
64.035500	0.132034	0.076071	0.144065	0.225258	5792.323586	32220.885178	3742.126022	14675.343460
64.536000	0.135384	0.077570	0.146158	0.225690	5812.156287	32292.920028	3745.678893	14663.586143
65.036000	0.129825	0.077057	0.147605	0.230571	5741.809176	31930.656385	3738.350750	14531.662379
65.536500	0.139021	0.081392	0.148314	0.228476	5817.975318	32363.045752	3744.331089	14588.116646
66.037000	0.138888	0.081830	0.153208	0.229179	5812.261923	32345.048387	3753.338349	14569.128760
66.537500	0.140898	0.083065	0.154603	0.231421	5810.680012	32276.961778	3751.510074	14508.819749
67.035000	0.139476	0.083456	0.155385	0.236808	5764.625159	31941.387504	3741.636308	14365.205207
67.535000	0.139356	0.085991	0.157273	0.236347	5766.917019	32142.184454	3746.660422	14377.427236
68.035500	0.145785	0.088960	0.156868	0.239833	5786.753673	32107.476948	3738.352489	14285.349984
68.535500	0.144819	0.088680	0.162469	0.240337	5776.826724	32054.836567	3749.250320	14272.087885
69.036000	0.145787	0.091712	0.163301	0.247676	5734.216826	31767.544733	3735.361906	14080.843497
69.536500	0.150390	0.093737	0.164847	0.244315	5787.579585	32127.235965	3745.815776	14168.015411
70.036500	0.153388	0.094395	0.161965	0.245543	5799.576500	32088.978329	3737.050955	14136.087894
70.537000	0.155725	0.094608	0.165275	0.246874	5806.417446	32013.991706	3741.260565	14101.567547
71.039500	0.152402	0.093725	0.162835	0.254198	5734.830083	31469.770749	3720.674016	13913.553724
71.534500	0.155827	0.095581	0.167924	0.250868	5780.047612	31812.492706	3738.397795	13998.658169
72.035000	0.157195	0.096721	0.171395	0.252262	5779.871421	31795.667097	3742.823696	13962.955288
72.535500	0.155138	0.096348	0.170580	0.252950	5761.410793	31725.199476	3739.618389	13945.370877
73.035500	0.155737	0.096414	0.167503	0.259583	5721.246514	31293.270861	3719.180687	13777.332669
73.536000	0.157243	0.097183	0.167066	0.253868	5769.376325	31719.694133	3730.233803	13921.963367
74.036000	0.161258	0.098284	0.177789	0.255117	5788.027176	31709.913594	3750.412163	13890.187122
74.536000	0.159506	0.097674	0.176397	0.254572	5779.873200	31705.587715	3748.588846	13904.033599
75.036500	0.160066	0.097954	0.173524	0.254632	5783.253973	31720.194564	3742.308591	13902.524815
75.537000	0.162936	0.097684	0.175063	0.254834	5801.322051	31688.917929	3745.165578	13897.375279
76.037500	0.162622	0.099811	0.179624	0.256083	5790.719294	31747.052740	3752.284849	13865.672645
76.537500	0.165872	0.100105	0.177160	0.256249	5811.673122	31755.558874	3746.628335	13861.466319
77.037500	0.161543	0.101516	0.177353	0.264121	5729.638688	31330.094697	3730.306084	13663.834579
77.535000	0.167293	0.101078	0.175462	0.256674	5818.473652	31791.986156	3742.087481	13850.713067
78.035500	0.167397	0.102483	0.180187	0.257227	5815.406869	31848.586587	3751.030809	13836.713212
78.535500	0.168405	0.101932	0.182588	0.256361	5828.230487	31869.585090	3758.099282	13858.632696
79.036000	0.165742	0.103439	0.185356	0.263450	5762.108786	31500.139577	3748.762929	13680.529540
79.536500	0.168782	0.103559	0.173216	0.257101	5825.740252	31928.735961	3736.399414	13839.901999
80.036500	0.168597	0.104422	0.181602	0.257810	5819.628080	31939.064172	3752.827375	13822.002942
80.537000	0.170318	0.104423	0.182755	0.257974	5830.287756	31928.178987	3754.965497	13817.855547
81.037500	0.165195	0.103750	0.181154	0.262118	5767.378494	31608.456322	3742.616253	13713.787495
81.537500	0.170985	0.105453	0.183123	0.256936	5842.011443	32066.556628	3758.012955	13844.086757
82.035000	0.171700	0.106750	0.180446	0.257554	5842.677123	32112.086460	3750.885129	13828.450424
82.535500	0.171447	0.107470	0.180784	0.257982	5837.986038	32131.689726	3750.691955	13817.645764
83.036000	0.169950	0.105996	0.174426	0.261753	5801.967276	31781.317623	3729.128008	13722.913235
83.536000	0.170885	0.106677	0.183008	0.256889	5841.649082	32151.875985	3757.864796	13845.279182
84.036000	0.170587	0.106747	0.180822	0.256944	5839.210774	32152.858939	3753.011081	13843.870749
84.536500	0.171524	0.105842	0.175974	0.255929	5852.679667	32160.287288	3744.773534	13869.594408
85.037000	0.164450	0.107086	0.179657	0.263538	5752.873457	31735.194342	3736.407832	13678.352304
85.537500	0.170912	0.107407	0.180345	0.257473	5837.804165	32161.686664	3750.841474	13830.491787
86.040000	0.171165	0.107258	0.183858	0.257564	5838.928603	32145.590112	3758.245788	13828.218050
86.535000	0.167772	0.106162	0.179889	0.257167	5818.379973	32098.585246	3750.519456	13838.238149
87.035500	0.170427	0.106279	0.179775	0.263862	5790.899536	31660.301488	3735.971015	13670.282061
87.535500	0.170399	0.106391	0.182383	0.258191	5829.353393	32045.245965	3753.691180	13812.381595
88.036000	0.170488	0.105681	0.179068	0.257853	5832.289836	32020.354319	3747.280565	13820.916671
88.536000	0.170349	0.105565	0.183127	0.258527	5826.708559	31967.476247	3754.572180	13803.905205
89.036500	0.165696	0.105064	0.176864	0.264713	5753.347383	31523.983285	3728.031147	13649.109812
89.536500	0.169489	0.105236	0.178584	0.259100	5816.904242	31907.224338	3743.571497	13789.472968
90.037000	0.170589	0.105336	0.185244	0.259294	5823.095269	31900.973200	3757.497763	13784.590100
90.537000	0.170526	0.105306	0.176003	0.259507	5821.205001	31884.794764	3737.207084	13779.230880
91.034500	0.165572	0.103415	0.178828	0.264905	5751.229984	31403.021442	3731.760579	13644.325309
91.535000	0.166139	0.103868	0.185871	0.258930	5795.261660	31827.451963	3759.648366	13793.746948
92.035000	0.168270	0.103969	0.182774	0.259701	5804.494617	31782.935572	3751.275141	13774.353665
92.535500	0.169831	0.103069	0.181678	0.259923	5813.618036	31708.514145	3748.439258	13768.776146
93.035500	0.166900	0.102843	0.180960	0.263660	5768.472002	31447.158490	3738.915826	13675.300925
93.536000	0.168197	0.103709	0.178990	0.261266	5793.375690	31662.002605	3739.819222	13735.100582
94.036500	0.167648	0.102532	0.180372	0.261779	5786.190762	31550.438626	3741.670339	13722.264365
94.536500	0.168293	0.102342	0.188274	0.262730	5784.120795	31475.374018	3756.615937	13698.483552
95.034000	0.166869	0.101551	0.181116	0.265990	5752.654726	31210.439724	3734.304791	13617.436384
95.535000	0.169351	0.102550	0.178204	0.264475	5779.487666	31374.594205	3731.352389	13655.030069
96.035000	0.170440	0.102372	0.184209	0.264787	5784.730496	31342.549932	3743.440690	13647.278804
