sample name	sample
index	604
start time	 03-16-2021  05:21:09 PM


Wavelength (nm)	Absorbance
494.344910	NaN
494.563924	NaN
494.782919	NaN
495.001897	NaN
495.220856	0.206895
495.439797	0.197350
495.658719	0.165319
495.877624	0.114478
496.096510	0.248552
496.315378	0.104632
496.534227	0.057284
496.753059	0.223891
496.971872	0.185620
497.190667	0.146388
497.409444	0.134616
497.628203	0.133698
497.846943	0.134489
498.065665	0.134882
498.284369	0.134750
498.503055	0.137505
498.721723	0.136260
498.940372	0.137360
499.159003	0.136774
499.377616	0.137517
499.596210	0.137265
499.814787	0.136958
500.033345	0.136825
500.251885	0.136338
500.470406	0.136171
500.688910	0.138806
500.907395	0.139644
501.125862	0.140416
501.344311	0.139786
501.562742	0.141214
501.781154	0.141105
501.999548	0.140932
502.217924	0.140967
502.436282	0.140837
502.654621	0.139671
502.872942	0.138981
503.091245	0.138749
503.309530	0.138514
503.527797	0.137794
503.746045	0.138528
503.964275	0.138345
504.182487	0.139582
504.400681	0.139708
504.618856	0.138888
504.837013	0.137400
505.055152	0.137492
505.273273	0.138571
505.491376	0.139156
505.709460	0.138555
505.927526	0.138975
506.145574	0.139138
506.363604	0.139281
506.581615	0.139478
506.799608	0.141051
507.017583	0.142098
507.235540	0.141306
507.453478	0.139623
507.671399	0.141239
507.889301	0.140714
508.107185	0.140877
508.325050	0.141727
508.542898	0.141671
508.760727	0.142163
508.978538	0.141681
509.196330	0.143484
509.414105	0.144423
509.631861	0.143963
509.849599	0.144609
510.067319	0.144508
510.285021	0.143768
510.502704	0.144735
510.720369	0.143585
510.938016	0.143103
511.155645	0.142963
511.373255	0.143455
511.590848	0.143186
511.808422	0.144290
512.025977	0.143526
512.243515	0.143630
512.461034	0.143372
512.678536	0.144319
512.896018	0.144910
513.113483	0.145299
513.330930	0.145078
513.548358	0.145422
513.765768	0.145038
513.983160	0.146950
514.200533	0.147164
514.417889	0.148387
514.635226	0.148240
514.852545	0.148331
515.069845	0.147391
515.287128	0.148814
515.504392	0.148101
515.721638	0.148224
515.938866	0.147888
516.156075	0.148826
516.373267	0.148167
516.590440	0.149249
516.807594	0.148476
517.024731	0.148213
517.241850	0.148157
517.458950	0.149132
517.676032	0.149587
517.893095	0.148625
518.110141	0.148454
518.327168	0.149185
518.544177	0.148832
518.761168	0.150169
518.978141	0.151153
519.195095	0.151116
519.412031	0.152060
519.628949	0.152100
519.845849	0.154136
520.062731	0.153975
520.279594	0.154874
520.496439	0.155351
520.713266	0.155528
520.930074	0.155899
521.146865	0.155840
521.363637	0.155731
521.580391	0.155506
521.797127	0.154927
522.013844	0.154756
522.230543	0.154826
522.447224	0.154440
522.663887	0.154168
522.880532	0.154512
523.097158	0.155100
523.313766	0.155286
523.530356	0.155851
523.746928	0.156002
523.963481	0.157455
524.180017	0.157028
524.396534	0.157240
524.613032	0.158916
524.829513	0.159771
525.045975	0.160380
525.262420	0.159516
525.478845	0.160376
525.695253	0.160017
525.911643	0.159910
526.128014	0.159947
526.344367	0.160543
526.560702	0.159767
526.777018	0.159269
526.993316	0.159006
527.209597	0.159518
527.425858	0.159551
527.642102	0.160442
527.858328	0.160218
528.074535	0.160759
528.290724	0.162533
528.506894	0.163361
528.723047	0.163766
528.939181	0.163995
529.155297	0.164927
529.371395	0.165423
529.587475	0.165227
529.803536	0.165341
530.019579	0.165807
530.235604	0.165215
530.451611	0.164924
530.667600	0.164363
530.883570	0.164512
531.099522	0.164757
531.315456	0.164447
531.531372	0.164666
531.747269	0.165929
531.963148	0.165688
532.179009	0.165428
532.394852	0.165590
532.610676	0.166929
532.826482	0.167219
533.042271	0.167271
533.258040	0.167415
533.473792	0.168429
533.689525	0.168328
533.905240	0.169174
534.120937	0.169511
534.336616	0.170794
534.552277	0.170207
534.767919	0.170519
534.983543	0.171277
535.199149	0.172167
535.414736	0.172272
535.630306	0.172628
535.845857	0.172120
536.061390	0.171693
536.276904	0.171105
536.492401	0.172247
536.707879	0.173162
536.923339	0.173460
537.138781	0.173273
537.354204	0.173181
537.569610	0.173348
537.784997	0.174587
538.000366	0.175986
538.215716	0.176223
538.431049	0.176936
538.646363	0.176963
538.861659	0.177310
539.076937	0.178009
539.292196	0.178850
539.507438	0.179465
539.722661	0.179719
539.937866	0.179124
540.153052	0.180017
540.368221	0.179777
540.583371	0.180121
540.798503	0.179619
541.013617	0.180288
541.228712	0.180106
541.443789	0.179480
541.658848	0.179877
541.873889	0.181215
542.088912	0.181323
542.303916	0.181915
542.518902	0.182005
542.733870	0.183105
542.948820	0.183051
543.163752	0.183868
543.378665	0.184921
543.593560	0.185064
543.808437	0.185197
544.023295	0.185254
544.238136	0.184949
544.452958	0.185704
544.667762	0.185515
544.882548	0.185940
545.097315	0.186259
545.312064	0.186331
545.526795	0.186244
545.741508	0.186653
545.956203	0.186932
546.170879	0.187023
546.385537	0.187164
546.600177	0.187223
546.814799	0.187011
547.029402	0.186702
547.243988	0.187171
547.458555	0.187229
547.673103	0.186835
547.887634	0.186880
548.102146	0.187344
548.316640	0.187292
548.531116	0.187818
548.745574	0.188143
548.960013	0.188998
549.174435	0.188721
549.388838	0.189132
549.603222	0.189681
549.817589	0.190475
550.031937	0.190937
550.246267	0.191249
550.460579	0.191911
550.674873	0.192571
550.889148	0.192722
551.103405	0.193801
551.317644	0.193782
551.531865	0.193619
551.746068	0.193406
551.960252	0.193664
552.174418	0.194274
552.388566	0.194006
552.602696	0.193872
552.816807	0.194153
553.030900	0.193770
553.244975	0.194218
553.459032	0.195161
553.673070	0.195495
553.887091	0.195563
554.101093	0.195193
554.315077	0.195282
554.529042	0.195707
554.742990	0.195589
554.956919	0.196113
555.170830	0.196775
555.384722	0.196752
555.598597	0.196979
555.812453	0.196965
556.026291	0.197284
556.240111	0.198143
556.453913	0.197877
556.667696	0.198371
556.881461	0.198209
557.095208	0.198308
557.308937	0.198424
557.522647	0.198290
557.736339	0.198679
557.950013	0.198454
558.163669	0.198630
558.377307	0.198780
558.590926	0.198991
558.804527	0.199218
559.018110	0.199065
559.231675	0.199022
559.445221	0.199203
559.658749	0.199027
559.872259	0.199485
560.085751	0.199356
560.299225	0.199410
560.512680	0.199127
560.726117	0.199348
560.939536	0.199824
561.152937	0.199915
561.366319	0.200322
561.579683	0.200538
561.793029	0.201265
562.006357	0.201101
562.219667	0.201503
562.432958	0.201862
562.646231	0.201759
562.859486	0.201663
563.072723	0.202397
563.285941	0.202442
563.499141	0.202672
563.712323	0.202609
563.925487	0.202575
564.138632	0.202899
564.351760	0.203129
564.564869	0.203933
564.777960	0.204495
564.991032	0.204792
565.204087	0.205530
565.417123	0.206151
565.630141	0.205927
565.843140	0.206306
566.056122	0.206815
566.269085	0.206787
566.482030	0.206820
566.694957	0.205941
566.907866	0.205166
567.120756	0.204710
567.333628	0.204460
567.546482	0.204617
567.759318	0.205098
567.972135	0.204424
568.184935	0.204205
568.397716	0.204228
568.610478	0.204960
568.823223	0.205829
569.035949	0.206046
569.248657	0.206385
569.461347	0.206342
569.674019	0.206774
569.886672	0.207171
570.099308	0.207690
570.311925	0.207604
570.524523	0.208204
570.737104	0.208007
570.949666	0.208044
571.162210	0.207738
571.374736	0.208233
571.587244	0.207639
571.799733	0.207563
572.012205	0.207698
572.224658	0.207833
572.437092	0.207620
572.649509	0.207848
572.861907	0.208234
573.074287	0.208994
573.286649	0.209041
573.498993	0.209645
573.711318	0.210119
573.923625	0.210411
574.135914	0.210627
574.348185	0.211026
574.560438	0.210955
574.772672	0.211491
574.984888	0.211363
575.197086	0.211335
575.409266	0.211055
575.621427	0.210612
575.833570	0.210107
576.045695	0.210560
576.257802	0.210370
576.469890	0.211051
576.681961	0.210518
576.894013	0.211026
577.106046	0.211157
577.318062	0.211913
577.530059	0.212378
577.742039	0.212927
577.954000	0.212824
578.165942	0.212938
578.377867	0.212960
578.589773	0.213623
578.801661	0.214040
579.013531	0.214161
579.225382	0.213867
579.437216	0.213558
579.649031	0.213910
579.860828	0.213888
580.072606	0.214360
580.284367	0.213850
580.496109	0.213583
580.707833	0.212983
580.919539	0.213599
581.131227	0.213882
581.342896	0.214642
581.554547	0.214385
581.766180	0.214770
581.977795	0.214289
582.189391	0.214514
582.400969	0.215168
582.612529	0.215339
582.824071	0.215401
583.035595	0.215476
583.247100	0.215921
583.458587	0.216610
583.670056	0.216542
583.881506	0.216792
584.092939	0.217052
584.304353	0.216493
584.515749	0.216926
584.727127	0.217016
584.938486	0.217354
585.149828	0.217089
585.361151	0.217020
585.572456	0.217184
585.783742	0.217518
585.995011	0.217923
586.206261	0.218245
586.417493	0.218386
586.628706	0.218629
586.839902	0.218569
587.051079	0.219071
587.262238	0.219012
587.473379	0.219149
587.684502	0.219001
587.895606	0.218839
588.106692	0.218729
588.317760	0.218464
588.528810	0.218266
588.739841	0.218195
588.950855	0.217830
589.161850	0.218089
589.372827	0.218634
589.583785	0.219031
589.794726	0.219313
590.005648	0.219983
590.216552	0.220576
590.427437	0.221009
590.638305	0.220781
590.849154	0.220867
591.059985	0.220949
591.270798	0.220490
591.481592	0.220585
591.692369	0.220749
591.903127	0.220713
592.113867	0.220291
592.324588	0.220521
592.535292	0.221264
592.745977	0.221728
592.956644	0.221958
593.167293	0.222480
593.377923	0.222530
593.588536	0.222629
593.799130	0.222576
594.009706	0.223147
594.220263	0.222765
594.430803	0.222984
594.641324	0.223040
594.851827	0.223224
595.062312	0.223144
595.272778	0.223238
595.483227	0.222790
595.693657	0.223127
595.904069	0.223045
596.114462	0.223218
596.324838	0.223153
596.535195	0.223468
596.745534	0.223333
596.955855	0.223605
597.166157	0.223802
597.376441	0.224597
597.586707	0.224562
597.796955	0.224737
598.007185	0.224833
598.217396	0.225129
598.427589	0.225096
598.637764	0.225189
598.847921	0.225092
599.058060	0.225007
599.268180	0.225220
599.478282	0.225747
599.688366	0.225633
599.898431	0.225889
600.108479	0.225591
600.318508	0.225885
600.528519	0.226063
600.738511	0.226416
600.948486	0.227064
601.158442	0.227343
601.368380	0.227200
601.578300	0.228007
601.788202	0.228327
601.998085	0.228652
602.207950	0.228518
602.417797	0.228561
602.627626	0.228964
602.837436	0.229004
603.047228	0.229071
603.257002	0.229358
603.466758	0.228731
603.676496	0.228585
603.886215	0.228435
604.095916	0.228700
604.305599	0.229371
604.515264	0.229004
604.724910	0.229271
604.934538	0.229274
605.144148	0.229509
605.353740	0.230372
605.563314	0.230765
605.772869	0.231395
605.982406	0.231592
606.191925	0.231691
606.401425	0.232089
606.610908	0.231950
606.820372	0.231834
607.029818	0.231746
607.239246	0.231388
607.448655	0.231611
607.658047	0.231478
607.867420	0.231924
608.076775	0.232377
608.286111	0.232392
608.495430	0.232623
608.704730	0.233392
608.914012	0.233604
609.123275	0.233702
609.332521	0.233892
609.541748	0.234104
609.750957	0.233953
609.960148	0.233722
610.169321	0.233671
610.378475	0.233663
610.587611	0.233170
610.796729	0.233232
611.005829	0.233942
611.214910	0.234037
611.423974	0.234700
611.633019	0.234728
611.842045	0.235039
612.051054	0.235530
612.260044	0.235822
612.469017	0.236297
612.677970	0.236421
612.886906	0.236232
613.095824	0.236100
613.304723	0.235916
613.513604	0.236186
613.722467	0.235988
613.931311	0.236053
614.140138	0.236245
614.348946	0.236178
614.557736	0.236446
614.766507	0.236541
614.975261	0.236886
615.183996	0.236781
615.392713	0.237026
615.601412	0.237366
615.810092	0.237470
616.018754	0.237597
616.227399	0.237727
616.436024	0.237687
616.644632	0.237769
616.853222	0.237782
617.061793	0.238350
617.270346	0.238297
617.478880	0.238483
617.687397	0.238876
617.895895	0.239156
618.104375	0.239484
618.312837	0.239761
618.521281	0.240167
618.729706	0.240327
618.938113	0.240337
619.146502	0.240708
619.354873	0.240688
619.563226	0.240694
619.771560	0.240926
619.979876	0.240982
620.188174	0.241192
620.396453	0.240949
620.604715	0.241024
620.812958	0.241135
621.021183	0.241259
621.229390	0.241501
621.437578	0.241423
621.645748	0.241203
621.853900	0.241592
622.062034	0.241541
622.270150	0.242080
622.478247	0.242345
622.686326	0.242729
622.894387	0.242793
623.102430	0.242613
623.310454	0.242649
623.518461	0.242926
623.726449	0.242631
623.934418	0.242608
624.142370	0.242499
624.350303	0.242664
624.558218	0.242308
624.766115	0.242565
624.973994	0.242857
625.181855	0.242991
625.389697	0.243114
625.597521	0.243547
625.805327	0.243906
626.013114	0.244106
626.220883	0.244299
626.428634	0.244664
626.636367	0.244765
626.844082	0.244835
627.051778	0.245011
627.259457	0.244845
627.467117	0.244969
627.674758	0.245304
627.882382	0.245141
628.089987	0.245258
628.297574	0.245545
628.505143	0.245615
628.712694	0.246072
628.920226	0.246504
629.127740	0.246852
629.335236	0.247093
629.542714	0.247200
629.750174	0.247488
629.957615	0.247830
630.165038	0.247742
630.372443	0.247925
630.579829	0.247997
630.787198	0.248129
630.994548	0.248332
631.201880	0.248423
631.409194	0.248119
631.616489	0.248726
631.823766	0.248750
632.031025	0.249058
632.238266	0.249220
632.445489	0.249425
632.652693	0.249651
632.859879	0.250371
633.067047	0.250311
633.274197	0.250928
633.481329	0.250869
633.688442	0.250931
633.895537	0.251114
634.102614	0.251418
634.309672	0.251495
634.516713	0.251371
634.723735	0.250922
634.930739	0.251173
635.137724	0.250912
635.344692	0.250852
635.551641	0.250987
635.758572	0.251026
635.965485	0.251100
636.172379	0.250713
636.379256	0.251023
636.586114	0.251447
636.792954	0.251713
636.999775	0.252300
637.206579	0.252483
637.413364	0.252781
637.620131	0.253183
637.826880	0.253498
638.033610	0.253933
638.240323	0.254309
638.447017	0.254351
638.653692	0.254535
638.860350	0.254502
639.066990	0.254838
639.273611	0.254791
639.480214	0.254809
639.686798	0.254868
639.893365	0.255520
640.099913	0.255730
640.306443	0.255827
640.512955	0.255909
640.719449	0.256259
640.925924	0.256093
641.132381	0.256327
641.338820	0.256746
641.545241	0.256926
641.751644	0.256768
641.958028	0.256754
642.164394	0.256848
642.370742	0.257144
642.577071	0.257222
642.783383	0.257685
642.989676	0.257635
643.195951	0.257460
643.402207	0.257655
643.608446	0.257867
643.814666	0.258119
644.020868	0.258332
644.227052	0.258391
644.433218	0.258448
644.639365	0.258763
644.845494	0.259196
645.051605	0.259235
645.257698	0.259271
645.463772	0.259497
645.669828	0.259490
645.875866	0.259878
646.081886	0.259937
646.287888	0.260100
646.493871	0.260097
646.699836	0.260338
646.905783	0.260578
647.111712	0.260711
647.317622	0.260665
647.523514	0.260964
647.729388	0.260558
647.935244	0.260578
648.141082	0.260589
648.346901	0.260822
648.552702	0.261043
648.758485	0.261245
648.964250	0.261512
649.169996	0.261971
649.375724	0.262088
649.581434	0.262549
649.787126	0.263180
649.992800	0.263903
650.198455	0.264182
650.404092	0.263990
650.609711	0.264045
650.815311	0.264034
651.020894	0.264316
651.226458	0.264480
651.432004	0.264608
651.637532	0.264624
651.843041	0.264697
652.048532	0.264714
652.254006	0.264964
652.459460	0.265372
652.664897	0.265645
652.870315	0.265579
653.075716	0.265668
653.281097	0.265942
653.486461	0.265945
653.691807	0.265981
653.897134	0.266189
654.102443	0.266430
654.307734	0.266514
654.513006	0.266530
654.718261	0.266632
654.923497	0.266876
655.128715	0.267182
655.333915	0.267589
655.539096	0.267791
655.744259	0.267725
655.949404	0.267910
656.154531	0.268118
656.359640	0.268260
656.564730	0.268458
656.769802	0.268746
656.974856	0.268930
657.179892	0.268999
657.384909	0.269006
657.589908	0.269352
657.794889	0.269352
657.999852	0.269582
658.204797	0.269779
658.409723	0.270079
658.614631	0.270114
658.819521	0.270394
659.024393	0.270472
659.229246	0.271221
659.434081	0.271746
659.638898	0.272587
659.843697	0.272832
660.048478	0.273390
660.253240	0.273590
660.457984	0.274129
660.662710	0.274213
660.867417	0.274574
661.072107	0.274334
661.276778	0.274346
661.481431	0.274166
661.686066	0.274112
661.890682	0.273986
662.095281	0.274099
662.299861	0.274002
662.504422	0.274420
662.708966	0.274535
662.913491	0.274867
663.117999	0.275208
663.322488	0.275603
663.526958	0.276298
663.731411	0.276552
663.935845	0.276865
664.140261	0.277296
664.344659	0.277325
664.549038	0.277502
664.753400	0.277406
664.957743	0.277356
665.162068	0.277258
665.366375	0.277005
665.570663	0.277364
665.774933	0.277713
665.979185	0.277444
666.183419	0.277473
666.387635	0.277675
666.591832	0.277970
666.796011	0.278083
667.000172	0.278399
667.204315	0.278459
667.408439	0.278671
667.612545	0.278791
667.816634	0.279313
668.020703	0.279833
668.224755	0.279897
668.428788	0.280254
668.632803	0.280975
668.836800	0.281067
669.040779	0.281234
669.244739	0.281427
669.448681	0.281759
669.652605	0.282167
669.856511	0.282471
670.060399	0.282815
670.264268	0.282910
670.468119	0.282684
670.671952	0.283099
670.875767	0.283831
671.079563	0.283940
671.283341	0.284038
671.487101	0.283925
671.690843	0.283798
671.894567	0.284067
672.098272	0.284478
672.301959	0.284817
672.505628	0.284932
672.709278	0.285261
672.912911	0.285806
673.116525	0.286196
673.320121	0.286625
673.523699	0.287204
673.727258	0.287473
673.930799	0.287534
674.134322	0.288013
674.337827	0.288274
674.541314	0.288132
674.744782	0.288185
674.948232	0.288193
675.151664	0.288325
675.355078	0.288241
675.558474	0.288503
675.761851	0.289214
675.965210	0.289325
676.168551	0.289720
676.371873	0.290069
676.575178	0.290045
676.778464	0.290318
676.981732	0.290519
677.184981	0.290838
677.388213	0.291019
677.591426	0.290771
677.794621	0.290550
677.997798	0.290541
678.200956	0.290869
678.404097	0.291498
678.607219	0.291688
678.810323	0.291836
679.013408	0.291968
679.216476	0.292420
679.419525	0.292527
679.622556	0.292982
679.825569	0.293243
680.028563	0.293474
680.231540	0.293528
680.434498	0.293885
680.637438	0.294152
680.840359	0.294309
681.043263	0.294163
681.246148	0.294680
681.449015	0.294824
681.651864	0.295044
681.854694	0.295222
682.057506	0.295452
682.260301	0.295724
682.463076	0.296280
682.665834	0.296543
682.868573	0.297067
683.071295	0.297148
683.273998	0.297763
683.476682	0.298023
683.679349	0.298222
683.881997	0.298344
684.084627	0.298326
684.287239	0.298239
684.489833	0.298372
684.692408	0.298530
684.894965	0.298650
685.097504	0.298528
685.300025	0.298558
685.502527	0.298265
685.705012	0.298434
685.907478	0.298818
686.109925	0.299038
686.312355	0.299054
686.514766	0.299132
686.717159	0.299072
686.919534	0.299368
687.121891	0.299340
687.324230	0.300053
687.526550	0.299987
687.728852	0.299893
687.931136	0.299917
688.133401	0.300451
688.335649	0.300432
688.537878	0.300816
688.740089	0.300790
688.942281	0.301176
689.144456	0.301257
689.346612	0.301747
689.548750	0.301932
689.750870	0.302239
689.952971	0.302236
690.155055	0.302939
690.357120	0.303202
690.559167	0.303357
690.761195	0.303812
690.963206	0.304050
691.165198	0.304137
691.367172	0.304472
691.569128	0.304601
691.771065	0.304982
691.972984	0.304905
692.174885	0.305254
692.376768	0.305623
692.578633	0.305727
692.780479	0.305955
692.982308	0.306197
693.184118	0.306391
693.385909	0.306361
693.587683	0.306092
693.789438	0.306094
693.991175	0.306186
694.192894	0.306359
694.394595	0.306374
694.596277	0.305895
694.797941	0.305842
694.999587	0.306007
695.201215	0.306273
695.402824	0.306713
695.604416	0.307140
695.805989	0.307183
696.007543	0.307234
696.209080	0.307495
696.410598	0.308105
696.612099	0.308483
696.813580	0.308654
697.015044	0.309016
697.216490	0.309399
697.417917	0.309465
697.619326	0.309849
697.820717	0.310168
698.022089	0.310292
698.223444	0.310516
698.424780	0.310751
698.626098	0.310616
698.827397	0.310800
699.028679	0.310581
699.229942	0.310508
699.431187	0.310257
699.632414	0.310317
699.833622	0.310369
700.034813	0.310522
700.235985	0.310605
700.437139	0.310976
700.638274	0.310787
700.839392	0.310936
701.040491	0.310900
701.241572	0.311004
701.442635	0.310935
701.643679	0.310837
701.844706	0.310582
702.045714	0.310634
702.246704	0.310455
702.447675	0.310504
702.648629	0.310761
702.849564	0.311106
703.050481	0.311176
703.251380	0.311346
703.452260	0.311683
703.653122	0.311977
703.853966	0.312010
704.054792	0.311847
704.255600	0.311667
704.456389	0.311591
704.657160	0.311623
704.857913	0.311971
705.058648	0.312066
705.259365	0.312102
705.460063	0.312141
705.660743	0.312139
705.861405	0.312589
706.062048	0.312804
706.262674	0.312784
706.463281	0.312824
706.663870	0.312555
706.864441	0.312345
707.064993	0.312239
707.265527	0.312436
707.466043	0.312418
707.666541	0.312325
707.867021	0.312684
708.067482	0.312628
708.267925	0.312664
708.468350	0.312821
708.668757	0.313055
708.869145	0.313227
709.069516	0.313095
709.269868	0.313050
709.470201	0.313229
709.670517	0.312870
709.870814	0.313087
710.071093	0.313049
710.271354	0.313114
710.471597	0.312847
710.671821	0.312762
710.872028	0.312496
711.072216	0.312599
711.272385	0.312519
711.472537	0.312849
711.672670	0.312954
711.872785	0.312991
712.072882	0.312940
712.272961	0.313076
712.473021	0.312878
712.673063	0.312822
712.873087	0.312739
713.073093	0.312532
713.273081	0.312600
713.473050	0.312501
713.673001	0.312238
713.872934	0.312145
714.072849	0.312206
714.272745	0.312506
714.472623	0.312811
714.672483	0.313050
714.872325	0.313177
715.072148	0.313254
715.271954	0.313250
715.471741	0.313426
715.671509	0.313261
715.871260	0.313252
716.070992	0.313108
716.270707	0.313144
716.470403	0.312796
716.670080	0.312550
716.869740	0.312194
717.069381	0.312211
717.269004	0.311839
717.468609	0.311789
717.668195	0.311554
717.867764	0.311403
718.067314	0.311079
718.266846	0.310900
718.466360	0.311059
718.665855	0.310776
718.865332	0.310359
719.064791	0.310638
719.264232	0.310715
719.463655	0.310366
719.663059	0.309948
719.862445	0.309812
720.061813	0.309770
720.261163	0.309355
720.460494	0.309461
720.659807	0.309313
720.859102	0.309220
721.058379	0.309002
721.257638	0.309150
721.456878	0.309427
721.656100	0.309671
721.855304	0.309484
722.054490	0.309797
722.253657	0.309836
722.452806	0.310018
722.651937	0.310070
722.851050	0.309977
723.050145	0.309836
723.249221	0.309743
723.448279	0.309384
723.647319	0.309323
723.846340	0.309221
724.045344	0.308963
724.244329	0.308810
724.443296	0.308267
724.642245	0.308168
724.841175	0.307850
725.040088	0.307900
725.238982	0.307573
725.437857	0.307651
725.636715	0.307035
725.835554	0.306760
726.034376	0.306534
726.233179	0.306364
726.431963	0.305962
726.630730	0.305975
726.829478	0.305640
727.028208	0.305418
727.226920	0.304943
727.425614	0.305309
727.624289	0.305043
727.822946	0.304654
728.021585	0.304437
728.220206	0.304449
728.418808	0.304328
728.617392	0.304055
728.815958	0.304203
729.014506	0.304192
729.213036	0.303645
729.411547	0.303823
729.610040	0.303777
729.808515	0.303763
730.006972	0.303619
730.205410	0.303701
730.403831	0.303567
730.602233	0.303269
730.800616	0.302782
730.998982	0.302778
731.197329	0.302163
731.395658	0.301909
731.593969	0.301708
731.792262	0.301493
731.990536	0.300898
732.188793	0.300745
732.387031	0.300500
732.585250	0.300511
732.783452	0.300144
732.981635	0.300194
733.179800	0.300185
733.377947	0.300065
733.576076	0.299735
733.774186	0.299943
733.972278	0.299619
734.170352	0.299638
734.368408	0.299598
734.566446	0.299211
734.764465	0.298974
734.962466	0.298759
735.160449	0.298383
735.358413	0.298492
735.556360	0.298430
735.754288	0.298084
735.952198	0.297821
736.150090	0.297605
736.347963	0.297720
736.545818	0.297465
736.743655	0.297284
736.941474	0.297145
737.139275	0.296705
737.337057	0.296423
737.534821	0.296516
737.732567	0.296280
737.930295	0.296137
738.128005	0.295860
738.325696	0.295671
738.523369	0.295259
738.721024	0.295161
738.918660	0.295182
739.116279	0.294576
739.313879	0.294485
739.511461	0.294116
739.709024	0.293725
739.906570	0.293844
740.104097	0.293794
740.301606	0.293897
740.499097	0.293819
740.696569	0.293545
740.894024	0.293501
741.091460	0.293249
741.288878	0.293385
741.486277	0.293316
741.683659	0.293060
741.881022	0.292764
742.078367	0.292144
742.275694	0.291745
742.473002	0.291629
742.670293	0.291578
742.867565	0.291421
743.064819	0.290798
743.262054	0.290451
743.459272	0.289934
743.656471	0.289319
743.853652	0.289329
744.050815	0.289104
744.247959	0.288724
744.445085	0.288497
744.642194	0.288141
744.839283	0.288351
745.036355	0.288243
745.233408	0.288019
745.430444	0.288050
745.627461	0.287580
745.824459	0.287355
746.021440	0.287297
746.218402	0.287058
746.415346	0.286991
746.612272	0.286522
746.809180	0.286555
747.006069	0.286487
747.202940	0.286475
747.399793	0.286821
747.596628	0.286802
747.793444	0.286651
747.990243	0.286380
748.187023	0.286160
748.383784	0.285852
748.580528	0.285021
748.777253	0.284601
748.973960	0.284309
749.170649	0.283794
749.367320	0.283158
749.563973	0.282789
749.760607	0.282490
749.957223	0.281961
750.153821	0.281786
750.350400	0.282161
750.546962	0.282234
750.743505	0.282369
750.940030	0.282008
751.136536	0.282210
751.333025	0.282285
751.529495	0.282413
751.725947	0.282514
751.922381	0.282269
752.118796	0.282282
752.315194	0.282131
752.511573	0.281919
752.707934	0.282070
752.904276	0.281801
753.100601	0.281380
753.296907	0.281070
753.493195	0.280925
753.689465	0.280847
753.885716	0.280355
754.081949	0.279800
754.278164	0.279498
754.474361	0.279251
754.670540	0.279115
754.866700	0.279050
755.062843	0.278790
755.258967	0.278654
755.455072	0.278679
755.651160	0.278379
755.847229	0.278578
756.043280	0.278374
756.239313	0.278073
756.435328	0.277961
756.631324	0.277731
756.827302	0.277701
757.023262	0.277618
757.219204	0.277444
757.415127	0.277425
757.611033	0.277140
757.806920	0.277021
758.002788	0.277087
758.198639	0.276611
758.394471	0.276257
758.590286	0.276159
758.786081	0.275920
758.981859	0.275899
759.177619	0.275942
759.373360	0.276061
759.569083	0.275679
759.764788	0.275356
759.960474	0.275758
760.156143	0.275734
760.351793	0.275548
760.547425	0.275402
760.743038	0.274802
760.938634	0.274840
761.134211	0.274299
761.329770	0.274390
761.525311	0.274388
761.720833	0.274103
761.916338	0.274204
762.111824	0.274037
762.307292	0.273676
762.502741	0.273913
762.698173	0.273472
762.893586	0.273311
763.088981	0.273199
763.284358	0.273154
763.479716	0.273207
763.675057	0.272916
763.870379	0.272558
764.065683	0.272513
764.260968	0.272453
764.456236	0.272362
764.651485	0.272666
764.846716	0.272414
765.041929	0.272415
765.237123	0.271903
765.432299	0.271737
765.627457	0.271827
765.822597	0.272014
766.017719	0.271686
766.212822	0.271612
766.407907	0.271329
766.602974	0.271167
766.798023	0.270698
766.993054	0.270689
767.188066	0.270689
767.383060	0.270556
767.578036	0.270171
767.772993	0.269781
767.967933	0.269437
768.162854	0.269441
768.357757	0.269303
768.552642	0.269423
768.747508	0.269119
768.942356	0.268600
769.137186	0.268559
769.331998	0.268404
769.526792	0.268806
769.721567	0.268929
769.916324	0.268723
770.111063	0.268851
770.305784	0.268919
770.500486	0.269149
770.695171	0.269438
770.889837	0.269523
771.084484	0.269161
771.279114	0.268725
771.473725	0.268750
771.668318	0.268671
771.862893	0.268267
772.057450	0.267960
772.251988	0.268075
772.446509	0.268196
772.641011	0.267881
772.835494	0.268324
773.029960	0.268421
773.224407	0.268129
773.418836	0.268026
773.613247	0.268196
773.807640	0.268172
774.002014	0.267998
774.196370	0.267782
774.390708	0.267764
774.585028	0.267533
774.779330	0.267461
774.973613	0.267659
775.167878	0.267781
775.362125	0.267551
775.556354	0.267510
775.750564	0.267223
775.944756	0.267164
776.138930	0.267099
776.333086	0.267099
776.527223	0.267156
776.721343	0.266980
776.915444	0.266786
777.109526	0.267147
777.303591	0.267130
777.497637	0.266992
777.691666	0.266967
777.885676	0.267006
778.079667	0.266932
778.273641	0.266919
778.467596	0.266898
778.661533	0.266625
778.855452	0.266432
779.049352	0.266271
779.243235	0.266433
779.437099	0.266639
779.630945	0.266560
779.824773	0.266622
780.018582	0.266794
780.212373	0.266735
780.406146	0.267083
780.599901	0.266919
780.793638	0.266946
780.987356	0.266961
781.181056	0.266771
781.374738	0.266832
781.568402	0.266791
781.762047	0.266817
781.955674	0.267033
782.149283	0.267312
782.342874	0.267304
782.536447	0.267497
782.730001	0.267673
782.923537	0.267736
783.117055	0.267760
783.310555	0.268046
783.504036	0.267910
783.697499	0.267920
783.890944	0.267613
784.084371	0.268065
784.277780	0.268195
784.471170	0.267899
784.664542	0.268202
784.857896	0.268226
785.051231	0.267882
785.244549	0.268074
785.437848	0.267862
785.631129	0.267836
785.824392	0.267570
786.017636	0.267714
786.210863	0.267726
786.404071	0.267389
786.597260	0.267436
786.790432	0.267696
786.983585	0.267439
787.176721	0.267650
787.369838	0.267713
787.562936	0.268079
787.756017	0.268022
787.949079	0.268578
788.142123	0.269186
788.335149	0.269009
788.528156	0.269269
788.721146	0.269461
788.914117	0.269476
789.107070	0.269595
789.300005	0.269708
789.492921	0.269791
789.685819	0.269708
789.878699	0.269367
790.071561	0.269755
790.264405	0.269714
790.457230	0.270004
790.650037	0.270377
790.842826	0.270665
791.035597	0.270716
791.228349	0.270650
791.421084	0.270701
791.613800	0.271310
791.806497	0.271393
791.999177	0.271662
792.191838	0.271537
792.384481	0.271531
792.577106	0.271633
792.769713	0.271400
792.962301	0.271787
793.154871	0.271836
793.347423	0.271366
793.539957	0.271427
793.732473	0.271398
793.924970	0.271674
794.117449	0.271792
794.309910	0.271938
794.502353	0.272352
794.694777	0.272301
794.887183	0.272895
795.079571	0.272997
795.271941	0.273286
795.464293	0.273573
795.656626	0.273772
795.848941	0.273671
796.041238	0.273894
796.233516	0.274263
796.425777	0.274604
796.618019	0.274481
796.810243	0.274746
797.002449	0.275156
797.194636	0.275131
797.386805	0.275288
797.578956	0.275339
797.771089	0.275633
797.963204	0.275644
798.155300	0.275779
798.347378	0.275921
798.539438	0.276424
798.731480	0.276467
798.923503	0.276758
799.115509	0.277063
799.307496	0.277498
799.499465	0.277207
799.691415	0.277447
799.883348	0.277600
800.075262	0.277862
800.267158	0.277585
800.459035	0.277850
800.650895	0.278099
800.842736	0.278294
801.034559	0.278548
801.226364	0.279156
801.418150	0.279200
801.609919	0.279403
801.801669	0.279476
801.993401	0.280037
802.185114	0.280389
802.376810	0.280616
802.568487	0.280914
802.760146	0.281224
802.951787	0.281344
803.143409	0.281898
803.335014	0.281864
803.526600	0.282269
803.718168	0.282446
803.909717	0.282260
804.101249	0.282584
804.292762	0.282667
804.484257	0.283027
804.675734	0.283197
804.867192	0.283176
805.058632	0.283770
805.250054	0.283983
805.441458	0.284059
805.632844	0.284307
805.824211	0.284425
806.015561	0.284622
806.206891	0.284631
806.398204	0.284842
806.589499	0.284972
806.780775	0.285068
806.972033	0.285345
807.163273	0.285399
807.354495	0.285890
807.545698	0.286079
807.736883	0.286310
807.928050	0.286998
808.119199	0.287290
808.310329	0.287801
808.501441	0.288458
808.692535	0.288891
808.883611	0.289674
809.074669	0.290161
809.265708	0.290520
809.456729	0.291156
809.647732	0.291248
809.838717	0.291960
810.029683	0.292463
810.220632	0.292380
810.411562	0.292383
810.602474	0.292224
810.793367	0.292106
810.984242	0.292658
811.175100	0.292841
811.365938	0.292980
811.556759	0.292923
811.747562	0.293202
811.938346	0.293485
812.129112	0.293993
812.319860	0.294647
812.510589	0.294958
812.701300	0.295004
812.891994	0.295301
813.082668	0.295211
813.273325	0.295490
813.463964	0.295525
813.654584	0.296006
813.845186	0.296163
814.035769	0.296521
814.226335	0.296895
814.416882	0.297012
814.607411	0.297229
814.797922	0.298020
814.988415	0.298104
815.178889	0.298466
815.369345	0.299180
815.559783	0.299370
815.750203	0.299891
815.940605	0.300097
816.130988	0.301166
816.321353	0.301162
816.511700	0.301539
816.702028	0.301843
816.892339	0.302100
817.082631	0.301948
817.272905	0.302355
817.463161	0.302358
817.653398	0.302746
817.843617	0.302728
818.033819	0.303441
818.224001	0.303715
818.414166	0.304509
818.604312	0.305020
818.794440	0.305199
818.984550	0.305604
819.174642	0.306160
819.364716	0.306526
819.554771	0.306476
819.744808	0.306744
819.934827	0.307311
820.124827	0.307438
820.314810	0.307361
820.504774	0.307872
820.694720	0.308096
820.884647	0.308585
821.074557	0.308903
821.264448	0.309406
821.454321	0.309930
821.644176	0.309998
821.834012	0.310280
822.023831	0.311105
822.213631	0.311347
822.403413	0.311951
822.593176	0.312212
822.782922	0.312357
822.972649	0.312480
823.162358	0.312553
823.352049	0.313146
823.541721	0.313592
823.731376	0.313679
823.921012	0.313924
824.110629	0.314619
824.300229	0.314905
824.489811	0.315828
824.679374	0.316441
824.868919	0.316924
825.058445	0.316847
825.247954	0.317460
825.437444	0.317568
825.626916	0.318584
825.816370	0.318375
826.005806	0.318620
826.195223	0.318786
826.384622	0.319228
826.574003	0.319490
826.763366	0.319996
826.952711	0.320323
827.142037	0.321000
827.331345	0.321228
827.520635	0.321774
827.709906	0.322283
827.899160	0.322588
828.088395	0.322916
828.277612	0.323319
828.466810	0.324083
828.655991	0.324339
828.845153	0.324923
829.034297	0.325142
829.223423	0.325555
829.412531	0.325836
829.601620	0.325975
829.790691	0.326384
829.979744	0.327069
830.168779	0.327469
830.357795	0.328137
830.546793	0.328506
830.735773	0.329129
830.924735	0.329631
831.113679	0.330095
831.302604	0.330907
831.491511	0.331306
831.680400	0.331679
831.869271	0.332241
832.058123	0.332701
832.246957	0.333075
832.435773	0.333323
832.624571	0.333744
832.813351	0.334274
833.002112	0.335032
833.190855	0.335621
833.379580	0.336061
833.568287	0.336555
833.756975	0.336862
833.945645	0.337628
834.134297	0.338346
834.322931	0.338892
834.511547	0.339332
834.700144	0.339557
834.888723	0.340289
835.077284	0.340783
835.265826	0.341302
835.454351	0.341905
835.642857	0.342077
835.831345	0.342068
836.019815	0.342796
836.208266	0.343418
836.396699	0.343991
836.585114	0.344173
836.773511	0.344473
836.961890	0.344697
837.150250	0.344950
837.338592	0.345223
837.526916	0.345882
837.715222	0.346167
837.903510	0.346335
838.091779	0.346628
838.280030	0.347075
838.468263	0.347855
838.656477	0.348055
838.844674	0.348744
839.032852	0.349411
839.221012	0.349866
839.409153	0.349956
839.597277	0.350745
839.785382	0.351079
839.973469	0.351184
840.161538	0.351410
840.349589	0.352214
840.537621	0.352661
840.725635	0.353105
840.913631	0.353652
841.101609	0.354648
841.289568	0.355222
841.477509	0.356278
841.665432	0.357174
841.853337	0.357827
842.041224	0.358294
842.229092	0.359002
842.416942	0.359595
842.604774	0.360359
842.792588	0.360730
842.980383	0.360998
843.168160	0.361308
843.355919	0.361837
843.543660	0.362520
843.731382	0.362949
843.919087	0.363103
844.106773	0.364075
844.294441	0.364421
844.482090	0.365147
844.669722	0.366097
844.857335	0.366251
845.044930	0.366723
845.232507	0.366752
845.420065	0.367078
845.607605	0.367279
845.795127	0.367303
845.982631	0.367934
846.170117	0.368283
846.357584	0.368434
846.545033	0.368685
846.732464	0.369034
846.919877	0.369670
847.107272	0.370411
847.294648	0.371129
847.482006	0.372044
847.669346	0.372614
847.856667	0.372870
848.043971	0.373023
848.231256	0.373834
848.418523	0.374547
848.605771	0.374807
848.793002	0.374918
848.980214	0.375961
849.167408	0.376211
849.354584	0.376575
849.541742	0.377157
849.728881	0.377666
849.916002	0.378065
850.103105	0.377975
850.290190	0.378922
850.477256	0.379643
850.664304	0.379628
850.851334	0.379930
851.038346	0.380221
851.225340	0.380738
851.412315	0.381449
851.599272	0.381904
851.786211	0.382591
851.973132	0.382876
852.160034	0.383406
852.346918	0.383775
852.533784	0.384162
852.720632	0.384741
852.907462	0.385031
853.094273	0.385489
853.281066	0.386263
853.467841	0.387069
853.654598	0.387557
853.841336	0.387935
854.028056	0.388769
854.214758	0.389528
854.401442	0.389520
854.588107	0.390071
854.774755	0.390403
854.961384	0.390793
855.147995	0.391501
855.334587	0.392211
855.521162	0.392921
855.707718	0.393082
855.894256	0.393507
856.080775	0.394329
856.267277	0.394782
856.453760	0.395540
856.640225	0.395850
856.826672	0.396219
857.013101	0.396880
857.199511	0.397171
857.385903	0.397883
857.572277	0.398254
857.758633	0.398727
857.944970	0.399309
858.131290	0.399652
858.317591	0.400755
858.503873	0.401229
858.690138	0.401141
858.876384	0.401411
859.062612	0.401492
859.248822	0.401834
859.435014	0.402502
859.621188	0.403320
859.807343	0.404187
859.993480	0.404216
860.179599	0.404036
860.365699	0.404498
860.551781	0.405171
860.737846	0.405355
860.923891	0.405743
861.109919	0.406048
861.295929	0.406416
861.481920	0.406751
861.667893	0.406935
861.853848	0.407523
862.039784	0.408237
862.225702	0.408311
862.411603	0.408898
862.597484	0.409463
862.783348	0.409769
862.969193	0.409644
863.155021	0.409983
863.340830	0.410498
863.526620	0.411406
863.712393	0.411343
863.898147	0.412099
864.083883	0.412891
864.269601	0.413733
864.455301	0.414225
864.640982	0.415031
864.826645	0.414975
865.012290	0.415426
865.197917	0.415356
865.383526	0.416053
865.569116	0.416766
865.754688	0.417114
865.940242	0.416940
866.125777	0.417135
866.311295	0.417175
866.496794	0.418140
866.682275	0.418993
866.867737	0.419587
867.053182	0.419998
867.238608	0.420536
867.424016	0.421223
867.609406	0.422310
867.794778	0.422591
867.980131	0.423291
868.165466	0.422942
868.350783	0.422974
868.536082	0.424206
868.721362	0.424536
868.906625	0.424507
869.091869	0.424917
869.277094	0.424743
869.462302	0.425489
869.647491	0.425851
869.832662	0.426649
870.017815	0.426711
870.202950	0.425951
870.388066	0.425720
870.573165	0.425892
870.758245	0.425516
870.943306	0.425602
871.128350	0.426068
871.313375	0.426090
871.498382	0.426609
871.683371	0.427121
871.868342	0.428042
872.053294	0.428993
872.238229	0.429824
872.423144	0.430665
872.608042	0.430934
872.792922	0.430619
872.977783	0.430709
873.162626	0.430919
873.347451	0.431629
873.532258	0.431935
873.717046	0.432260
873.901816	0.432077
874.086568	0.432405
874.271302	0.433054
874.456017	0.433802
874.640715	0.434319
874.825394	0.434189
875.010055	0.434477
875.194697	0.434501
875.379322	0.434741
875.563928	0.434602
875.748516	0.434611
875.933085	0.434456
876.117637	0.434936
876.302170	0.435446
876.486685	0.436148
876.671182	0.436305
876.855661	0.436177
877.040121	0.435870
877.224563	0.437000
877.408987	0.437657
877.593393	0.438033
877.777780	0.437546
877.962150	0.438021
878.146501	0.437661
878.330833	0.437766
878.515148	0.438529
878.699444	0.439383
878.883722	0.439327
879.067982	0.438987
879.252224	0.439270
879.436447	0.440209
879.620653	0.440030
879.804840	0.440521
879.989008	0.440481
880.173159	0.440385
880.357291	0.440651
880.541405	0.440550
880.725501	0.440787
880.909579	0.441325
881.093638	0.441159
881.277680	0.441741
881.461703	0.442040
881.645707	0.442169
881.829694	0.443339
882.013662	0.443246
882.197612	0.443560
882.381544	0.443926
882.565458	0.443767
882.749353	0.444071
882.933230	0.443883
883.117089	0.443551
883.300930	0.443944
883.484753	0.443289
883.668557	0.443450
883.852343	0.443955
884.036111	0.444343
884.219861	0.444615
884.403592	0.444792
884.587305	0.444924
884.771000	0.445727
884.954677	0.445954
885.138335	0.445668
885.321976	0.445949
885.505598	0.445829
885.689201	0.445781
885.872787	0.446445
886.056354	0.446202
886.239904	0.446080
886.423434	0.446015
886.606947	0.446079
886.790442	0.446331
886.973918	0.446543
887.157376	0.446931
887.340816	0.447109
887.524237	0.446496
887.707641	0.446762
887.891026	0.447071
888.074393	0.446998
888.257741	0.446983
888.441072	0.446938
888.624384	0.446998
888.807678	0.446061
888.990954	0.446128
889.174211	0.446901
889.357451	0.447459
889.540672	0.446629
889.723875	0.447371
889.907059	0.447580
890.090226	0.448269
890.273374	0.448354
890.456504	0.449204
890.639616	0.449514
890.822709	0.449032
891.005785	0.448238
891.188842	0.449303
891.371881	0.448786
891.554901	0.448120
891.737904	0.447467
891.920888	0.447117
892.103854	0.446684
892.286802	0.445814
892.469731	0.446334
892.652643	0.446209
892.835536	0.445793
893.018410	0.445465
893.201267	0.445922
893.384106	0.446245
893.566926	0.446303
893.749728	0.446504
893.932511	0.447254
894.115277	0.446309
894.298024	0.447082
894.480753	0.447191
894.663464	0.447595
894.846157	0.447711
895.028831	0.447351
895.211487	0.446752
895.394125	0.446269
895.576745	0.445651
895.759346	0.445823
895.941930	0.445598
896.124495	0.445457
896.307041	0.445132
896.489570	0.444752
896.672080	0.445059
896.854573	0.445313
897.037046	0.445560
897.219502	0.445523
897.401940	0.445506
897.584359	0.445098
897.766760	0.445331
897.949143	0.444935
898.131507	0.444220
898.313854	0.444541
898.496182	0.444668
898.678492	0.443914
898.860783	0.444206
899.043057	0.443709
899.225312	0.443698
899.407549	0.443240
899.589768	0.443015
899.771968	0.443282
899.954151	0.442816
900.136315	0.442559
900.318461	0.442494
900.500588	0.441470
900.682698	0.441864
900.864789	0.441745
901.046862	0.441778
901.228917	0.441658
901.410953	0.441804
901.592971	0.440394
901.774972	0.440002
901.956953	0.439653
902.138917	0.440055
902.320862	0.439181
902.502790	0.438575
902.684699	0.437492
902.866589	0.437411
903.048462	0.437225
903.230316	0.437647
903.412152	0.437609
903.593970	0.437259
903.775770	0.436485
903.957551	0.435817
904.139314	0.435911
904.321059	0.436103
904.502786	0.435705
904.684494	0.434711
904.866185	0.433914
905.047857	0.432823
905.229510	0.432987
905.411146	0.432796
905.592763	0.432781
905.774363	0.431988
905.955943	0.431973
906.137506	0.432185
906.319051	0.431480
906.500577	0.431266
906.682085	0.431254
906.863575	0.430752
907.045046	0.429441
907.226500	0.429023
907.407935	0.427995
907.589352	0.427113
907.770750	0.425607
907.952131	0.425946
908.133493	0.425559
908.314837	0.425091
908.496163	0.425098
908.677470	0.425347
908.858760	0.424174
909.040031	0.424102
909.221284	0.422537
909.402518	0.422012
909.583735	0.420893
909.764933	0.420873
909.946113	0.420487
910.127275	0.418983
910.308418	0.418930
910.489544	0.419906
910.670651	0.420276
910.851740	0.420142
911.032810	0.420007
911.213863	0.419653
911.394897	0.418772
911.575913	0.417819
911.756911	0.417282
911.937890	0.416116
912.118851	0.415068
912.299794	0.413740
912.480719	0.413313
912.661626	0.413017
912.842514	0.412585
913.023384	0.412675
913.204236	0.412657
913.385070	0.412053
913.565886	0.411628
913.746683	0.410519
913.927462	0.409880
914.108223	0.410249
914.288965	0.409138
914.469690	0.408000
914.650396	0.406655
914.831084	0.405508
915.011754	0.405764
915.192405	0.405927
915.373038	0.405352
915.553653	0.404487
915.734250	0.402980
915.914829	0.402190
916.095389	0.402324
916.275931	0.401964
916.456455	0.401607
916.636961	0.400961
916.817448	0.399343
916.997917	0.399443
917.178368	0.399103
917.358801	0.399136
917.539216	0.398931
917.719612	0.398077
917.899990	0.397351
918.080350	0.396173
918.260692	0.395295
918.441015	0.394244
918.621320	0.392820
918.801607	0.391543
918.981876	0.390868
919.162127	0.390014
919.342359	0.389696
919.522573	0.388005
919.702769	0.387871
919.882947	0.387144
920.063106	0.386882
920.243247	0.386783
920.423370	0.386132
920.603475	0.384684
920.783562	0.383528
920.963630	0.382347
921.143680	0.381642
921.323712	0.380433
921.503725	0.378998
921.683721	0.378562
921.863698	0.377313
922.043657	0.376126
922.223598	0.376213
922.403520	0.375518
922.583424	0.373651
922.763311	0.373135
922.943178	0.372768
923.123028	0.372283
923.302859	0.371313
923.482673	0.370444
923.662467	0.370686
923.842244	0.369111
924.022003	0.368474
924.201743	0.368028
924.381465	0.367743
924.561169	0.366997
924.740854	0.366590
924.920522	0.365428
925.100171	0.365136
925.279802	0.363684
925.459414	0.362090
925.639009	0.360903
925.818585	0.360715
925.998143	0.360165
926.177683	0.358810
926.357205	0.357126
926.536708	0.356786
926.716193	0.354452
926.895660	0.354213
927.075109	0.354513
927.254539	0.353861
927.433951	0.352507
927.613345	0.351338
927.792721	0.350514
927.972079	0.349947
928.151418	0.347847
928.330739	0.347997
928.510042	0.346235
928.689327	0.344868
928.868593	0.343720
929.047841	0.343651
929.227071	0.342598
929.406283	0.341651
929.585476	0.340684
929.764652	0.340431
929.943809	0.339496
930.122948	0.338882
930.302068	0.338812
930.481171	0.338373
930.660255	0.336630
930.839321	0.335219
931.018369	0.334460
931.197398	0.334165
931.376409	0.333699
931.555402	0.332371
931.734377	0.330889
931.913334	0.328447
932.092272	0.328113
932.271192	0.327339
932.450094	0.326986
932.628978	0.325402
932.807844	0.323413
932.986691	0.322658
933.165520	0.321265
933.344331	0.320681
933.523123	0.320147
933.701898	0.318261
933.880654	0.317486
934.059392	0.315865
934.238111	0.314852
934.416813	0.313885
934.595496	0.311975
934.774161	0.311165
934.952808	0.309253
935.131437	0.306966
935.310047	0.306702
935.488639	0.305258
935.667213	0.303949
935.845769	0.304011
936.024306	0.302815
936.202825	0.301556
936.381326	0.300291
936.559809	0.299906
936.738274	0.299304
936.916720	0.297433
937.095148	0.296138
937.273558	0.295199
937.451950	0.293470
937.630323	0.293032
937.808678	0.293040
937.987015	0.292651
938.165334	0.292359
938.343635	0.291725
938.521917	0.289702
938.700181	0.288583
938.878427	0.288351
939.056655	0.286564
939.234864	0.285148
939.413055	0.283269
939.591228	0.281787
939.769383	0.279882
939.947519	0.278825
940.125638	0.278218
940.303738	0.277086
940.481820	0.274878
940.659883	0.273601
940.837929	0.271484
941.015956	0.271021
941.193965	0.269458
941.371955	0.267461
941.549928	0.266235
941.727882	0.265152
941.905818	0.264092
942.083736	0.263819
942.261636	0.263601
942.439517	0.262738
942.617380	0.261025
942.795225	0.260040
942.973052	0.260701
943.150860	0.260084
943.328651	0.259741
943.506423	0.258803
943.684176	0.256034
943.861912	0.254320
944.039629	0.253772
944.217328	0.251757
944.395009	0.252200
944.572672	0.250735
944.750317	0.249749
944.927943	0.247718
945.105551	0.245757
945.283141	0.244873
945.460712	0.242203
945.638265	0.241341
945.815801	0.241468
945.993317	0.238613
946.170816	0.236640
946.348297	0.234922
946.525759	0.233738
946.703203	0.233223
946.880629	0.232966
947.058036	0.231995
947.235425	0.231003
947.412797	0.227266
947.590149	0.227269
947.767484	0.225869
947.944800	0.226291
948.122099	0.225941
948.299379	0.225450
948.476640	0.224952
948.653884	0.225091
948.831109	0.224931
949.008316	0.224011
949.185505	0.222169
949.362676	0.220560
949.539828	0.216808
949.716962	0.215450
949.894078	0.211824
950.071176	0.209228
950.248256	0.206120
950.425317	0.203319
950.602360	0.202621
950.779385	0.199425
950.956391	0.200508
951.133380	0.199258
951.310350	0.196172
951.487302	0.197750
951.664235	0.197204
951.841151	0.198700
952.018048	0.199943
952.194927	0.199131
952.371788	0.199697
952.548631	0.197012
952.725455	0.197107
952.902261	0.198089
953.079049	0.195802
953.255819	0.195088
953.432570	0.194085
953.609303	0.189656
953.786018	0.186421
953.962715	0.183186
954.139394	0.181570
954.316054	0.181114
954.492696	0.179308
954.669320	0.177997
954.845926	0.176241
955.022513	0.173756
955.199083	0.171054
955.375634	0.172069
955.552166	0.171866
955.728681	0.169257
955.905177	0.167178
956.081655	0.165557
956.258115	0.164368
956.434557	0.166326
956.610980	0.166142
956.787385	0.164626
956.963772	0.167664
957.140141	0.168156
957.316492	0.169353
957.492824	0.169468
957.669138	0.167290
957.845434	0.164778
958.021712	0.161726
958.197971	0.162936
958.374212	0.165561
958.550435	0.158924
958.726640	0.158135
958.902826	0.154928
959.078995	0.152438
959.255145	0.154359
959.431277	0.155744
959.607390	0.152775
959.783486	0.151006
959.959563	0.150322
960.135622	0.150215
960.311662	0.151524
960.487685	0.153035
960.663689	0.152524
960.839675	0.151243
961.015643	0.150757
961.191593	0.150890
961.367524	0.147651
961.543437	0.146235
961.719332	0.145219
961.895209	0.142042
962.071067	0.141657
962.246907	0.141999
962.422730	0.141433
962.598533	0.139797
962.774319	0.140789
962.950086	0.142555
963.125835	0.140981
963.301566	0.143896
963.477279	0.143637
963.652973	0.145312
963.828650	0.143695
964.004308	0.143638
964.179947	0.145015
964.355569	0.141822
964.531172	0.141756
964.706757	0.140984
964.882324	0.138921
965.057873	0.138517
965.233403	0.136738
965.408916	0.140008
965.584410	0.140016
965.759885	0.140878
965.935343	0.144261
966.110782	0.143299
966.286203	0.143797
966.461606	0.145749
966.636991	0.145758
966.812357	0.144758
966.987705	0.139816
967.163035	0.136994
967.338347	0.132867
967.513641	0.133626
967.688916	0.133214
967.864173	0.132857
968.039412	0.129458
968.214632	0.127621
968.389835	0.127884
968.565019	0.129236
968.740185	0.130018
968.915333	0.131462
969.090462	0.126889
969.265573	0.126831
969.440667	0.126759
969.615741	0.129929
969.790798	0.132636
969.965836	0.132331
970.140856	0.134177
970.315858	0.134188
970.490842	0.135526
970.665808	0.135414
970.840755	0.135141
971.015684	0.135427
971.190595	0.132292
971.365487	0.130851
971.540362	0.131049
971.715218	0.132586
971.890056	0.132965
972.064875	0.132469
972.239677	0.132994
972.414460	0.130876
972.589225	0.132520
972.763972	0.133694
972.938700	0.134257
973.113411	0.133500
973.288103	0.129372
973.462777	0.128734
973.637432	0.128168
973.812070	0.128407
973.986689	0.133425
974.161290	0.131754
974.335873	0.132296
974.510437	0.133538
974.684984	0.131172
974.859512	0.131016
975.034022	0.133134
975.208513	0.135646
975.382987	0.136316
975.557442	0.135332
975.731879	0.134021
975.906298	0.134470
976.080698	0.131622
976.255080	0.133158
976.429445	0.131384
976.603790	0.131466
976.778118	0.129491
976.952427	0.127019
977.126719	0.123754
977.300992	0.122813
977.475246	0.122640
977.649483	0.126664
977.823701	0.129099
977.997901	0.133215
978.172083	0.133659
978.346247	0.132506
978.520392	0.137379
978.694519	0.140537
978.868628	0.142548
979.042719	0.140946
979.216791	0.138378
979.390845	0.135262
979.564882	0.131021
979.738899	0.130487
979.912899	0.132441
980.086880	0.129615
980.260843	0.128380
980.434788	0.128726
980.608715	0.128366
980.782623	0.128087
980.956514	0.131100
981.130386	0.133479
981.304240	0.132948
981.478075	0.132809
981.651892	0.133289
981.825692	0.135150
981.999472	0.135647
982.173235	0.139366
982.346980	0.138321
982.520706	0.136767
982.694414	0.138518
982.868104	0.138664
983.041775	0.137738
983.215428	0.137895
983.389064	0.135259
983.562680	0.134731
983.736279	0.131541
983.909860	0.133576
984.083422	0.136817
984.256966	0.136263
984.430491	0.133550
984.603999	0.134869
984.777488	0.134322
984.950959	0.134194
985.124412	0.133031
985.297847	0.133368
985.471263	0.134277
985.644661	0.130818
985.818041	0.129115
985.991403	0.130631
986.164747	0.126076
986.338072	0.127240
986.511379	0.127899
986.684668	0.129677
986.857938	0.130231
987.031191	0.126872
987.204425	0.127296
987.377641	0.126686
987.550839	0.127590
987.724018	0.132629
987.897179	0.131923
988.070322	0.132208
988.243447	0.130725
988.416554	0.130769
988.589642	0.132302
988.762712	0.129620
988.935764	0.131973
989.108798	0.130190
989.281813	0.128018
989.454811	0.128169
989.627790	0.127590
989.800751	0.130260
989.973693	0.130745
990.146617	0.130370
990.319524	0.134911
990.492412	0.132168
990.665281	0.132845
990.838133	0.132260
991.010966	0.129706
991.183781	0.128943
991.356578	0.126566
991.529356	0.127341
991.702117	0.126755
991.874859	0.126121
992.047583	0.127927
992.220288	0.129106
992.392976	0.131009
992.565645	0.133127
992.738296	0.135060
992.910929	0.136663
993.083543	0.137512
993.256139	0.139443
993.428718	0.138335
993.601277	0.137717
993.773819	0.136085
993.946342	0.134429
994.118848	0.132759
994.291335	0.133007
994.463803	0.131072
994.636254	0.130636
994.808686	0.129684
994.981100	0.129884
995.153496	0.130977
995.325874	0.132105
995.498233	0.131138
995.670574	0.132800
995.842897	0.130387
996.015202	0.133947
996.187488	0.135009
996.359757	0.134533
996.532007	0.135297
996.704239	0.135559
996.876452	0.135152
997.048648	0.137208
997.220825	0.137345
997.392984	0.139755
997.565124	0.136073
997.737247	0.135553
997.909351	0.136064
998.081437	0.136084
998.253505	0.136061
998.425554	0.135651
998.597586	0.135602
998.769599	0.135457
998.941594	0.133768
999.113571	0.136113
999.285529	0.132918
999.457469	0.133711
999.629391	0.133079
999.801295	0.133452
999.973181	0.134935
1000.145048	0.134094
1000.316897	0.133102
1000.488728	0.133537
1000.660541	0.134602
1000.832335	0.135325
1001.004111	0.136740
1001.175869	0.137361
1001.347609	0.138955
1001.519331	0.139421
1001.691034	0.139667
1001.862719	0.139611
1002.034386	0.140618
1002.206035	0.141218
1002.377665	0.139229
1002.549277	0.137488
1002.720871	0.136569
1002.892447	0.134367
1003.064004	0.133944
1003.235544	0.135338
1003.407065	0.137896
1003.578568	0.135945
1003.750052	0.131228
1003.921519	0.133560
1004.092967	0.131488
1004.264397	0.132618
1004.435809	0.132614
1004.607202	0.128052
1004.778577	0.126203
1004.949934	0.125392
1005.121273	0.125982
1005.292594	0.126539
1005.463896	0.126974
1005.635180	0.127306
1005.806446	0.125580
1005.977694	0.124721
1006.148923	0.128150
1006.320135	0.130063
1006.491328	0.129607
1006.662503	0.130679
1006.833659	0.131118
1007.004798	0.130054
1007.175918	0.132342
1007.347020	0.134161
1007.518103	0.133662
1007.689169	0.133669
1007.860216	0.132239
1008.031245	0.129982
1008.202256	0.131163
1008.373248	0.128958
1008.544223	0.131489
1008.715179	0.132182
1008.886117	0.130919
1009.057036	0.130560
1009.227938	0.130843
1009.398821	0.131592
1009.569686	0.134141
1009.740533	0.131163
1009.911361	0.132478
1010.082172	0.131789
1010.252964	0.131274
1010.423738	0.131659
1010.594493	0.134275
1010.765231	0.135576
1010.935950	0.135495
1011.106651	0.136126
1011.277334	0.137606
1011.447998	0.140542
1011.618645	0.140855
1011.789273	0.139683
1011.959882	0.138983
1012.130474	0.135587
1012.301048	0.134709
1012.471603	0.130942
1012.642140	0.130175
1012.812658	0.130182
1012.983159	0.129296
1013.153641	0.127390
1013.324105	0.127001
1013.494551	0.129793
1013.664979	0.131915
1013.835388	0.131501
1014.005779	0.133304
1014.176152	0.133903
1014.346507	0.134889
1014.516843	0.135422
1014.687162	0.134887
1014.857462	0.135535
1015.027744	0.132549
1015.198007	0.132204
1015.368252	0.133421
1015.538480	0.136802
1015.708689	0.136600
1015.878879	0.133372
1016.049052	0.134272
1016.219206	0.135911
1016.389342	0.136335
1016.559460	0.138412
1016.729559	0.137968
1016.899641	0.135023
1017.069704	0.130744
1017.239749	0.131121
1017.409775	0.133514
1017.579784	0.130587
1017.749774	0.130777
1017.919746	0.131204
1018.089700	0.129199
1018.259635	0.130047
1018.429553	0.132370
1018.599452	0.133828
1018.769333	0.132637
1018.939195	0.132082
1019.109040	0.133952
1019.278866	0.130732
1019.448674	0.127688
1019.618464	0.127466
1019.788235	0.127538
1019.957989	0.127974
1020.127724	0.128760
1020.297441	0.130876
1020.467139	0.129133
1020.636820	0.128150
1020.806482	0.129587
1020.976126	0.133339
1021.145752	0.133035
1021.315359	0.133293
1021.484948	0.131831
1021.654519	0.132506
1021.824072	0.128553
1021.993607	0.131101
1022.163123	0.133970
1022.332621	0.134100
1022.502101	0.132452
1022.671563	0.131281
1022.841007	0.130678
1023.010432	0.131550
1023.179839	0.129260
1023.349228	0.132961
1023.518598	0.133727
1023.687951	0.131406
1023.857285	0.133478
1024.026601	0.132609
1024.195899	0.132943
1024.365178	0.133596
1024.534439	0.132058
1024.703682	0.131708
1024.872907	0.130287
1025.042114	0.129880
1025.211302	0.128955
1025.380472	0.126993
1025.549624	0.127210
1025.718758	0.128485
1025.887873	0.125785
1026.056970	0.126455
1026.226049	0.127688
1026.395110	0.129421
1026.564153	0.128987
1026.733177	0.129252
1026.902183	0.129420
1027.071171	0.128329
1027.240141	0.129352
1027.409092	0.133021
1027.578026	0.134395
1027.746940	0.134678
1027.915837	0.130947
1028.084716	0.130326
1028.253576	0.130534
1028.422418	0.129672
1028.591242	0.131474
1028.760048	0.130253
1028.928835	0.130441
1029.097604	0.130644
1029.266355	0.132179
1029.435088	0.133081
1029.603803	0.132988
1029.772499	0.132217
1029.941177	0.132716
1030.109837	0.132425
1030.278478	0.134350
1030.447102	0.133891
1030.615707	0.133586
1030.784294	0.132619
1030.952863	0.132102
1031.121413	0.132547
1031.289945	0.133881
1031.458460	0.134456
1031.626955	0.134816
1031.795433	0.132874
1031.963892	0.131946
1032.132334	0.130129
1032.300756	0.129946
1032.469161	0.130834
1032.637548	0.130924
1032.805916	0.130075
1032.974266	0.131175
1033.142598	0.127897
1033.310911	0.127963
1033.479207	0.125413
1033.647484	0.127253
1033.815743	0.128369
1033.983983	0.126170
1034.152206	0.126695
1034.320410	0.128335
1034.488596	0.126202
1034.656764	0.128242
1034.824914	0.127123
1034.993045	0.130180
1035.161158	0.128552
1035.329253	0.126296
1035.497330	0.128244
1035.665388	0.127961
1035.833428	0.127253
1036.001450	0.126147
1036.169454	0.127188
1036.337440	0.129203
1036.505407	0.128757
1036.673356	0.129501
1036.841287	0.132272
1037.009200	0.131520
1037.177094	0.128625
1037.344970	0.127137
1037.512828	0.129082
1037.680668	0.130075
1037.848489	0.125893
1038.016293	0.125495
1038.184078	0.125654
1038.351845	0.123953
1038.519593	0.125874
1038.687324	0.125217
1038.855036	0.127132
1039.022730	0.126792
1039.190406	0.124558
1039.358063	0.128620
1039.525702	0.126763
1039.693323	0.126510
1039.860926	0.124542
1040.028511	0.122142
1040.196077	0.122571
1040.363625	0.121111
1040.531155	0.122427
1040.698667	0.122599
1040.866161	0.122808
1041.033636	0.121154
1041.201093	0.119367
1041.368532	0.121417
1041.535952	0.121831
1041.703355	0.125150
1041.870739	0.127196
1042.038105	0.124876
1042.205452	0.125127
1042.372782	0.125159
1042.540093	0.127801
1042.707386	0.130497
1042.874661	0.129232
1043.041918	0.130765
1043.209156	0.130001
1043.376376	0.128101
1043.543578	0.129980
1043.710762	0.130297
1043.877927	0.130090
1044.045074	0.129657
1044.212203	0.127841
1044.379314	0.130081
1044.546407	0.129636
1044.713481	0.128414
1044.880537	0.131081
1045.047575	0.129918
1045.214595	0.130701
1045.381596	0.131557
1045.548579	0.131470
1045.715544	0.131784
1045.882491	0.130274
1046.049420	0.127609
1046.216330	0.124949
1046.383222	0.121074
1046.550096	0.121093
1046.716951	0.124089
1046.883789	0.122184
1047.050608	0.124410
1047.217409	0.126048
1047.384192	0.127403
1047.550956	0.129207
1047.717703	0.130782
1047.884431	0.130511
1048.051140	0.130000
1048.217832	0.129325
1048.384505	0.130159
1048.551161	0.129473
1048.717798	0.127971
1048.884416	0.125281
1049.051017	0.125258
1049.217599	0.128591
1049.384163	0.130741
1049.550709	0.133766
1049.717237	0.129925
1049.883746	0.129637
1050.050237	0.129904
1050.216710	0.129982
1050.383165	0.131415
1050.549601	0.135529
1050.716019	0.135001
1050.882420	0.133957
1051.048801	0.133213
1051.215165	0.136593
1051.381510	0.137245
1051.547837	0.137126
1051.714146	0.136674
1051.880437	0.136907
1052.046709	0.132481
1052.212964	0.132970
1052.379200	0.134189
1052.545417	0.133233
1052.711617	0.128490
1052.877798	0.126948
1053.043961	0.127114
1053.210106	0.129123
1053.376233	0.131764
1053.542341	0.131748
1053.708432	0.131082
1053.874504	0.131083
1054.040557	0.129468
1054.206593	0.131497
1054.372610	0.132843
1054.538609	0.131230
1054.704590	0.130406
1054.870553	0.129617
1055.036497	0.132973
1055.202424	0.133337
1055.368331	0.135967
1055.534221	0.137837
1055.700093	0.138528
1055.865946	0.138351
1056.031781	0.140277
1056.197598	0.141942
1056.363397	0.140543
1056.529177	0.135878
1056.694939	0.134572
1056.860683	0.130987
1057.026409	0.130172
1057.192116	0.131152
1057.357806	0.130609
1057.523477	0.131967
1057.689130	0.129574
1057.854764	0.126241
1058.020381	0.126975
1058.185979	0.127877
1058.351559	0.129269
1058.517120	0.131862
1058.682664	0.130948
1058.848189	0.133918
1059.013696	0.131145
1059.179185	0.130810
1059.344656	0.133244
1059.510108	0.135886
1059.675542	0.134265
1059.840958	0.133897
1060.006356	0.134028
1060.171735	0.132309
1060.337096	0.129714
1060.502439	0.130669
1060.667764	0.130966
1060.833071	0.131525
1060.998359	0.133112
1061.163629	0.135751
1061.328881	0.135182
1061.494115	0.133533
1061.659330	0.134527
1061.824527	0.136213
1061.989706	0.135896
1062.154867	0.135231
1062.320010	0.135234
1062.485134	0.131599
1062.650240	0.129815
1062.815328	0.131161
1062.980398	0.131048
1063.145449	0.133170
1063.310482	0.132474
1063.475497	0.134182
1063.640494	0.133590
1063.805473	0.136323
1063.970433	0.137776
1064.135375	0.138632
1064.300299	0.137978
1064.465204	0.137351
1064.630092	0.136456
1064.794961	0.138737
1064.959812	0.136703
1065.124645	0.137204
1065.289459	0.136572
1065.454256	0.137506
1065.619034	0.136542
1065.783793	0.135851
1065.948535	0.137356
1066.113258	0.137460
1066.277964	0.135643
1066.442651	0.135826
1066.607319	0.137916
1066.771970	0.135581
1066.936602	0.137608
1067.101216	0.139470
1067.265812	0.141470
1067.430389	0.141548
1067.594949	0.138075
1067.759490	0.137184
1067.924013	0.139805
1068.088518	0.138597
1068.253004	0.138408
1068.417472	0.136525
1068.581922	0.135098
1068.746354	0.135805
1068.910768	0.135850
1069.075163	0.138483
1069.239540	0.139639
1069.403899	0.138075
1069.568240	0.142807
1069.732562	0.143851
1069.896866	0.142948
1070.061152	0.140984
1070.225420	0.137371
1070.389670	0.136955
1070.553901	0.137174
1070.718114	0.139139
1070.882309	0.137876
1071.046486	0.133445
1071.210644	0.131608
1071.374784	0.134111
1071.538906	0.138208
1071.703010	0.139895
1071.867096	0.141555
1072.031163	0.144049
1072.195212	0.139175
1072.359243	0.139056
1072.523256	0.137069
1072.687250	0.139045
1072.851226	0.137876
1073.015184	0.137745
1073.179124	0.137553
1073.343045	0.133647
1073.506949	0.131188
1073.670834	0.136330
1073.834701	0.138342
1073.998549	0.141581
1074.162380	0.143756
1074.326192	0.140001
1074.489986	0.139126
1074.653761	0.139465
1074.817519	0.143531
1074.981258	0.143569
1075.144979	0.144744
1075.308682	0.143470
1075.472367	0.142966
1075.636033	0.139978
1075.799681	0.143762
1075.963311	0.144520
1076.126923	0.143829
1076.290516	0.142152
1076.454092	0.143564
1076.617649	0.142060
1076.781187	0.145679
1076.944708	0.146853
1077.108210	0.147261
1077.271695	0.145187
1077.435160	0.140825
1077.598608	0.144156
1077.762038	0.144242
1077.925449	0.142241
1078.088842	0.140791
1078.252217	0.140657
1078.415573	0.138355
1078.578912	0.137475
1078.742232	0.138494
1078.905534	0.139238
1079.068817	0.136660
1079.232083	0.135161
1079.395330	0.136612
1079.558559	0.137633
1079.721770	0.133890
1079.884962	0.136957
1080.048136	0.138320
1080.211293	0.138974
1080.374430	0.145176
1080.537550	0.147955
1080.700651	0.152120
1080.863735	0.151829
1081.026800	0.149233
1081.189846	0.149596
1081.352875	0.147797
1081.515885	0.144309
1081.678877	0.146233
1081.841851	0.142199
1082.004807	0.144241
1082.167744	0.143152
1082.330663	0.143427
1082.493564	0.145420
1082.656447	0.145439
1082.819312	0.145374
1082.982158	0.147208
1083.144986	0.146859
1083.307796	0.147732
1083.470587	0.143025
1083.633361	0.143552
1083.796116	0.143921
1083.958853	0.142180
1084.121571	0.141378
1084.284272	0.140411
1084.446954	0.141459
1084.609618	0.142752
1084.772264	0.144088
1084.934892	0.144509
1085.097501	0.142259
1085.260092	0.141686
1085.422665	0.143753
1085.585220	0.142512
1085.747756	0.144847
1085.910274	0.145378
1086.072774	0.144917
1086.235256	0.143872
1086.397720	0.146680
1086.560165	0.144829
1086.722592	0.141700
1086.885001	0.141209
1087.047392	0.143435
1087.209764	0.144032
1087.372119	0.145167
1087.534455	0.139378
1087.696772	0.143140
1087.859072	0.142047
1088.021353	0.144727
1088.183616	0.145615
1088.345861	0.146423
1088.508088	0.144175
1088.670296	0.143737
1088.832486	0.144640
1088.994658	0.147047
1089.156812	0.142183
1089.318948	0.140419
1089.481065	0.138319
1089.643164	0.142374
1089.805245	0.139579
1089.967308	0.145744
1090.129352	0.144641
1090.291378	0.143075
1090.453386	0.146121
1090.615376	0.151404
1090.777347	0.151210
1090.939301	0.149965
1091.101236	0.150282
1091.263153	0.150859
1091.425051	0.150453
1091.586932	0.149728
1091.748794	0.151218
1091.910638	0.148119
1092.072463	0.140351
1092.234271	0.140078
1092.396060	0.141257
1092.557831	0.139418
1092.719584	0.137450
1092.881319	0.136606
1093.043035	0.138707
1093.204733	0.138811
1093.366413	0.141020
1093.528075	0.147310
1093.689718	0.149652
1093.851343	0.153644
1094.012950	0.151084
1094.174539	0.152887
1094.336110	0.154462
1094.497662	0.152945
1094.659196	0.155578
1094.820712	0.157179
1094.982210	0.155359
1095.143689	0.157392
1095.305151	0.155909
1095.466594	0.160609
1095.628018	0.164965
1095.789425	0.163625
1095.950813	0.163911
1096.112183	0.163410
1096.273535	0.162896
1096.434869	0.161310
1096.596184	0.156992
1096.757482	0.153849
1096.918761	0.154360
1097.080021	0.153551
1097.241264	0.150569
1097.402488	0.150093
1097.563694	0.148785
1097.724882	0.148057
1097.886052	0.151971
1098.047203	0.159195
1098.208336	0.158553
1098.369451	0.152853
1098.530548	0.150999
1098.691627	0.152576
1098.852687	0.151635
1099.013729	0.145954
1099.174753	0.145174
1099.335758	0.146584
1099.496746	0.141789
1099.657715	0.145040
1099.818666	0.150214
1099.979599	0.150914
1100.140513	0.149372
1100.301409	0.150068
1100.462287	0.156264
1100.623147	0.160867
1100.783989	0.160608
1100.944812	0.163320
1101.105617	0.162524
1101.266404	0.160455
1101.427173	0.163083
1101.587923	0.168392
1101.748656	0.165696
1101.909370	0.166736
1102.070066	0.164406
1102.230743	0.159282
1102.391403	0.153279
1102.552044	0.156853
1102.712667	0.158862
1102.873271	0.156150
1103.033858	0.152493
1103.194426	0.154981
1103.354976	0.149557
1103.515508	0.143764
1103.676021	0.148048
1103.836517	0.154287
1103.996994	0.150587
1104.157453	0.146619
1104.317893	0.147017
1104.478316	0.150015
1104.638720	0.148954
1104.799106	0.154884
1104.959474	0.159437
1105.119823	0.158639
1105.280155	0.159033
1105.440468	0.161844
1105.600763	0.169952
1105.761039	0.168873
1105.921298	0.161672
1106.081538	0.166946
1106.241760	0.165748
1106.401964	0.165417
1106.562149	0.158276
1106.722316	0.156581
1106.882465	0.157535
1107.042596	0.154075
1107.202709	0.159514
1107.362803	0.162951
1107.522879	0.166261
1107.682937	0.166902
1107.842977	0.170357
1108.002999	0.174974
1108.163002	0.167254
1108.322987	0.168671
1108.482954	0.172446
1108.642902	0.160410
1108.802833	0.163200
1108.962745	0.156293
1109.122639	0.160638
1109.282515	0.160596
1109.442372	0.160107
1109.602211	0.166446
1109.762032	0.160933
1109.921835	0.157482
1110.081620	0.168437
1110.241386	0.165549
1110.401134	0.167712
1110.560864	0.161673
1110.720576	0.161778
1110.880269	0.167145
1111.039945	0.161295
1111.199602	0.163109
1111.359240	0.163245
1111.518861	0.162756
1111.678463	0.170163
1111.838047	0.170012
1111.997613	0.168132
1112.157161	0.168910
1112.316690	0.164433
1112.476202	0.173422
1112.635695	0.175689
1112.795169	0.171203
1112.954626	0.170600
1113.114064	0.169312
1113.273484	0.169138
1113.432886	0.171754
1113.592270	0.173606
1113.751635	0.175233
1113.910983	0.167652
1114.070312	0.161879
1114.229622	0.169534
1114.388915	0.165119
1114.548189	0.160449
1114.707445	0.161775
1114.866683	0.156385
1115.025903	0.156064
1115.185104	0.155484
1115.344287	0.167579
1115.503452	0.173479
1115.662599	0.173342
1115.821727	0.173919
1115.980838	0.179257
1116.139930	0.175819
1116.299004	0.181359
1116.458059	0.178053
1116.617097	0.177253
1116.776116	0.165267
1116.935117	0.163255
1117.094099	0.161868
1117.253064	0.163373
1117.412010	0.164223
1117.570938	0.171368
1117.729848	0.173364
1117.888740	0.179402
1118.047613	0.184355
1118.206468	0.186353
1118.365305	0.184050
1118.524124	0.180665
1118.682924	0.188182
1118.841707	0.182492
1119.000471	0.180778
1119.159216	0.175300
1119.317944	0.166291
1119.476653	0.161441
1119.635344	0.166901
1119.794017	0.171526
1119.952672	0.178317
1120.111308	0.165280
1120.269927	0.168736
1120.428527	0.169387
1120.587108	0.174475
1120.745672	0.173975
1120.904217	0.168820
1121.062744	0.164134
1121.221253	0.167549
1121.379744	0.155311
1121.538216	0.163156
1121.696671	0.165445
1121.855107	0.163038
1122.013524	0.163449
1122.171924	0.163446
1122.330305	0.177200
1122.488668	0.185243
1122.647013	0.184526
1122.805340	0.192693
1122.963648	0.191955
1123.121938	0.188801
1123.280210	0.189102
1123.438464	0.180403
1123.596700	0.183270
1123.754917	0.181500
1123.913116	0.171589
1124.071297	0.168794
1124.229459	0.170023
1124.387604	0.175547
1124.545730	0.171799
1124.703838	0.169331
1124.861928	0.175456
1125.019999	0.177716
1125.178052	0.171323
1125.336088	0.177368
1125.494104	0.180970
1125.652103	0.181470
1125.810083	0.171931
1125.968045	0.177469
1126.125989	0.181361
1126.283915	0.177398
1126.441823	0.176237
1126.599712	0.174444
1126.757583	0.166015
1126.915436	0.162351
1127.073270	0.154559
1127.231087	0.161177
1127.388885	0.163735
1127.546665	0.157176
1127.704426	0.165203
1127.862170	0.167981
1128.019895	0.174530
1128.177602	0.185637
1128.335291	0.185754
1128.492961	0.193821
1128.650614	0.189887
1128.808248	0.182940
1128.965864	0.188854
1129.123461	0.188431
1129.281041	0.186629
1129.438602	0.184021
1129.596145	0.178397
1129.753670	0.181319
1129.911176	0.181783
1130.068665	0.177746
1130.226135	0.173727
1130.383587	0.176526
1130.541020	0.170380
1130.698436	0.164553
1130.855833	0.161467
1131.013212	0.159146
1131.170573	0.154392
1131.327915	0.151987
1131.485239	0.156056
1131.642545	0.163362
1131.799833	0.164770
1131.957103	0.167942
1132.114354	0.173195
1132.271588	0.167707
1132.428803	0.168902
1132.585999	0.168157
1132.743178	0.166471
1132.900338	0.166767
1133.057480	0.162426
1133.214604	0.154685
1133.371710	0.152063
1133.528797	0.149903
1133.685866	0.157786
1133.842917	0.156492
1133.999950	0.154792
1134.156964	0.147954
1134.313960	0.145060
1134.470938	0.149926
1134.627898	0.154085
1134.784840	0.156304
1134.941763	0.149763
1135.098668	0.145424
1135.255555	0.149005
1135.412424	0.146923
1135.569274	0.152620
1135.726107	0.159494
1135.882921	0.156802
1136.039716	0.148133
1136.196494	0.153914
1136.353253	0.162528
1136.509995	0.164029
1136.666717	0.161999
1136.823422	0.167330
1136.980109	0.188857
1137.136777	0.181989
1137.293427	0.175738
1137.450059	0.185791
1137.606672	0.183151
1137.763267	0.175265
1137.919844	0.182535
1138.076403	0.180957
1138.232944	0.177758
1138.389466	0.165401
1138.545971	0.168103
1138.702457	0.155796
1138.858924	0.154233
1139.015374	0.148648
1139.171805	0.153316
1139.328218	0.146867
1139.484613	0.151189
1139.640990	0.154709
1139.797348	0.151155
1139.953688	0.157725
1140.110010	0.169121
1140.266314	0.175966
1140.422600	0.175071
1140.578867	0.185527
1140.735116	0.184621
1140.891347	0.177096
1141.047559	0.180726
1141.203754	0.179134
1141.359930	0.180992
1141.516088	0.182964
1141.672228	0.179078
1141.828349	0.182571
1141.984452	0.172440
1142.140537	0.176627
1142.296604	0.186565
1142.452653	0.185098
1142.608683	0.193481
1142.764695	0.186049
1142.920689	0.188080
1143.076665	0.190336
1143.232622	0.188066
1143.388562	0.188621
1143.544483	0.184925
1143.700385	0.199119
1143.856270	0.202170
1144.012136	0.192375
1144.167985	0.195504
1144.323814	0.205741
1144.479626	0.195255
1144.635420	0.202872
1144.791195	0.208572
1144.946952	0.216707
1145.102691	0.197292
1145.258411	0.195067
1145.414113	0.188372
1145.569798	0.169797
1145.725463	0.169546
1145.881111	0.174093
1146.036741	0.170948
1146.192352	0.168919
1146.347945	0.161120
1146.503519	0.159759
1146.659076	0.148175
1146.814614	0.149317
1146.970134	0.172727
1147.125636	0.171402
1147.281120	0.176020
1147.436585	0.168064
1147.592032	0.159833
1147.747461	0.175916
1147.902872	0.174211
1148.058265	0.183220
1148.213639	0.201974
1148.368995	0.187905
1148.524333	0.186920
1148.679653	0.183182
1148.834954	0.194778
1148.990237	0.207222
1149.145502	0.185469
1149.300749	0.196776
1149.455977	0.207348
1149.611188	0.189282
1149.766380	0.191145
1149.921553	0.180346
1150.076709	0.190280
1150.231846	0.177052
1150.386966	0.172788
1150.542066	0.176196
1150.697149	0.169881
1150.852214	0.151366
1151.007260	0.161535
1151.162288	0.164459
1151.317298	0.168306
1151.472289	0.160227
1151.627263	0.167020
1151.782218	0.174967
1151.937155	0.179927
1152.092073	0.176814
1152.246974	0.176303
1152.401856	0.165662
1152.556720	0.151438
1152.711566	0.149250
1152.866393	0.141450
1153.021203	0.145947
1153.175994	0.138059
1153.330767	0.137926
1153.485521	0.137209
1153.640258	0.148476
1153.794976	0.142793
1153.949676	0.145381
1154.104358	0.146187
1154.259021	0.134052
1154.413667	0.126343
1154.568294	0.131067
1154.722903	0.128705
1154.877493	0.130199
1155.032066	0.136287
1155.186620	0.140791
1155.341156	0.151840
1155.495674	0.156025
1155.650173	0.178290
1155.804654	0.185092
1155.959118	0.175979
1156.113562	0.181044
1156.267989	0.180931
1156.422397	0.164505
1156.576788	0.155998
1156.731160	0.160636
1156.885513	0.157230
1157.039849	0.142416
1157.194166	0.137224
1157.348465	0.126498
1157.502746	0.120548
1157.657009	0.110928
1157.811253	0.113158
1157.965479	0.126593
1158.119687	0.115324
1158.273877	0.118039
1158.428048	0.140551
1158.582201	0.147108
1158.736337	0.171150
1158.890453	0.181620
1159.044552	0.191820
1159.198632	0.202857
1159.352694	0.203840
1159.506738	0.213609
1159.660764	0.237841
1159.814771	0.226379
1159.968761	0.219430
1160.122732	0.200884
1160.276685	0.194976
1160.430619	0.201308
1160.584535	0.201364
1160.738434	0.209056
1160.892313	0.205715
1161.046175	0.188323
1161.200019	0.181694
1161.353844	0.194940
1161.507651	0.201399
1161.661440	0.195174
1161.815210	0.200888
1161.968962	0.195392
1162.122697	0.189543
1162.276412	0.172899
1162.430110	0.161538
1162.583789	0.166524
1162.737451	0.157551
1162.891094	0.155720
1163.044718	0.147205
1163.198325	0.131176
1163.351913	0.149824
1163.505483	0.146711
1163.659035	0.159574
1163.812569	0.164694
1163.966084	0.169114
1164.119581	0.160459
1164.273060	0.175924
1164.426521	0.192894
1164.579964	0.197021
1164.733388	0.176830
1164.886794	0.187610
1165.040182	0.194984
1165.193551	0.210188
1165.346903	0.214283
1165.500236	0.225845
1165.653551	0.192520
1165.806848	0.193321
1165.960126	0.218184
1166.113386	0.225386
1166.266628	0.206448
1166.419852	0.214432
1166.573058	0.209564
1166.726245	0.202037
1166.879414	0.184807
1167.032565	0.207526
1167.185698	0.210523
1167.338812	0.197991
1167.491909	0.198901
1167.644987	0.208590
1167.798046	0.203898
1167.951088	0.199677
1168.104111	0.190933
1168.257117	0.205624
1168.410103	0.207169
1168.563072	0.193281
1168.716023	0.189349
1168.868955	0.185524
1169.021869	0.178757
1169.174765	0.161749
1169.327642	0.173501
1169.480501	0.201159
1169.633343	0.223671
1169.786165	0.209069
1169.938970	0.208972
1170.091757	0.208897
1170.244525	0.220267
1170.397275	0.226274
1170.550007	0.241982
1170.702720	0.228659
1170.855415	0.199542
1171.008092	0.177688
1171.160751	0.185739
1171.313392	0.190981
1171.466014	0.113446
1171.618619	0.171540
1171.771205	0.171540
1171.923772	0.171540
