sample name	sample
index	1096
start time	 04-22-2021  11:59:09 AM


Wavelength (nm)	Absorbance
494.344910	0.133632
494.563924	0.133632
494.782919	0.133632
495.001897	0.272644
495.220856	0.120103
495.439797	0.095560
495.658719	0.137672
495.877624	0.145249
496.096510	0.135750
496.315378	0.091259
496.534227	0.077614
496.753059	0.037137
496.971872	0.062290
497.190667	0.124245
497.409444	0.127896
497.628203	0.130078
497.846943	0.129702
498.065665	0.131218
498.284369	0.130618
498.503055	0.130116
498.721723	0.131375
498.940372	0.131970
499.159003	0.131314
499.377616	0.131932
499.596210	0.131834
499.814787	0.132778
500.033345	0.132232
500.251885	0.132355
500.470406	0.132746
500.688910	0.132787
500.907395	0.133549
501.125862	0.133387
501.344311	0.133957
501.562742	0.132940
501.781154	0.132673
501.999548	0.133051
502.217924	0.133626
502.436282	0.135603
502.654621	0.135317
502.872942	0.135185
503.091245	0.136958
503.309530	0.136662
503.527797	0.137705
503.746045	0.138450
503.964275	0.138519
504.182487	0.137937
504.400681	0.136611
504.618856	0.137240
504.837013	0.136360
505.055152	0.135999
505.273273	0.137291
505.491376	0.137542
505.709460	0.137544
505.927526	0.138096
506.145574	0.139248
506.363604	0.139270
506.581615	0.139529
506.799608	0.140871
507.017583	0.141587
507.235540	0.140757
507.453478	0.141933
507.671399	0.142350
507.889301	0.142325
508.107185	0.141644
508.325050	0.142074
508.542898	0.142451
508.760727	0.142219
508.978538	0.141563
509.196330	0.142164
509.414105	0.141645
509.631861	0.142045
509.849599	0.142059
510.067319	0.143369
510.285021	0.143580
510.502704	0.143420
510.720369	0.143483
510.938016	0.143841
511.155645	0.144252
511.373255	0.144620
511.590848	0.143863
511.808422	0.144673
512.025977	0.144952
512.243515	0.145184
512.461034	0.145581
512.678536	0.145919
512.896018	0.146350
513.113483	0.146205
513.330930	0.146667
513.548358	0.146730
513.765768	0.146898
513.983160	0.146496
514.200533	0.146107
514.417889	0.146619
514.635226	0.146324
514.852545	0.147329
515.069845	0.147518
515.287128	0.146641
515.504392	0.146972
515.721638	0.147325
515.938866	0.147515
516.156075	0.148141
516.373267	0.147796
516.590440	0.148313
516.807594	0.147859
517.024731	0.147982
517.241850	0.149445
517.458950	0.149920
517.676032	0.149636
517.893095	0.149500
518.110141	0.150257
518.327168	0.151024
518.544177	0.151665
518.761168	0.151838
518.978141	0.152869
519.195095	0.152927
519.412031	0.153859
519.628949	0.154259
519.845849	0.155447
520.062731	0.156345
520.279594	0.157600
520.496439	0.157607
520.713266	0.157928
520.930074	0.157154
521.146865	0.157237
521.363637	0.156810
521.580391	0.156556
521.797127	0.156424
522.013844	0.156057
522.230543	0.155820
522.447224	0.156476
522.663887	0.157034
522.880532	0.158028
523.097158	0.158832
523.313766	0.159316
523.530356	0.160287
523.746928	0.160605
523.963481	0.160978
524.180017	0.161159
524.396534	0.161462
524.613032	0.161781
524.829513	0.161990
525.045975	0.161197
525.262420	0.160577
525.478845	0.161379
525.695253	0.162134
525.911643	0.163133
526.128014	0.163090
526.344367	0.163419
526.560702	0.162942
526.777018	0.163359
526.993316	0.164176
527.209597	0.165965
527.425858	0.165255
527.642102	0.165258
527.858328	0.164616
528.074535	0.165116
528.290724	0.165343
528.506894	0.166323
528.723047	0.166048
528.939181	0.166377
529.155297	0.166159
529.371395	0.166971
529.587475	0.167535
529.803536	0.168105
530.019579	0.168484
530.235604	0.169367
530.451611	0.170108
530.667600	0.171003
530.883570	0.171159
531.099522	0.171583
531.315456	0.172192
531.531372	0.172362
531.747269	0.172882
531.963148	0.173844
532.179009	0.174090
532.394852	0.173433
532.610676	0.173598
532.826482	0.173862
533.042271	0.174629
533.258040	0.174792
533.473792	0.174708
533.689525	0.174885
533.905240	0.174505
534.120937	0.174018
534.336616	0.174217
534.552277	0.174500
534.767919	0.174517
534.983543	0.175020
535.199149	0.175821
535.414736	0.176847
535.630306	0.176964
535.845857	0.176259
536.061390	0.176870
536.276904	0.177621
536.492401	0.178347
536.707879	0.178991
536.923339	0.178675
537.138781	0.178757
537.354204	0.179217
537.569610	0.179919
537.784997	0.181217
538.000366	0.182207
538.215716	0.183581
538.431049	0.183724
538.646363	0.184157
538.861659	0.184719
539.076937	0.185014
539.292196	0.184718
539.507438	0.184965
539.722661	0.185143
539.937866	0.184652
540.153052	0.184351
540.368221	0.184712
540.583371	0.185236
540.798503	0.185402
541.013617	0.185563
541.228712	0.186438
541.443789	0.186787
541.658848	0.187990
541.873889	0.188819
542.088912	0.189581
542.303916	0.189864
542.518902	0.190088
542.733870	0.190156
542.948820	0.189889
543.163752	0.189551
543.378665	0.189331
543.593560	0.189052
543.808437	0.189256
544.023295	0.189164
544.238136	0.188849
544.452958	0.189645
544.667762	0.189997
544.882548	0.190973
545.097315	0.191453
545.312064	0.191743
545.526795	0.191649
545.741508	0.191910
545.956203	0.191914
546.170879	0.192487
546.385537	0.191691
546.600177	0.192080
546.814799	0.192266
547.029402	0.193308
547.243988	0.194433
547.458555	0.194799
547.673103	0.195072
547.887634	0.195672
548.102146	0.196144
548.316640	0.196266
548.531116	0.196514
548.745574	0.196672
548.960013	0.196308
549.174435	0.195718
549.388838	0.196025
549.603222	0.195909
549.817589	0.195930
550.031937	0.195972
550.246267	0.196728
550.460579	0.197445
550.674873	0.197359
550.889148	0.197097
551.103405	0.197518
551.317644	0.198247
551.531865	0.198351
551.746068	0.198651
551.960252	0.198785
552.174418	0.199068
552.388566	0.199105
552.602696	0.199301
552.816807	0.199887
553.030900	0.200097
553.244975	0.199839
553.459032	0.200790
553.673070	0.200614
553.887091	0.201112
554.101093	0.201030
554.315077	0.200905
554.529042	0.201450
554.742990	0.201368
554.956919	0.201600
555.170830	0.201996
555.384722	0.201793
555.598597	0.202329
555.812453	0.202349
556.026291	0.202739
556.240111	0.203047
556.453913	0.203020
556.667696	0.203624
556.881461	0.203888
557.095208	0.203786
557.308937	0.204228
557.522647	0.204156
557.736339	0.204582
557.950013	0.204845
558.163669	0.204845
558.377307	0.205179
558.590926	0.205378
558.804527	0.205295
559.018110	0.205482
559.231675	0.205806
559.445221	0.205922
559.658749	0.206173
559.872259	0.206393
560.085751	0.206500
560.299225	0.206319
560.512680	0.206381
560.726117	0.206437
560.939536	0.206735
561.152937	0.206408
561.366319	0.206269
561.579683	0.206280
561.793029	0.206092
562.006357	0.206245
562.219667	0.206615
562.432958	0.206953
562.646231	0.207591
562.859486	0.208009
563.072723	0.208548
563.285941	0.209055
563.499141	0.208555
563.712323	0.208889
563.925487	0.208942
564.138632	0.208858
564.351760	0.208783
564.564869	0.208079
564.777960	0.208040
564.991032	0.207972
565.204087	0.207989
565.417123	0.208512
565.630141	0.208423
565.843140	0.208882
566.056122	0.209426
566.269085	0.209330
566.482030	0.210176
566.694957	0.210308
566.907866	0.210075
567.120756	0.210299
567.333628	0.210388
567.546482	0.210929
567.759318	0.211025
567.972135	0.211052
568.184935	0.211226
568.397716	0.211590
568.610478	0.211440
568.823223	0.212070
569.035949	0.212274
569.248657	0.212374
569.461347	0.212598
569.674019	0.212685
569.886672	0.212900
570.099308	0.213102
570.311925	0.213216
570.524523	0.213533
570.737104	0.213375
570.949666	0.213409
571.162210	0.213606
571.374736	0.213481
571.587244	0.213352
571.799733	0.214175
572.012205	0.214416
572.224658	0.214356
572.437092	0.214571
572.649509	0.214435
572.861907	0.214934
573.074287	0.214803
573.286649	0.215352
573.498993	0.215598
573.711318	0.214882
573.923625	0.214580
574.135914	0.215030
574.348185	0.215542
574.560438	0.215878
574.772672	0.215603
574.984888	0.216453
575.197086	0.215943
575.409266	0.216252
575.621427	0.216574
575.833570	0.217028
576.045695	0.216664
576.257802	0.216069
576.469890	0.216528
576.681961	0.217113
576.894013	0.217216
577.106046	0.217768
577.318062	0.217815
577.530059	0.217471
577.742039	0.217297
577.954000	0.217797
578.165942	0.218219
578.377867	0.218200
578.589773	0.217913
578.801661	0.218191
579.013531	0.218281
579.225382	0.218663
579.437216	0.219453
579.649031	0.219903
579.860828	0.220072
580.072606	0.220296
580.284367	0.220175
580.496109	0.220871
580.707833	0.220281
580.919539	0.220298
581.131227	0.220458
581.342896	0.220351
581.554547	0.220646
581.766180	0.220404
581.977795	0.220455
582.189391	0.220664
582.400969	0.220520
582.612529	0.220560
582.824071	0.220456
583.035595	0.220318
583.247100	0.220354
583.458587	0.220652
583.670056	0.220860
583.881506	0.221388
584.092939	0.221762
584.304353	0.221694
584.515749	0.222316
584.727127	0.222631
584.938486	0.222948
585.149828	0.223343
585.361151	0.222954
585.572456	0.223062
585.783742	0.222811
585.995011	0.222853
586.206261	0.223204
586.417493	0.223732
586.628706	0.223735
586.839902	0.223905
587.051079	0.224056
587.262238	0.224680
587.473379	0.224731
587.684502	0.224794
587.895606	0.225065
588.106692	0.224835
588.317760	0.224425
588.528810	0.224865
588.739841	0.225132
588.950855	0.224890
589.161850	0.224737
589.372827	0.225031
589.583785	0.225146
589.794726	0.225034
590.005648	0.225492
590.216552	0.225747
590.427437	0.225990
590.638305	0.225997
590.849154	0.226362
591.059985	0.226529
591.270798	0.226836
591.481592	0.227468
591.692369	0.228068
591.903127	0.228245
592.113867	0.228761
592.324588	0.228848
592.535292	0.229154
592.745977	0.229758
592.956644	0.230396
593.167293	0.230631
593.377923	0.230656
593.588536	0.230546
593.799130	0.230720
594.009706	0.230597
594.220263	0.230831
594.430803	0.230858
594.641324	0.230475
594.851827	0.230562
595.062312	0.229968
595.272778	0.229964
595.483227	0.229971
595.693657	0.229869
595.904069	0.230024
596.114462	0.229946
596.324838	0.230003
596.535195	0.230105
596.745534	0.229589
596.955855	0.230353
597.166157	0.230104
597.376441	0.230659
597.586707	0.231166
597.796955	0.231519
598.007185	0.231718
598.217396	0.231762
598.427589	0.232191
598.637764	0.232518
598.847921	0.232604
599.058060	0.232904
599.268180	0.232567
599.478282	0.232722
599.688366	0.232431
599.898431	0.232752
600.108479	0.232818
600.318508	0.232986
600.528519	0.232931
600.738511	0.232889
600.948486	0.233125
601.158442	0.233459
601.368380	0.233520
601.578300	0.233771
601.788202	0.233615
601.998085	0.234117
602.207950	0.234088
602.417797	0.234762
602.627626	0.235005
602.837436	0.234951
603.047228	0.235334
603.257002	0.235637
603.466758	0.235890
603.676496	0.236096
603.886215	0.236184
604.095916	0.236296
604.305599	0.236227
604.515264	0.236447
604.724910	0.236833
604.934538	0.236746
605.144148	0.236433
605.353740	0.236875
605.563314	0.237146
605.772869	0.237316
605.982406	0.237820
606.191925	0.237913
606.401425	0.238229
606.610908	0.238327
606.820372	0.238507
607.029818	0.238953
607.239246	0.238693
607.448655	0.238970
607.658047	0.238919
607.867420	0.238671
608.076775	0.239064
608.286111	0.238957
608.495430	0.239148
608.704730	0.239390
608.914012	0.239458
609.123275	0.239662
609.332521	0.239666
609.541748	0.240007
609.750957	0.240433
609.960148	0.240062
610.169321	0.240337
610.378475	0.240474
610.587611	0.240632
610.796729	0.240598
611.005829	0.240620
611.214910	0.240597
611.423974	0.240394
611.633019	0.240610
611.842045	0.241107
612.051054	0.241157
612.260044	0.241299
612.469017	0.241277
612.677970	0.241461
612.886906	0.241412
613.095824	0.241901
613.304723	0.242248
613.513604	0.241885
613.722467	0.242017
613.931311	0.242011
614.140138	0.241978
614.348946	0.242197
614.557736	0.242726
614.766507	0.243079
614.975261	0.242851
615.183996	0.242959
615.392713	0.243324
615.601412	0.243505
615.810092	0.243956
616.018754	0.244217
616.227399	0.244299
616.436024	0.243909
616.644632	0.243963
616.853222	0.244276
617.061793	0.244389
617.270346	0.244476
617.478880	0.244458
617.687397	0.244587
617.895895	0.244753
618.104375	0.244687
618.312837	0.245081
618.521281	0.245443
618.729706	0.245477
618.938113	0.245328
619.146502	0.245095
619.354873	0.245270
619.563226	0.245109
619.771560	0.245165
619.979876	0.245379
620.188174	0.245757
620.396453	0.245681
620.604715	0.245976
620.812958	0.246637
621.021183	0.247076
621.229390	0.247074
621.437578	0.247183
621.645748	0.247461
621.853900	0.247787
622.062034	0.247662
622.270150	0.248147
622.478247	0.248363
622.686326	0.248382
622.894387	0.248589
623.102430	0.249193
623.310454	0.249456
623.518461	0.249587
623.726449	0.249790
623.934418	0.250003
624.142370	0.249927
624.350303	0.249941
624.558218	0.250127
624.766115	0.250233
624.973994	0.250125
625.181855	0.250012
625.389697	0.250204
625.597521	0.250077
625.805327	0.250004
626.013114	0.250033
626.220883	0.250006
626.428634	0.250041
626.636367	0.250431
626.844082	0.250567
627.051778	0.251096
627.259457	0.251309
627.467117	0.251710
627.674758	0.252029
627.882382	0.252319
628.089987	0.252323
628.297574	0.252329
628.505143	0.252439
628.712694	0.252513
628.920226	0.252610
629.127740	0.252542
629.335236	0.252616
629.542714	0.252762
629.750174	0.252979
629.957615	0.253428
630.165038	0.253914
630.372443	0.254391
630.579829	0.254740
630.787198	0.254787
630.994548	0.255093
631.201880	0.255223
631.409194	0.255864
631.616489	0.255890
631.823766	0.256089
632.031025	0.256154
632.238266	0.255781
632.445489	0.255965
632.652693	0.256142
632.859879	0.256413
633.067047	0.256583
633.274197	0.256249
633.481329	0.256967
633.688442	0.257064
633.895537	0.257226
634.102614	0.257314
634.309672	0.257469
634.516713	0.257766
634.723735	0.257732
634.930739	0.257829
635.137724	0.258055
635.344692	0.257797
635.551641	0.257969
635.758572	0.257986
635.965485	0.258493
636.172379	0.258359
636.379256	0.258312
636.586114	0.258477
636.792954	0.258609
636.999775	0.259181
637.206579	0.259399
637.413364	0.259625
637.620131	0.259754
637.826880	0.259607
638.033610	0.259953
638.240323	0.260282
638.447017	0.260335
638.653692	0.260353
638.860350	0.259885
639.066990	0.259934
639.273611	0.259984
639.480214	0.260265
639.686798	0.260493
639.893365	0.260933
640.099913	0.261204
640.306443	0.261614
640.512955	0.262063
640.719449	0.262274
640.925924	0.262532
641.132381	0.262811
641.338820	0.262986
641.545241	0.263012
641.751644	0.262930
641.958028	0.262932
642.164394	0.262994
642.370742	0.263035
642.577071	0.263286
642.783383	0.263421
642.989676	0.263299
643.195951	0.263399
643.402207	0.263871
643.608446	0.264131
643.814666	0.264612
644.020868	0.264803
644.227052	0.265249
644.433218	0.265745
644.639365	0.265758
644.845494	0.266157
645.051605	0.266622
645.257698	0.266828
645.463772	0.267152
645.669828	0.267213
645.875866	0.267644
646.081886	0.267941
646.287888	0.268110
646.493871	0.268528
646.699836	0.268619
646.905783	0.268825
647.111712	0.269006
647.317622	0.269123
647.523514	0.269295
647.729388	0.269229
647.935244	0.269292
648.141082	0.269550
648.346901	0.269814
648.552702	0.270401
648.758485	0.270384
648.964250	0.270514
649.169996	0.270575
649.375724	0.270577
649.581434	0.270879
649.787126	0.271016
649.992800	0.271044
650.198455	0.271370
650.404092	0.271276
650.609711	0.271526
650.815311	0.271651
651.020894	0.271889
651.226458	0.272164
651.432004	0.272515
651.637532	0.272733
651.843041	0.273006
652.048532	0.272835
652.254006	0.273025
652.459460	0.273242
652.664897	0.273481
652.870315	0.273694
653.075716	0.273920
653.281097	0.273902
653.486461	0.273999
653.691807	0.273883
653.897134	0.274116
654.102443	0.274350
654.307734	0.274510
654.513006	0.274855
654.718261	0.274985
654.923497	0.275232
655.128715	0.275520
655.333915	0.275902
655.539096	0.276238
655.744259	0.276481
655.949404	0.276752
656.154531	0.276904
656.359640	0.276885
656.564730	0.277200
656.769802	0.277267
656.974856	0.277488
657.179892	0.277551
657.384909	0.277698
657.589908	0.277988
657.794889	0.277920
657.999852	0.278127
658.204797	0.278456
658.409723	0.278686
658.614631	0.279208
658.819521	0.279360
659.024393	0.279686
659.229246	0.279947
659.434081	0.280098
659.638898	0.280749
659.843697	0.281130
660.048478	0.281318
660.253240	0.281478
660.457984	0.281613
660.662710	0.281696
660.867417	0.281748
661.072107	0.281947
661.276778	0.282175
661.481431	0.282288
661.686066	0.282480
661.890682	0.282820
662.095281	0.283168
662.299861	0.283184
662.504422	0.283421
662.708966	0.283828
662.913491	0.283949
663.117999	0.284075
663.322488	0.284054
663.526958	0.284085
663.731411	0.284094
663.935845	0.284119
664.140261	0.284373
664.344659	0.284598
664.549038	0.284768
664.753400	0.285101
664.957743	0.285422
665.162068	0.285717
665.366375	0.285966
665.570663	0.286160
665.774933	0.286539
665.979185	0.286838
666.183419	0.286978
666.387635	0.287159
666.591832	0.287170
666.796011	0.287477
667.000172	0.287620
667.204315	0.287740
667.408439	0.288155
667.612545	0.288301
667.816634	0.288629
668.020703	0.288967
668.224755	0.289062
668.428788	0.289563
668.632803	0.289781
668.836800	0.290056
669.040779	0.290393
669.244739	0.290514
669.448681	0.290585
669.652605	0.290794
669.856511	0.290998
670.060399	0.291358
670.264268	0.291541
670.468119	0.291496
670.671952	0.291846
670.875767	0.292153
671.079563	0.292444
671.283341	0.292777
671.487101	0.293064
671.690843	0.293224
671.894567	0.293222
672.098272	0.293489
672.301959	0.293932
672.505628	0.294142
672.709278	0.294473
672.912911	0.294920
673.116525	0.295369
673.320121	0.295583
673.523699	0.296316
673.727258	0.296810
673.930799	0.297228
674.134322	0.297620
674.337827	0.298126
674.541314	0.298361
674.744782	0.298460
674.948232	0.298580
675.151664	0.298733
675.355078	0.298737
675.558474	0.299044
675.761851	0.299101
675.965210	0.299239
676.168551	0.299497
676.371873	0.299510
676.575178	0.299844
676.778464	0.300030
676.981732	0.300325
677.184981	0.300324
677.388213	0.300519
677.591426	0.300684
677.794621	0.300950
677.997798	0.300804
678.200956	0.301098
678.404097	0.301115
678.607219	0.301116
678.810323	0.301260
679.013408	0.301413
679.216476	0.301477
679.419525	0.301598
679.622556	0.301626
679.825569	0.302028
680.028563	0.302214
680.231540	0.302423
680.434498	0.302803
680.637438	0.302819
680.840359	0.303201
681.043263	0.303431
681.246148	0.303880
681.449015	0.304167
681.651864	0.304168
681.854694	0.304204
682.057506	0.304235
682.260301	0.304517
682.463076	0.305010
682.665834	0.305262
682.868573	0.305594
683.071295	0.305865
683.273998	0.305972
683.476682	0.306293
683.679349	0.306811
683.881997	0.307345
684.084627	0.307566
684.287239	0.307446
684.489833	0.307503
684.692408	0.307695
684.894965	0.307836
685.097504	0.308331
685.300025	0.308562
685.502527	0.308650
685.705012	0.308833
685.907478	0.309030
686.109925	0.309353
686.312355	0.309777
686.514766	0.310050
686.717159	0.310007
686.919534	0.310066
687.121891	0.310289
687.324230	0.310353
687.526550	0.310254
687.728852	0.310535
687.931136	0.310593
688.133401	0.310808
688.335649	0.310785
688.537878	0.311144
688.740089	0.311373
688.942281	0.311315
689.144456	0.311757
689.346612	0.312178
689.548750	0.312230
689.750870	0.312752
689.952971	0.312690
690.155055	0.313121
690.357120	0.313436
690.559167	0.313413
690.761195	0.313858
690.963206	0.314130
691.165198	0.314277
691.367172	0.314352
691.569128	0.314034
691.771065	0.314354
691.972984	0.314081
692.174885	0.314187
692.376768	0.314375
692.578633	0.314541
692.780479	0.314426
692.982308	0.314385
693.184118	0.314549
693.385909	0.314896
693.587683	0.314960
693.789438	0.315288
693.991175	0.315146
694.192894	0.315352
694.394595	0.315518
694.596277	0.315502
694.797941	0.315850
694.999587	0.316127
695.201215	0.316375
695.402824	0.316261
695.604416	0.316569
695.805989	0.316422
696.007543	0.316433
696.209080	0.316355
696.410598	0.316604
696.612099	0.316730
696.813580	0.316742
697.015044	0.316894
697.216490	0.317320
697.417917	0.317178
697.619326	0.317837
697.820717	0.318035
698.022089	0.318066
698.223444	0.318368
698.424780	0.318439
698.626098	0.318636
698.827397	0.318634
699.028679	0.318773
699.229942	0.318854
699.431187	0.318806
699.632414	0.318786
699.833622	0.318982
700.034813	0.318802
700.235985	0.318952
700.437139	0.318891
700.638274	0.319112
700.839392	0.319264
701.040491	0.319566
701.241572	0.319592
701.442635	0.319732
701.643679	0.319987
701.844706	0.320507
702.045714	0.320451
702.246704	0.320653
702.447675	0.321031
702.648629	0.321060
702.849564	0.321003
703.050481	0.321148
703.251380	0.321532
703.452260	0.321181
703.653122	0.321111
703.853966	0.321207
704.054792	0.321118
704.255600	0.320879
704.456389	0.320877
704.657160	0.321143
704.857913	0.321277
705.058648	0.321189
705.259365	0.321529
705.460063	0.321429
705.660743	0.321603
705.861405	0.321788
706.062048	0.321670
706.262674	0.321700
706.463281	0.321546
706.663870	0.321350
706.864441	0.321275
707.064993	0.321175
707.265527	0.320994
707.466043	0.320824
707.666541	0.320642
707.867021	0.320703
708.067482	0.320715
708.267925	0.320575
708.468350	0.320802
708.668757	0.320789
708.869145	0.320885
709.069516	0.321037
709.269868	0.321189
709.470201	0.321418
709.670517	0.321632
709.870814	0.321658
710.071093	0.321776
710.271354	0.321755
710.471597	0.322020
710.671821	0.321993
710.872028	0.322195
711.072216	0.322163
711.272385	0.322080
711.472537	0.322020
711.672670	0.321864
711.872785	0.322013
712.072882	0.322111
712.272961	0.322079
712.473021	0.322053
712.673063	0.321941
712.873087	0.322119
713.073093	0.322276
713.273081	0.322341
713.473050	0.322419
713.673001	0.322290
713.872934	0.322438
714.072849	0.322385
714.272745	0.322427
714.472623	0.322467
714.672483	0.322245
714.872325	0.322325
715.072148	0.322341
715.271954	0.322368
715.471741	0.322461
715.671509	0.322184
715.871260	0.322189
716.070992	0.322380
716.270707	0.322200
716.470403	0.322151
716.670080	0.321740
716.869740	0.321476
717.069381	0.321288
717.269004	0.321412
717.468609	0.321325
717.668195	0.320954
717.867764	0.320905
718.067314	0.320923
718.266846	0.320793
718.466360	0.320700
718.665855	0.320624
718.865332	0.320448
719.064791	0.320176
719.264232	0.320269
719.463655	0.320277
719.663059	0.319995
719.862445	0.319871
720.061813	0.319658
720.261163	0.319725
720.460494	0.319654
720.659807	0.319623
720.859102	0.319307
721.058379	0.318915
721.257638	0.318826
721.456878	0.318629
721.656100	0.318380
721.855304	0.318462
722.054490	0.318213
722.253657	0.318051
722.452806	0.317957
722.651937	0.317745
722.851050	0.317716
723.050145	0.317387
723.249221	0.317011
723.448279	0.317092
723.647319	0.317020
723.846340	0.317007
724.045344	0.316834
724.244329	0.316731
724.443296	0.316821
724.642245	0.316812
724.841175	0.316799
725.040088	0.317083
725.238982	0.316849
725.437857	0.317029
725.636715	0.317107
725.835554	0.316907
726.034376	0.316843
726.233179	0.316762
726.431963	0.316540
726.630730	0.316769
726.829478	0.316286
727.028208	0.315903
727.226920	0.315419
727.425614	0.315125
727.624289	0.315291
727.822946	0.315433
728.021585	0.315224
728.220206	0.314978
728.418808	0.314562
728.617392	0.314547
728.815958	0.314445
729.014506	0.314450
729.213036	0.314153
729.411547	0.313604
729.610040	0.313125
729.808515	0.313181
730.006972	0.313060
730.205410	0.312879
730.403831	0.312760
730.602233	0.313129
730.800616	0.312611
730.998982	0.312703
731.197329	0.312953
731.395658	0.312935
731.593969	0.312522
731.792262	0.312605
731.990536	0.312474
732.188793	0.312503
732.387031	0.312164
732.585250	0.312163
732.783452	0.311571
732.981635	0.311382
733.179800	0.310847
733.377947	0.310620
733.576076	0.310167
733.774186	0.310035
733.972278	0.309753
734.170352	0.309159
734.368408	0.309301
734.566446	0.309646
734.764465	0.309177
734.962466	0.309201
735.160449	0.309297
735.358413	0.309283
735.556360	0.308873
735.754288	0.308670
735.952198	0.308913
736.150090	0.308405
736.347963	0.308024
736.545818	0.308153
736.743655	0.308078
736.941474	0.307812
737.139275	0.307598
737.337057	0.307583
737.534821	0.307360
737.732567	0.307134
737.930295	0.307027
738.128005	0.306727
738.325696	0.306302
738.523369	0.306070
738.721024	0.305863
738.918660	0.305420
739.116279	0.305340
739.313879	0.305348
739.511461	0.305018
739.709024	0.304721
739.906570	0.304455
740.104097	0.304319
740.301606	0.304090
740.499097	0.304023
740.696569	0.303880
740.894024	0.303479
741.091460	0.303031
741.288878	0.302824
741.486277	0.302798
741.683659	0.302677
741.881022	0.302744
742.078367	0.302611
742.275694	0.302225
742.473002	0.302323
742.670293	0.302243
742.867565	0.302387
743.064819	0.302274
743.262054	0.302099
743.459272	0.302221
743.656471	0.301905
743.853652	0.301816
744.050815	0.301613
744.247959	0.301216
744.445085	0.300977
744.642194	0.300763
744.839283	0.300606
745.036355	0.300427
745.233408	0.300033
745.430444	0.299749
745.627461	0.299356
745.824459	0.299059
746.021440	0.299131
746.218402	0.299035
746.415346	0.298721
746.612272	0.298638
746.809180	0.298427
747.006069	0.298217
747.202940	0.298174
747.399793	0.298381
747.596628	0.298254
747.793444	0.297799
747.990243	0.297677
748.187023	0.297665
748.383784	0.297536
748.580528	0.297397
748.777253	0.297254
748.973960	0.297097
749.170649	0.296667
749.367320	0.296379
749.563973	0.296165
749.760607	0.295781
749.957223	0.295476
750.153821	0.294806
750.350400	0.294689
750.546962	0.294657
750.743505	0.294471
750.940030	0.294253
751.136536	0.294117
751.333025	0.294002
751.529495	0.293914
751.725947	0.293805
751.922381	0.293971
752.118796	0.293491
752.315194	0.293099
752.511573	0.292906
752.707934	0.292671
752.904276	0.293017
753.100601	0.292739
753.296907	0.292545
753.493195	0.292249
753.689465	0.292106
753.885716	0.292187
754.081949	0.292044
754.278164	0.291842
754.474361	0.291574
754.670540	0.291008
754.866700	0.291073
755.062843	0.290885
755.258967	0.290557
755.455072	0.290237
755.651160	0.289747
755.847229	0.289331
756.043280	0.289074
756.239313	0.289082
756.435328	0.288852
756.631324	0.288781
756.827302	0.288702
757.023262	0.288570
757.219204	0.288292
757.415127	0.288273
757.611033	0.288323
757.806920	0.287881
758.002788	0.287606
758.198639	0.287548
758.394471	0.286991
758.590286	0.286565
758.786081	0.286268
758.981859	0.286083
759.177619	0.285682
759.373360	0.285724
759.569083	0.285576
759.764788	0.285696
759.960474	0.285552
760.156143	0.285509
760.351793	0.285662
760.547425	0.285329
760.743038	0.285038
760.938634	0.284962
761.134211	0.284566
761.329770	0.284408
761.525311	0.283814
761.720833	0.283734
761.916338	0.283420
762.111824	0.283019
762.307292	0.283173
762.502741	0.283252
762.698173	0.282994
762.893586	0.282981
763.088981	0.283093
763.284358	0.282887
763.479716	0.282467
763.675057	0.282193
763.870379	0.281710
764.065683	0.281508
764.260968	0.281150
764.456236	0.281050
764.651485	0.280511
764.846716	0.280191
765.041929	0.280086
765.237123	0.279737
765.432299	0.279671
765.627457	0.279824
765.822597	0.279611
766.017719	0.279561
766.212822	0.279706
766.407907	0.279699
766.602974	0.279634
766.798023	0.279795
766.993054	0.279905
767.188066	0.280041
767.383060	0.280139
767.578036	0.280089
767.772993	0.280241
767.967933	0.279989
768.162854	0.279880
768.357757	0.279909
768.552642	0.279874
768.747508	0.279701
768.942356	0.279615
769.137186	0.279438
769.331998	0.279652
769.526792	0.279411
769.721567	0.279139
769.916324	0.278950
770.111063	0.278554
770.305784	0.278179
770.500486	0.278187
770.695171	0.278017
770.889837	0.277888
771.084484	0.277422
771.279114	0.277083
771.473725	0.276968
771.668318	0.276867
771.862893	0.276966
772.057450	0.276779
772.251988	0.276501
772.446509	0.276260
772.641011	0.276063
772.835494	0.275955
773.029960	0.276142
773.224407	0.276098
773.418836	0.276052
773.613247	0.275858
773.807640	0.275888
774.002014	0.276040
774.196370	0.276007
774.390708	0.275972
774.585028	0.276118
774.779330	0.275771
774.973613	0.275401
775.167878	0.275225
775.362125	0.274939
775.556354	0.275013
775.750564	0.275201
775.944756	0.275310
776.138930	0.275346
776.333086	0.275277
776.527223	0.275479
776.721343	0.275754
776.915444	0.275899
777.109526	0.276161
777.303591	0.276360
777.497637	0.275956
777.691666	0.275934
777.885676	0.276082
778.079667	0.275877
778.273641	0.275757
778.467596	0.275925
778.661533	0.275909
778.855452	0.275648
779.049352	0.275345
779.243235	0.275010
779.437099	0.274652
779.630945	0.274511
779.824773	0.274655
780.018582	0.274485
780.212373	0.274509
780.406146	0.274477
780.599901	0.274707
780.793638	0.274584
780.987356	0.274948
781.181056	0.275355
781.374738	0.275192
781.568402	0.275078
781.762047	0.275215
781.955674	0.275087
782.149283	0.275083
782.342874	0.275469
782.536447	0.275380
782.730001	0.275451
782.923537	0.275223
783.117055	0.275451
783.310555	0.275579
783.504036	0.275826
783.697499	0.275866
783.890944	0.275986
784.084371	0.275656
784.277780	0.276037
784.471170	0.276367
784.664542	0.276689
784.857896	0.276606
785.051231	0.276851
785.244549	0.276866
785.437848	0.276769
785.631129	0.276936
785.824392	0.277011
786.017636	0.277127
786.210863	0.276781
786.404071	0.276704
786.597260	0.276917
786.790432	0.276850
786.983585	0.276825
787.176721	0.277136
787.369838	0.277134
787.562936	0.277342
787.756017	0.277586
787.949079	0.277847
788.142123	0.277756
788.335149	0.277778
788.528156	0.277855
788.721146	0.278094
788.914117	0.278108
789.107070	0.277901
789.300005	0.277937
789.492921	0.277584
789.685819	0.277460
789.878699	0.277700
790.071561	0.277687
790.264405	0.277588
790.457230	0.277447
790.650037	0.277442
790.842826	0.277896
791.035597	0.277999
791.228349	0.278067
791.421084	0.278135
791.613800	0.278408
791.806497	0.278323
791.999177	0.278578
792.191838	0.278480
792.384481	0.278663
792.577106	0.278973
792.769713	0.278992
792.962301	0.279042
793.154871	0.279269
793.347423	0.279019
793.539957	0.279360
793.732473	0.279275
793.924970	0.279771
794.117449	0.280241
794.309910	0.280236
794.502353	0.280521
794.694777	0.280994
794.887183	0.281323
795.079571	0.281648
795.271941	0.281830
795.464293	0.282293
795.656626	0.282610
795.848941	0.282735
796.041238	0.282791
796.233516	0.282740
796.425777	0.282776
796.618019	0.283006
796.810243	0.283259
797.002449	0.283608
797.194636	0.283885
797.386805	0.283976
797.578956	0.283873
797.771089	0.284156
797.963204	0.284522
798.155300	0.284935
798.347378	0.285431
798.539438	0.285951
798.731480	0.286014
798.923503	0.286075
799.115509	0.286458
799.307496	0.286793
799.499465	0.286960
799.691415	0.287208
799.883348	0.287293
800.075262	0.287008
800.267158	0.286876
800.459035	0.287172
800.650895	0.287398
800.842736	0.287464
801.034559	0.287699
801.226364	0.287895
801.418150	0.287894
801.609919	0.288145
801.801669	0.288364
801.993401	0.288615
802.185114	0.288957
802.376810	0.289025
802.568487	0.289209
802.760146	0.289577
802.951787	0.289764
803.143409	0.289921
803.335014	0.290090
803.526600	0.290353
803.718168	0.290850
803.909717	0.290709
804.101249	0.291100
804.292762	0.291312
804.484257	0.291289
804.675734	0.291391
804.867192	0.291812
805.058632	0.292233
805.250054	0.292662
805.441458	0.292717
805.632844	0.293198
805.824211	0.293849
806.015561	0.294224
806.206891	0.294796
806.398204	0.295218
806.589499	0.295424
806.780775	0.295638
806.972033	0.296099
807.163273	0.296527
807.354495	0.296874
807.545698	0.297124
807.736883	0.297478
807.928050	0.297844
808.119199	0.298238
808.310329	0.298960
808.501441	0.299580
808.692535	0.299882
808.883611	0.300038
809.074669	0.300498
809.265708	0.300403
809.456729	0.300796
809.647732	0.300916
809.838717	0.301400
810.029683	0.301360
810.220632	0.301265
810.411562	0.301311
810.602474	0.301754
810.793367	0.301912
810.984242	0.302434
811.175100	0.302545
811.365938	0.302674
811.556759	0.303197
811.747562	0.303379
811.938346	0.303736
812.129112	0.304235
812.319860	0.304730
812.510589	0.305223
812.701300	0.305460
812.891994	0.306015
813.082668	0.306626
813.273325	0.306795
813.463964	0.307518
813.654584	0.307884
813.845186	0.308234
814.035769	0.308461
814.226335	0.308497
814.416882	0.309079
814.607411	0.309295
814.797922	0.309544
814.988415	0.309811
815.178889	0.310371
815.369345	0.310770
815.559783	0.311076
815.750203	0.311338
815.940605	0.311882
816.130988	0.311907
816.321353	0.312543
816.511700	0.313198
816.702028	0.313624
816.892339	0.313794
817.082631	0.314126
817.272905	0.314422
817.463161	0.314545
817.653398	0.314734
817.843617	0.315395
818.033819	0.315514
818.224001	0.315729
818.414166	0.316008
818.604312	0.315978
818.794440	0.316306
818.984550	0.316879
819.174642	0.317674
819.364716	0.318276
819.554771	0.318836
819.744808	0.319260
819.934827	0.319613
820.124827	0.319877
820.314810	0.320540
820.504774	0.321031
820.694720	0.321306
820.884647	0.321621
821.074557	0.321902
821.264448	0.321877
821.454321	0.322340
821.644176	0.322499
821.834012	0.322979
822.023831	0.323514
822.213631	0.323938
822.403413	0.324426
822.593176	0.325065
822.782922	0.325682
822.972649	0.326236
823.162358	0.326540
823.352049	0.326841
823.541721	0.327529
823.731376	0.327949
823.921012	0.328237
824.110629	0.328859
824.300229	0.328919
824.489811	0.329020
824.679374	0.329645
824.868919	0.330056
825.058445	0.331000
825.247954	0.331431
825.437444	0.331837
825.626916	0.332561
825.816370	0.332720
826.005806	0.333141
826.195223	0.334027
826.384622	0.334222
826.574003	0.334530
826.763366	0.334906
826.952711	0.335018
827.142037	0.335571
827.331345	0.335751
827.520635	0.336270
827.709906	0.336873
827.899160	0.337111
828.088395	0.337643
828.277612	0.338329
828.466810	0.338658
828.655991	0.339411
828.845153	0.339706
829.034297	0.340247
829.223423	0.340574
829.412531	0.340756
829.601620	0.341083
829.790691	0.341510
829.979744	0.341636
830.168779	0.342154
830.357795	0.342408
830.546793	0.343247
830.735773	0.343723
830.924735	0.344103
831.113679	0.344995
831.302604	0.345406
831.491511	0.346062
831.680400	0.346958
831.869271	0.347311
832.058123	0.348105
832.246957	0.348577
832.435773	0.349255
832.624571	0.349952
832.813351	0.350528
833.002112	0.351557
833.190855	0.351817
833.379580	0.352171
833.568287	0.352760
833.756975	0.353337
833.945645	0.353701
834.134297	0.354499
834.322931	0.355048
834.511547	0.355495
834.700144	0.355897
834.888723	0.356682
835.077284	0.357238
835.265826	0.357767
835.454351	0.357872
835.642857	0.358510
835.831345	0.358842
836.019815	0.359459
836.208266	0.359869
836.396699	0.360441
836.585114	0.361007
836.773511	0.361868
836.961890	0.362385
837.150250	0.363144
837.338592	0.363570
837.526916	0.364320
837.715222	0.364847
837.903510	0.365466
838.091779	0.365933
838.280030	0.366630
838.468263	0.367013
838.656477	0.367756
838.844674	0.368434
839.032852	0.369177
839.221012	0.369573
839.409153	0.370458
839.597277	0.371383
839.785382	0.372130
839.973469	0.372540
840.161538	0.373396
840.349589	0.374010
840.537621	0.374377
840.725635	0.375045
840.913631	0.375371
841.101609	0.375931
841.289568	0.376422
841.477509	0.376918
841.665432	0.377407
841.853337	0.377759
842.041224	0.378312
842.229092	0.379212
842.416942	0.379757
842.604774	0.380794
842.792588	0.381297
842.980383	0.381990
843.168160	0.382516
843.355919	0.383001
843.543660	0.383500
843.731382	0.384260
843.919087	0.384744
844.106773	0.384873
844.294441	0.385493
844.482090	0.385666
844.669722	0.385833
844.857335	0.386399
845.044930	0.386932
845.232507	0.387545
845.420065	0.388099
845.607605	0.388438
845.795127	0.389087
845.982631	0.389434
846.170117	0.390245
846.357584	0.390770
846.545033	0.391484
846.732464	0.391949
846.919877	0.392576
847.107272	0.392672
847.294648	0.393104
847.482006	0.393808
847.669346	0.394166
847.856667	0.395018
848.043971	0.395505
848.231256	0.395522
848.418523	0.396263
848.605771	0.396696
848.793002	0.397435
848.980214	0.398436
849.167408	0.398966
849.354584	0.399530
849.541742	0.400001
849.728881	0.400484
849.916002	0.401398
850.103105	0.402098
850.290190	0.402198
850.477256	0.403010
850.664304	0.403830
850.851334	0.404367
851.038346	0.404864
851.225340	0.405058
851.412315	0.405852
851.599272	0.406783
851.786211	0.406960
851.973132	0.408106
852.160034	0.408957
852.346918	0.408840
852.533784	0.409561
852.720632	0.409778
852.907462	0.410423
853.094273	0.411283
853.281066	0.411396
853.467841	0.412361
853.654598	0.412416
853.841336	0.412599
854.028056	0.413507
854.214758	0.413860
854.401442	0.414582
854.588107	0.415335
854.774755	0.415494
854.961384	0.416053
855.147995	0.416507
855.334587	0.417688
855.521162	0.418122
855.707718	0.418467
855.894256	0.418776
856.080775	0.419721
856.267277	0.419979
856.453760	0.420778
856.640225	0.421311
856.826672	0.421966
857.013101	0.422017
857.199511	0.422363
857.385903	0.423220
857.572277	0.423913
857.758633	0.423818
857.944970	0.424465
858.131290	0.424940
858.317591	0.425137
858.503873	0.425460
858.690138	0.426336
858.876384	0.427167
859.062612	0.427044
859.248822	0.427396
859.435014	0.427902
859.621188	0.428337
859.807343	0.428215
859.993480	0.429070
860.179599	0.429652
860.365699	0.430521
860.551781	0.430803
860.737846	0.431529
860.923891	0.432031
861.109919	0.433121
861.295929	0.433508
861.481920	0.434635
861.667893	0.435135
861.853848	0.434852
862.039784	0.434496
862.225702	0.434685
862.411603	0.434629
862.597484	0.434990
862.783348	0.435280
862.969193	0.435543
863.155021	0.435503
863.340830	0.435641
863.526620	0.436585
863.712393	0.437178
863.898147	0.437934
864.083883	0.438436
864.269601	0.438965
864.455301	0.439065
864.640982	0.439565
864.826645	0.440139
865.012290	0.440468
865.197917	0.441179
865.383526	0.441710
865.569116	0.442050
865.754688	0.443082
865.940242	0.443665
866.125777	0.444424
866.311295	0.444895
866.496794	0.445492
866.682275	0.446306
866.867737	0.446486
867.053182	0.446426
867.238608	0.446713
867.424016	0.446337
867.609406	0.446607
867.794778	0.446714
867.980131	0.447294
868.165466	0.447117
868.350783	0.446835
868.536082	0.447008
868.721362	0.447576
868.906625	0.447915
869.091869	0.448473
869.277094	0.448457
869.462302	0.448998
869.647491	0.449430
869.832662	0.450230
870.017815	0.451040
870.202950	0.451082
870.388066	0.451479
870.573165	0.451589
870.758245	0.452126
870.943306	0.452866
871.128350	0.452880
871.313375	0.452868
871.498382	0.453130
871.683371	0.453503
871.868342	0.454679
872.053294	0.455395
872.238229	0.455895
872.423144	0.456179
872.608042	0.456269
872.792922	0.456770
872.977783	0.456875
873.162626	0.457278
873.347451	0.457304
873.532258	0.457241
873.717046	0.457351
873.901816	0.457731
874.086568	0.458430
874.271302	0.458953
874.456017	0.459228
874.640715	0.459839
874.825394	0.459613
875.010055	0.460478
875.194697	0.460768
875.379322	0.460983
875.563928	0.461710
875.748516	0.461773
875.933085	0.462338
876.117637	0.462725
876.302170	0.463092
876.486685	0.464090
876.671182	0.463842
876.855661	0.463794
877.040121	0.464334
877.224563	0.464039
877.408987	0.463955
877.593393	0.463813
877.777780	0.463854
877.962150	0.463695
878.146501	0.463302
878.330833	0.464154
878.515148	0.464934
878.699444	0.464959
878.883722	0.465281
879.067982	0.465797
879.252224	0.466049
879.436447	0.466260
879.620653	0.466886
879.804840	0.467199
879.989008	0.466725
880.173159	0.467229
880.357291	0.467197
880.541405	0.467981
880.725501	0.468187
880.909579	0.468114
881.093638	0.468190
881.277680	0.468182
881.461703	0.468384
881.645707	0.468749
881.829694	0.468540
882.013662	0.468942
882.197612	0.468602
882.381544	0.468742
882.565458	0.469021
882.749353	0.469210
882.933230	0.469802
883.117089	0.470274
883.300930	0.470533
883.484753	0.470086
883.668557	0.470367
883.852343	0.470797
884.036111	0.470825
884.219861	0.470347
884.403592	0.470428
884.587305	0.470109
884.771000	0.469971
884.954677	0.469852
885.138335	0.470145
885.321976	0.469646
885.505598	0.469734
885.689201	0.469994
885.872787	0.470860
886.056354	0.471154
886.239904	0.471519
886.423434	0.471705
886.606947	0.472176
886.790442	0.472360
886.973918	0.473010
887.157376	0.472519
887.340816	0.473050
887.524237	0.472920
887.707641	0.473052
887.891026	0.472735
888.074393	0.472547
888.257741	0.472527
888.441072	0.472690
888.624384	0.471910
888.807678	0.471982
888.990954	0.471041
889.174211	0.471276
889.357451	0.471378
889.540672	0.471249
889.723875	0.471706
889.907059	0.470918
890.090226	0.470965
890.273374	0.471461
890.456504	0.471890
890.639616	0.472020
890.822709	0.472315
891.005785	0.471995
891.188842	0.472574
891.371881	0.471710
891.554901	0.472533
891.737904	0.471908
891.920888	0.471595
892.103854	0.471025
892.286802	0.471119
892.469731	0.469844
892.652643	0.469885
892.835536	0.469393
893.018410	0.469658
893.201267	0.469122
893.384106	0.468971
893.566926	0.469994
893.749728	0.470271
893.932511	0.469836
894.115277	0.470300
894.298024	0.470291
894.480753	0.470767
894.663464	0.470766
894.846157	0.470864
895.028831	0.471244
895.211487	0.470056
895.394125	0.469381
895.576745	0.469480
895.759346	0.468951
895.941930	0.468463
896.124495	0.467685
896.307041	0.467151
896.489570	0.466557
896.672080	0.466957
896.854573	0.467043
897.037046	0.467266
897.219502	0.467410
897.401940	0.467789
897.584359	0.467812
897.766760	0.467288
897.949143	0.467253
898.131507	0.467120
898.313854	0.466555
898.496182	0.465829
898.678492	0.465491
898.860783	0.464650
899.043057	0.464559
899.225312	0.464218
899.407549	0.464473
899.589768	0.464217
899.771968	0.463765
899.954151	0.462926
900.136315	0.462845
900.318461	0.461954
900.500588	0.462035
900.682698	0.461722
900.864789	0.461036
901.046862	0.460045
901.228917	0.459383
901.410953	0.459226
901.592971	0.459170
901.774972	0.458953
901.956953	0.459094
902.138917	0.458549
902.320862	0.457703
902.502790	0.458177
902.684699	0.458105
902.866589	0.458265
903.048462	0.458487
903.230316	0.458136
903.412152	0.457485
903.593970	0.457263
903.775770	0.457139
903.957551	0.456771
904.139314	0.456533
904.321059	0.456097
904.502786	0.454989
904.684494	0.454091
904.866185	0.453316
905.047857	0.453524
905.229510	0.452870
905.411146	0.452280
905.592763	0.451666
905.774363	0.450481
905.955943	0.450081
906.137506	0.450817
906.319051	0.450614
906.500577	0.449729
906.682085	0.449224
906.863575	0.448926
907.045046	0.448953
907.226500	0.448468
907.407935	0.448116
907.589352	0.446873
907.770750	0.445602
907.952131	0.445024
908.133493	0.444960
908.314837	0.444083
908.496163	0.442979
908.677470	0.442206
908.858760	0.441868
909.040031	0.441268
909.221284	0.441676
909.402518	0.441734
909.583735	0.441730
909.764933	0.441151
909.946113	0.440385
910.127275	0.439892
910.308418	0.438853
910.489544	0.438159
910.670651	0.437635
910.851740	0.436953
911.032810	0.435971
911.213863	0.433725
911.394897	0.432795
911.575913	0.431866
911.756911	0.431594
911.937890	0.430431
912.118851	0.430157
912.299794	0.429179
912.480719	0.427882
912.661626	0.426620
912.842514	0.426396
913.023384	0.426182
913.204236	0.425399
913.385070	0.424917
913.565886	0.424919
913.746683	0.423435
913.927462	0.422818
914.108223	0.422584
914.288965	0.422353
914.469690	0.421503
914.650396	0.420477
914.831084	0.419334
915.011754	0.418284
915.192405	0.417753
915.373038	0.417664
915.553653	0.416432
915.734250	0.415996
915.914829	0.414564
916.095389	0.414229
916.275931	0.414270
916.456455	0.413427
916.636961	0.412967
916.817448	0.411410
916.997917	0.410703
917.178368	0.410064
917.358801	0.408716
917.539216	0.408101
917.719612	0.406919
917.899990	0.405437
918.080350	0.405573
918.260692	0.404943
918.441015	0.404471
918.621320	0.404268
918.801607	0.404063
918.981876	0.403284
919.162127	0.402841
919.342359	0.402451
919.522573	0.401762
919.702769	0.400717
919.882947	0.399646
920.063106	0.399333
920.243247	0.398359
920.423370	0.396741
920.603475	0.396180
920.783562	0.395471
920.963630	0.394730
921.143680	0.393994
921.323712	0.393777
921.503725	0.392473
921.683721	0.390852
921.863698	0.389558
922.043657	0.389352
922.223598	0.387814
922.403520	0.386961
922.583424	0.385529
922.763311	0.384249
922.943178	0.383355
923.123028	0.382754
923.302859	0.382710
923.482673	0.381726
923.662467	0.380411
923.842244	0.379505
924.022003	0.379202
924.201743	0.379307
924.381465	0.377794
924.561169	0.376477
924.740854	0.374567
924.920522	0.373197
925.100171	0.371896
925.279802	0.370696
925.459414	0.370301
925.639009	0.368231
925.818585	0.366048
925.998143	0.365547
926.177683	0.364586
926.357205	0.364878
926.536708	0.363275
926.716193	0.362231
926.895660	0.361330
927.075109	0.360108
927.254539	0.359303
927.433951	0.358750
927.613345	0.358329
927.792721	0.356582
927.972079	0.354134
928.151418	0.353931
928.330739	0.352389
928.510042	0.351219
928.689327	0.350716
928.868593	0.350182
929.047841	0.348937
929.227071	0.347542
929.406283	0.346937
929.585476	0.346255
929.764652	0.344099
929.943809	0.344349
930.122948	0.342535
930.302068	0.340621
930.481171	0.338799
930.660255	0.337224
930.839321	0.335435
931.018369	0.334682
931.197398	0.334358
931.376409	0.333263
931.555402	0.331218
931.734377	0.330492
931.913334	0.329167
932.092272	0.328701
932.271192	0.328907
932.450094	0.328272
932.628978	0.326603
932.807844	0.325449
932.986691	0.324291
933.165520	0.323350
933.344331	0.322782
933.523123	0.322123
933.701898	0.320071
933.880654	0.318361
934.059392	0.317620
934.238111	0.317193
934.416813	0.314435
934.595496	0.313534
934.774161	0.312331
934.952808	0.311448
935.131437	0.309879
935.310047	0.308951
935.488639	0.307609
935.667213	0.305577
935.845769	0.303543
936.024306	0.303622
936.202825	0.302342
936.381326	0.300788
936.559809	0.299275
936.738274	0.298399
936.916720	0.296830
937.095148	0.295577
937.273558	0.294037
937.451950	0.292395
937.630323	0.290319
937.808678	0.288221
937.987015	0.287962
938.165334	0.286949
938.343635	0.285031
938.521917	0.284182
938.700181	0.281997
938.878427	0.281710
939.056655	0.281101
939.234864	0.280241
939.413055	0.280293
939.591228	0.277198
939.769383	0.275086
939.947519	0.273817
940.125638	0.272188
940.303738	0.270684
940.481820	0.268646
940.659883	0.267567
940.837929	0.266547
941.015956	0.263987
941.193965	0.264172
941.371955	0.263084
941.549928	0.261050
941.727882	0.258945
941.905818	0.257821
942.083736	0.257329
942.261636	0.254405
942.439517	0.252652
942.617380	0.252768
942.795225	0.248527
942.973052	0.246679
943.150860	0.245686
943.328651	0.245259
943.506423	0.244921
943.684176	0.242797
943.861912	0.242481
944.039629	0.240499
944.217328	0.238950
944.395009	0.240373
944.572672	0.240952
944.750317	0.239566
944.927943	0.238313
945.105551	0.236538
945.283141	0.235203
945.460712	0.233361
945.638265	0.233261
945.815801	0.231881
945.993317	0.230314
946.170816	0.227778
946.348297	0.225983
946.525759	0.225630
946.703203	0.224134
946.880629	0.222659
947.058036	0.222423
947.235425	0.219493
947.412797	0.218066
947.590149	0.216250
947.767484	0.214571
947.944800	0.214846
948.122099	0.211265
948.299379	0.210129
948.476640	0.208308
948.653884	0.204833
948.831109	0.203635
949.008316	0.201667
949.185505	0.200136
949.362676	0.198485
949.539828	0.195765
949.716962	0.196318
949.894078	0.194740
950.071176	0.192854
950.248256	0.193409
950.425317	0.194308
950.602360	0.194024
950.779385	0.192751
950.956391	0.191562
951.133380	0.191798
951.310350	0.188763
951.487302	0.188174
951.664235	0.187338
951.841151	0.187216
952.018048	0.184046
952.194927	0.183086
952.371788	0.182694
952.548631	0.181454
952.725455	0.179541
952.902261	0.177132
953.079049	0.175899
953.255819	0.177684
953.432570	0.174117
953.609303	0.173758
953.786018	0.171713
953.962715	0.169105
954.139394	0.167809
954.316054	0.168155
954.492696	0.169242
954.669320	0.166030
954.845926	0.163490
955.022513	0.162196
955.199083	0.157941
955.375634	0.156848
955.552166	0.155193
955.728681	0.154096
955.905177	0.150507
956.081655	0.150066
956.258115	0.151252
956.434557	0.150800
956.610980	0.151878
956.787385	0.153166
956.963772	0.152512
957.140141	0.152919
957.316492	0.152506
957.492824	0.152139
957.669138	0.148400
957.845434	0.146662
958.021712	0.143664
958.197971	0.141865
958.374212	0.144253
958.550435	0.141813
958.726640	0.142167
958.902826	0.140567
959.078995	0.140099
959.255145	0.140546
959.431277	0.140526
959.607390	0.141478
959.783486	0.140707
959.959563	0.137691
960.135622	0.138977
960.311662	0.137508
960.487685	0.138414
960.663689	0.139818
960.839675	0.139890
961.015643	0.140520
961.191593	0.138047
961.367524	0.138902
961.543437	0.139639
961.719332	0.138524
961.895209	0.137211
962.071067	0.135964
962.246907	0.131562
962.422730	0.132901
962.598533	0.132147
962.774319	0.130256
962.950086	0.128102
963.125835	0.128221
963.301566	0.128050
963.477279	0.130166
963.652973	0.128934
963.828650	0.131937
964.004308	0.131693
964.179947	0.133562
964.355569	0.138017
964.531172	0.138861
964.706757	0.139537
964.882324	0.141085
965.057873	0.139204
965.233403	0.140388
965.408916	0.137794
965.584410	0.136035
965.759885	0.130794
965.935343	0.129879
966.110782	0.130872
966.286203	0.128140
966.461606	0.126706
966.636991	0.124321
966.812357	0.125085
966.987705	0.127526
967.163035	0.130497
967.338347	0.132382
967.513641	0.130860
967.688916	0.128162
967.864173	0.127141
968.039412	0.126418
968.214632	0.129996
968.389835	0.130959
968.565019	0.130231
968.740185	0.127482
968.915333	0.128255
969.090462	0.128081
969.265573	0.128018
969.440667	0.129309
969.615741	0.132254
969.790798	0.129961
969.965836	0.127795
970.140856	0.127576
970.315858	0.126628
970.490842	0.125462
970.665808	0.127190
970.840755	0.126339
971.015684	0.128484
971.190595	0.127108
971.365487	0.127850
971.540362	0.128540
971.715218	0.128264
971.890056	0.128563
972.064875	0.128636
972.239677	0.126855
972.414460	0.130751
972.589225	0.129194
972.763972	0.126889
972.938700	0.124543
973.113411	0.125623
973.288103	0.126444
973.462777	0.124915
973.637432	0.123770
973.812070	0.122680
973.986689	0.121496
974.161290	0.120992
974.335873	0.124917
974.510437	0.127072
974.684984	0.126810
974.859512	0.126780
975.034022	0.128799
975.208513	0.130069
975.382987	0.130661
975.557442	0.129440
975.731879	0.130809
975.906298	0.127971
976.080698	0.128694
976.255080	0.127977
976.429445	0.129376
976.603790	0.130672
976.778118	0.131516
976.952427	0.134700
977.126719	0.134705
977.300992	0.132722
977.475246	0.132893
977.649483	0.133226
977.823701	0.132642
977.997901	0.131101
978.172083	0.132079
978.346247	0.130027
978.520392	0.128069
978.694519	0.129039
978.868628	0.129832
979.042719	0.129900
979.216791	0.127878
979.390845	0.128215
979.564882	0.127372
979.738899	0.123702
979.912899	0.125185
980.086880	0.125530
980.260843	0.125287
980.434788	0.124630
980.608715	0.124465
980.782623	0.126343
980.956514	0.127459
981.130386	0.129421
981.304240	0.129568
981.478075	0.128393
981.651892	0.126423
981.825692	0.128383
981.999472	0.128297
982.173235	0.127008
982.346980	0.125852
982.520706	0.126964
982.694414	0.125843
982.868104	0.126721
983.041775	0.127567
983.215428	0.129600
983.389064	0.127244
983.562680	0.128283
983.736279	0.129183
983.909860	0.128870
984.083422	0.126914
984.256966	0.125203
984.430491	0.124344
984.603999	0.125495
984.777488	0.123916
984.950959	0.123609
985.124412	0.122755
985.297847	0.121655
985.471263	0.123473
985.644661	0.122656
985.818041	0.122229
985.991403	0.124606
986.164747	0.123175
986.338072	0.122940
986.511379	0.124028
986.684668	0.125274
986.857938	0.126561
987.031191	0.126289
987.204425	0.126720
987.377641	0.130696
987.550839	0.129420
987.724018	0.129473
987.897179	0.131623
988.070322	0.129226
988.243447	0.130255
988.416554	0.128980
988.589642	0.129614
988.762712	0.128542
988.935764	0.127330
989.108798	0.126914
989.281813	0.127562
989.454811	0.126856
989.627790	0.128199
989.800751	0.127374
989.973693	0.127385
990.146617	0.127791
990.319524	0.129468
990.492412	0.128941
990.665281	0.130194
990.838133	0.130549
991.010966	0.130030
991.183781	0.131132
991.356578	0.131726
991.529356	0.133317
991.702117	0.131760
991.874859	0.132017
992.047583	0.131484
992.220288	0.130303
992.392976	0.128475
992.565645	0.128850
992.738296	0.128840
992.910929	0.128931
993.083543	0.128504
993.256139	0.127408
993.428718	0.128029
993.601277	0.128442
993.773819	0.129550
993.946342	0.132031
994.118848	0.132864
994.291335	0.130478
994.463803	0.128983
994.636254	0.129255
994.808686	0.128882
994.981100	0.127190
995.153496	0.125830
995.325874	0.125851
995.498233	0.125232
995.670574	0.123877
995.842897	0.127576
996.015202	0.128195
996.187488	0.128757
996.359757	0.131103
996.532007	0.131443
996.704239	0.133570
996.876452	0.135888
997.048648	0.134364
997.220825	0.133612
997.392984	0.132898
997.565124	0.132717
997.737247	0.131588
997.909351	0.129952
998.081437	0.129761
998.253505	0.129138
998.425554	0.126350
998.597586	0.127741
998.769599	0.128531
998.941594	0.128612
999.113571	0.129214
999.285529	0.129346
999.457469	0.130617
999.629391	0.129814
999.801295	0.131446
999.973181	0.129241
1000.145048	0.127731
1000.316897	0.128669
1000.488728	0.127669
1000.660541	0.127051
1000.832335	0.127551
1001.004111	0.127888
1001.175869	0.128289
1001.347609	0.125260
1001.519331	0.127430
1001.691034	0.129945
1001.862719	0.129620
1002.034386	0.130348
1002.206035	0.130686
1002.377665	0.129892
1002.549277	0.129983
1002.720871	0.130922
1002.892447	0.130610
1003.064004	0.131693
1003.235544	0.128982
1003.407065	0.128398
1003.578568	0.126878
1003.750052	0.124113
1003.921519	0.125071
1004.092967	0.123319
1004.264397	0.122577
1004.435809	0.123070
1004.607202	0.121852
1004.778577	0.122504
1004.949934	0.123942
1005.121273	0.124459
1005.292594	0.128038
1005.463896	0.128851
1005.635180	0.130369
1005.806446	0.131026
1005.977694	0.131326
1006.148923	0.131160
1006.320135	0.130268
1006.491328	0.128413
1006.662503	0.128696
1006.833659	0.127223
1007.004798	0.126833
1007.175918	0.126354
1007.347020	0.126191
1007.518103	0.125897
1007.689169	0.126973
1007.860216	0.128065
1008.031245	0.126934
1008.202256	0.127941
1008.373248	0.128824
1008.544223	0.125760
1008.715179	0.124857
1008.886117	0.125719
1009.057036	0.127202
1009.227938	0.125711
1009.398821	0.126082
1009.569686	0.128805
1009.740533	0.126093
1009.911361	0.124856
1010.082172	0.127443
1010.252964	0.128784
1010.423738	0.127415
1010.594493	0.125664
1010.765231	0.125656
1010.935950	0.125418
1011.106651	0.124569
1011.277334	0.126838
1011.447998	0.126024
1011.618645	0.125614
1011.789273	0.125370
1011.959882	0.126852
1012.130474	0.127199
1012.301048	0.126686
1012.471603	0.126191
1012.642140	0.124931
1012.812658	0.122928
1012.983159	0.123056
1013.153641	0.123427
1013.324105	0.122309
1013.494551	0.121021
1013.664979	0.120086
1013.835388	0.122121
1014.005779	0.122505
1014.176152	0.123834
1014.346507	0.126837
1014.516843	0.127331
1014.687162	0.127294
1014.857462	0.127494
1015.027744	0.126879
1015.198007	0.127014
1015.368252	0.125506
1015.538480	0.126757
1015.708689	0.125324
1015.878879	0.123674
1016.049052	0.125289
1016.219206	0.125794
1016.389342	0.125685
1016.559460	0.126133
1016.729559	0.127755
1016.899641	0.129955
1017.069704	0.129346
1017.239749	0.129287
1017.409775	0.130773
1017.579784	0.130823
1017.749774	0.129900
1017.919746	0.131173
1018.089700	0.131282
1018.259635	0.130409
1018.429553	0.127409
1018.599452	0.127053
1018.769333	0.129999
1018.939195	0.128257
1019.109040	0.127685
1019.278866	0.127541
1019.448674	0.126477
1019.618464	0.127929
1019.788235	0.128767
1019.957989	0.130194
1020.127724	0.129398
1020.297441	0.126883
1020.467139	0.127797
1020.636820	0.126944
1020.806482	0.126911
1020.976126	0.129353
1021.145752	0.128730
1021.315359	0.128238
1021.484948	0.127777
1021.654519	0.130413
1021.824072	0.131137
1021.993607	0.129257
1022.163123	0.129289
1022.332621	0.128520
1022.502101	0.126317
1022.671563	0.126484
1022.841007	0.126833
1023.010432	0.127391
1023.179839	0.126504
1023.349228	0.127805
1023.518598	0.129544
1023.687951	0.129334
1023.857285	0.130505
1024.026601	0.130512
1024.195899	0.131052
1024.365178	0.129914
1024.534439	0.129140
1024.703682	0.128941
1024.872907	0.128413
1025.042114	0.127228
1025.211302	0.128378
1025.380472	0.127777
1025.549624	0.127212
1025.718758	0.125978
1025.887873	0.124245
1026.056970	0.125029
1026.226049	0.125196
1026.395110	0.124580
1026.564153	0.124981
1026.733177	0.122955
1026.902183	0.124279
1027.071171	0.123872
1027.240141	0.124839
1027.409092	0.126386
1027.578026	0.125907
1027.746940	0.123824
1027.915837	0.124578
1028.084716	0.125708
1028.253576	0.127042
1028.422418	0.125444
1028.591242	0.125329
1028.760048	0.125107
1028.928835	0.127136
1029.097604	0.126763
1029.266355	0.129211
1029.435088	0.128993
1029.603803	0.126656
1029.772499	0.125503
1029.941177	0.126988
1030.109837	0.128474
1030.278478	0.126275
1030.447102	0.126715
1030.615707	0.127993
1030.784294	0.127436
1030.952863	0.126755
1031.121413	0.128183
1031.289945	0.128310
1031.458460	0.127509
1031.626955	0.126226
1031.795433	0.127938
1031.963892	0.126344
1032.132334	0.125390
1032.300756	0.126258
1032.469161	0.125994
1032.637548	0.124659
1032.805916	0.123487
1032.974266	0.123874
1033.142598	0.123816
1033.310911	0.122604
1033.479207	0.123547
1033.647484	0.124699
1033.815743	0.120877
1033.983983	0.122054
1034.152206	0.122325
1034.320410	0.124179
1034.488596	0.124555
1034.656764	0.125497
1034.824914	0.127737
1034.993045	0.125898
1035.161158	0.126021
1035.329253	0.127906
1035.497330	0.126253
1035.665388	0.128760
1035.833428	0.129369
1036.001450	0.128466
1036.169454	0.126959
1036.337440	0.124409
1036.505407	0.125872
1036.673356	0.124091
1036.841287	0.124672
1037.009200	0.125857
1037.177094	0.124036
1037.344970	0.124060
1037.512828	0.124007
1037.680668	0.125701
1037.848489	0.127724
1038.016293	0.127849
1038.184078	0.128188
1038.351845	0.126828
1038.519593	0.125988
1038.687324	0.125441
1038.855036	0.123251
1039.022730	0.122400
1039.190406	0.122057
1039.358063	0.121907
1039.525702	0.119043
1039.693323	0.118793
1039.860926	0.119293
1040.028511	0.118794
1040.196077	0.116816
1040.363625	0.118479
1040.531155	0.118863
1040.698667	0.119092
1040.866161	0.117615
1041.033636	0.117797
1041.201093	0.118276
1041.368532	0.118743
1041.535952	0.121704
1041.703355	0.125032
1041.870739	0.123815
1042.038105	0.124573
1042.205452	0.122465
1042.372782	0.122594
1042.540093	0.124829
1042.707386	0.125259
1042.874661	0.126053
1043.041918	0.123917
1043.209156	0.121226
1043.376376	0.121343
1043.543578	0.120042
1043.710762	0.121598
1043.877927	0.122887
1044.045074	0.123110
1044.212203	0.122591
1044.379314	0.121523
1044.546407	0.121340
1044.713481	0.122617
1044.880537	0.122451
1045.047575	0.125455
1045.214595	0.125336
1045.381596	0.123560
1045.548579	0.123577
1045.715544	0.124241
1045.882491	0.123454
1046.049420	0.123985
1046.216330	0.122183
1046.383222	0.122384
1046.550096	0.120715
1046.716951	0.120261
1046.883789	0.122129
1047.050608	0.121590
1047.217409	0.122682
1047.384192	0.123625
1047.550956	0.122749
1047.717703	0.123761
1047.884431	0.124748
1048.051140	0.124880
1048.217832	0.125437
1048.384505	0.123756
1048.551161	0.123257
1048.717798	0.121203
1048.884416	0.121355
1049.051017	0.122039
1049.217599	0.124516
1049.384163	0.124904
1049.550709	0.126652
1049.717237	0.126469
1049.883746	0.127680
1050.050237	0.129575
1050.216710	0.131303
1050.383165	0.129656
1050.549601	0.129849
1050.716019	0.129378
1050.882420	0.130098
1051.048801	0.127674
1051.215165	0.128343
1051.381510	0.131245
1051.547837	0.130792
1051.714146	0.128398
1051.880437	0.130306
1052.046709	0.129176
1052.212964	0.128230
1052.379200	0.127784
1052.545417	0.127526
1052.711617	0.127223
1052.877798	0.124636
1053.043961	0.124307
1053.210106	0.125978
1053.376233	0.125598
1053.542341	0.125246
1053.708432	0.125720
1053.874504	0.125604
1054.040557	0.125655
1054.206593	0.124760
1054.372610	0.122415
1054.538609	0.121853
1054.704590	0.121702
1054.870553	0.121838
1055.036497	0.124319
1055.202424	0.123291
1055.368331	0.119797
1055.534221	0.122999
1055.700093	0.124095
1055.865946	0.127086
1056.031781	0.126902
1056.197598	0.128345
1056.363397	0.127975
1056.529177	0.125918
1056.694939	0.127392
1056.860683	0.129591
1057.026409	0.125934
1057.192116	0.126988
1057.357806	0.126253
1057.523477	0.124842
1057.689130	0.123431
1057.854764	0.126923
1058.020381	0.127239
1058.185979	0.125555
1058.351559	0.125430
1058.517120	0.125062
1058.682664	0.122183
1058.848189	0.121829
1059.013696	0.123796
1059.179185	0.123928
1059.344656	0.121068
1059.510108	0.119058
1059.675542	0.120198
1059.840958	0.118743
1060.006356	0.119607
1060.171735	0.122718
1060.337096	0.122560
1060.502439	0.121611
1060.667764	0.121929
1060.833071	0.122501
1060.998359	0.124338
1061.163629	0.123269
1061.328881	0.125729
1061.494115	0.124994
1061.659330	0.124705
1061.824527	0.124326
1061.989706	0.124162
1062.154867	0.122533
1062.320010	0.122861
1062.485134	0.121640
1062.650240	0.123811
1062.815328	0.124738
1062.980398	0.126019
1063.145449	0.125331
1063.310482	0.125065
1063.475497	0.124682
1063.640494	0.127442
1063.805473	0.127031
1063.970433	0.128425
1064.135375	0.124357
1064.300299	0.123281
1064.465204	0.124261
1064.630092	0.124372
1064.794961	0.125619
1064.959812	0.127311
1065.124645	0.126148
1065.289459	0.125024
1065.454256	0.125981
1065.619034	0.127181
1065.783793	0.128561
1065.948535	0.127938
1066.113258	0.129034
1066.277964	0.129177
1066.442651	0.128456
1066.607319	0.130563
1066.771970	0.130346
1066.936602	0.128689
1067.101216	0.131256
1067.265812	0.132256
1067.430389	0.132736
1067.594949	0.130666
1067.759490	0.129914
1067.924013	0.129204
1068.088518	0.126053
1068.253004	0.125503
1068.417472	0.128228
1068.581922	0.125658
1068.746354	0.124410
1068.910768	0.124158
1069.075163	0.126445
1069.239540	0.127653
1069.403899	0.129600
1069.568240	0.129659
1069.732562	0.131144
1069.896866	0.129435
1070.061152	0.132087
1070.225420	0.132978
1070.389670	0.132277
1070.553901	0.133359
1070.718114	0.132248
1070.882309	0.130021
1071.046486	0.131563
1071.210644	0.132112
1071.374784	0.131577
1071.538906	0.132420
1071.703010	0.131993
1071.867096	0.132941
1072.031163	0.129697
1072.195212	0.129049
1072.359243	0.130730
1072.523256	0.129184
1072.687250	0.127780
1072.851226	0.129301
1073.015184	0.127368
1073.179124	0.127147
1073.343045	0.125404
1073.506949	0.127744
1073.670834	0.129551
1073.834701	0.131038
1073.998549	0.133686
1074.162380	0.132393
1074.326192	0.130943
1074.489986	0.132092
1074.653761	0.130996
1074.817519	0.131956
1074.981258	0.129801
1075.144979	0.129465
1075.308682	0.129271
1075.472367	0.128454
1075.636033	0.130137
1075.799681	0.133512
1075.963311	0.133986
1076.126923	0.133787
1076.290516	0.134149
1076.454092	0.137624
1076.617649	0.140341
1076.781187	0.140727
1076.944708	0.140002
1077.108210	0.139336
1077.271695	0.138265
1077.435160	0.137972
1077.598608	0.137525
1077.762038	0.138312
1077.925449	0.136275
1078.088842	0.133938
1078.252217	0.134211
1078.415573	0.135576
1078.578912	0.137341
1078.742232	0.135953
1078.905534	0.137043
1079.068817	0.139488
1079.232083	0.138809
1079.395330	0.140439
1079.558559	0.141715
1079.721770	0.139881
1079.884962	0.138647
1080.048136	0.137687
1080.211293	0.138755
1080.374430	0.138052
1080.537550	0.138504
1080.700651	0.139171
1080.863735	0.139253
1081.026800	0.139523
1081.189846	0.140812
1081.352875	0.142129
1081.515885	0.142508
1081.678877	0.143456
1081.841851	0.141662
1082.004807	0.138298
1082.167744	0.138245
1082.330663	0.136161
1082.493564	0.131719
1082.656447	0.130463
1082.819312	0.132138
1082.982158	0.133220
1083.144986	0.131542
1083.307796	0.133085
1083.470587	0.137360
1083.633361	0.136418
1083.796116	0.136358
1083.958853	0.138992
1084.121571	0.140250
1084.284272	0.136454
1084.446954	0.135731
1084.609618	0.137448
1084.772264	0.132408
1084.934892	0.129197
1085.097501	0.129223
1085.260092	0.126460
1085.422665	0.123737
1085.585220	0.121726
1085.747756	0.122183
1085.910274	0.123308
1086.072774	0.122792
1086.235256	0.130879
1086.397720	0.130256
1086.560165	0.131639
1086.722592	0.135233
1086.885001	0.137228
1087.047392	0.141785
1087.209764	0.140166
1087.372119	0.139593
1087.534455	0.140603
1087.696772	0.137312
1087.859072	0.136778
1088.021353	0.136057
1088.183616	0.135742
1088.345861	0.135460
1088.508088	0.130931
1088.670296	0.132900
1088.832486	0.131093
1088.994658	0.128406
1089.156812	0.131029
1089.318948	0.133356
1089.481065	0.132569
1089.643164	0.132883
1089.805245	0.133853
1089.967308	0.136680
1090.129352	0.135404
1090.291378	0.136369
1090.453386	0.138492
1090.615376	0.136343
1090.777347	0.138088
1090.939301	0.139555
1091.101236	0.136716
1091.263153	0.137981
1091.425051	0.134308
1091.586932	0.135664
1091.748794	0.134372
1091.910638	0.131293
1092.072463	0.130514
1092.234271	0.129692
1092.396060	0.129663
1092.557831	0.135520
1092.719584	0.132898
1092.881319	0.138965
1093.043035	0.138247
1093.204733	0.144218
1093.366413	0.147787
1093.528075	0.146875
1093.689718	0.148739
1093.851343	0.146104
1094.012950	0.143238
1094.174539	0.144439
1094.336110	0.139791
1094.497662	0.143349
1094.659196	0.143061
1094.820712	0.140811
1094.982210	0.144447
1095.143689	0.140634
1095.305151	0.139268
1095.466594	0.136356
1095.628018	0.137473
1095.789425	0.140839
1095.950813	0.136334
1096.112183	0.130550
1096.273535	0.129472
1096.434869	0.124344
1096.596184	0.126489
1096.757482	0.131022
1096.918761	0.133611
1097.080021	0.129180
1097.241264	0.125247
1097.402488	0.129056
1097.563694	0.133810
1097.724882	0.139283
1097.886052	0.142794
1098.047203	0.143762
1098.208336	0.140959
1098.369451	0.142011
1098.530548	0.145183
1098.691627	0.145757
1098.852687	0.144381
1099.013729	0.144048
1099.174753	0.141438
1099.335758	0.143516
1099.496746	0.139910
1099.657715	0.142137
1099.818666	0.137371
1099.979599	0.134948
1100.140513	0.134942
1100.301409	0.137425
1100.462287	0.134632
1100.623147	0.139912
1100.783989	0.137246
1100.944812	0.140118
1101.105617	0.142132
1101.266404	0.143709
1101.427173	0.148880
1101.587923	0.152362
1101.748656	0.150390
1101.909370	0.150757
1102.070066	0.143486
1102.230743	0.143803
1102.391403	0.140326
1102.552044	0.139680
1102.712667	0.142042
1102.873271	0.138610
1103.033858	0.137291
1103.194426	0.135756
1103.354976	0.140149
1103.515508	0.139943
1103.676021	0.140780
1103.836517	0.146468
1103.996994	0.142398
1104.157453	0.146091
1104.317893	0.149546
1104.478316	0.145709
1104.638720	0.150547
1104.799106	0.149591
1104.959474	0.151726
1105.119823	0.151888
1105.280155	0.147343
1105.440468	0.150995
1105.600763	0.142548
1105.761039	0.141249
1105.921298	0.148444
1106.081538	0.142109
1106.241760	0.138918
1106.401964	0.138389
1106.562149	0.139154
1106.722316	0.140196
1106.882465	0.140036
1107.042596	0.146982
1107.202709	0.148222
1107.362803	0.147370
1107.522879	0.145375
1107.682937	0.148084
1107.842977	0.148821
1108.002999	0.147498
1108.163002	0.149629
1108.322987	0.150555
1108.482954	0.151079
1108.642902	0.155163
1108.802833	0.151110
1108.962745	0.151055
1109.122639	0.149340
1109.282515	0.152270
1109.442372	0.155255
1109.602211	0.152108
1109.762032	0.154193
1109.921835	0.151457
1110.081620	0.143347
1110.241386	0.146146
1110.401134	0.151015
1110.560864	0.151458
1110.720576	0.148732
1110.880269	0.147661
1111.039945	0.150321
1111.199602	0.145522
1111.359240	0.142287
1111.518861	0.147339
1111.678463	0.146591
1111.838047	0.148525
1111.997613	0.145688
1112.157161	0.145487
1112.316690	0.141333
1112.476202	0.141370
1112.635695	0.146086
1112.795169	0.149508
1112.954626	0.153409
1113.114064	0.154195
1113.273484	0.151509
1113.432886	0.155600
1113.592270	0.155345
1113.751635	0.159711
1113.910983	0.165502
1114.070312	0.163821
1114.229622	0.163230
1114.388915	0.153413
1114.548189	0.155556
1114.707445	0.151681
1114.866683	0.150761
1115.025903	0.148991
1115.185104	0.147975
1115.344287	0.143399
1115.503452	0.148778
1115.662599	0.152524
1115.821727	0.153204
1115.980838	0.149809
1116.139930	0.156969
1116.299004	0.160935
1116.458059	0.164100
1116.617097	0.163601
1116.776116	0.159506
1116.935117	0.151982
1117.094099	0.147655
1117.253064	0.152212
1117.412010	0.152426
1117.570938	0.159529
1117.729848	0.153942
1117.888740	0.158037
1118.047613	0.161039
1118.206468	0.161187
1118.365305	0.167923
1118.524124	0.170748
1118.682924	0.172265
1118.841707	0.174388
1119.000471	0.167639
1119.159216	0.167362
1119.317944	0.159851
1119.476653	0.155592
1119.635344	0.157828
1119.794017	0.148387
1119.952672	0.148348
1120.111308	0.144965
1120.269927	0.150683
1120.428527	0.147531
1120.587108	0.145867
1120.745672	0.147280
1120.904217	0.141572
1121.062744	0.145580
1121.221253	0.146943
1121.379744	0.144918
1121.538216	0.149221
1121.696671	0.142418
1121.855107	0.145822
1122.013524	0.148665
1122.171924	0.152271
1122.330305	0.153003
1122.488668	0.151654
1122.647013	0.156035
1122.805340	0.163785
1122.963648	0.157266
1123.121938	0.153604
1123.280210	0.153436
1123.438464	0.151331
1123.596700	0.146533
1123.754917	0.148056
1123.913116	0.148761
1124.071297	0.147831
1124.229459	0.140620
1124.387604	0.148311
1124.545730	0.153572
1124.703838	0.155254
1124.861928	0.160454
1125.019999	0.168973
1125.178052	0.173460
1125.336088	0.169947
1125.494104	0.174450
1125.652103	0.176058
1125.810083	0.171003
1125.968045	0.168707
1126.125989	0.169654
1126.283915	0.172667
1126.441823	0.171987
1126.599712	0.176101
1126.757583	0.184198
1126.915436	0.181210
1127.073270	0.186638
1127.231087	0.188156
1127.388885	0.176459
1127.546665	0.170423
1127.704426	0.163694
1127.862170	0.161892
1128.019895	0.155195
1128.177602	0.153377
1128.335291	0.156358
1128.492961	0.145594
1128.650614	0.144269
1128.808248	0.159271
1128.965864	0.160266
1129.123461	0.156536
1129.281041	0.156616
1129.438602	0.165251
1129.596145	0.164958
1129.753670	0.162494
1129.911176	0.169244
1130.068665	0.170908
1130.226135	0.165181
1130.383587	0.161099
1130.541020	0.164975
1130.698436	0.161799
1130.855833	0.160610
1131.013212	0.153238
1131.170573	0.149975
1131.327915	0.147651
1131.485239	0.152142
1131.642545	0.160062
1131.799833	0.167834
1131.957103	0.172721
1132.114354	0.168469
1132.271588	0.162525
1132.428803	0.165747
1132.585999	0.167028
1132.743178	0.174055
1132.900338	0.166900
1133.057480	0.167580
1133.214604	0.157287
1133.371710	0.151123
1133.528797	0.151509
1133.685866	0.162177
1133.842917	0.166680
1133.999950	0.170761
1134.156964	0.171333
1134.313960	0.184242
1134.470938	0.176833
1134.627898	0.181385
1134.784840	0.188141
1134.941763	0.196312
1135.098668	0.189183
1135.255555	0.184569
1135.412424	0.177361
1135.569274	0.167119
1135.726107	0.152420
1135.882921	0.152845
1136.039716	0.157816
1136.196494	0.154063
1136.353253	0.142901
1136.509995	0.141159
1136.666717	0.142159
1136.823422	0.135286
1136.980109	0.131596
1137.136777	0.133437
1137.293427	0.125521
1137.450059	0.123601
1137.606672	0.122825
1137.763267	0.127887
1137.919844	0.125271
1138.076403	0.124966
1138.232944	0.137086
1138.389466	0.156225
1138.545971	0.157628
1138.702457	0.170185
1138.858924	0.173420
1139.015374	0.174830
1139.171805	0.173288
1139.328218	0.174950
1139.484613	0.178208
1139.640990	0.174159
1139.797348	0.169671
1139.953688	0.180006
1140.110010	0.178243
1140.266314	0.172374
1140.422600	0.172917
1140.578867	0.175063
1140.735116	0.179457
1140.891347	0.182204
1141.047559	0.186451
1141.203754	0.187623
1141.359930	0.189802
1141.516088	0.197702
1141.672228	0.203920
1141.828349	0.210739
1141.984452	0.216314
1142.140537	0.204365
1142.296604	0.197517
1142.452653	0.199693
1142.608683	0.187151
1142.764695	0.182538
1142.920689	0.167396
1143.076665	0.159160
1143.232622	0.144733
1143.388562	0.148144
1143.544483	0.167186
1143.700385	0.167232
1143.856270	0.163839
1144.012136	0.166962
1144.167985	0.163548
1144.323814	0.163234
1144.479626	0.161212
1144.635420	0.171027
1144.791195	0.152193
1144.946952	0.148401
1145.102691	0.148051
1145.258411	0.142387
1145.414113	0.139576
1145.569798	0.144134
1145.725463	0.145801
1145.881111	0.148695
1146.036741	0.147190
1146.192352	0.152570
1146.347945	0.143664
1146.503519	0.138418
1146.659076	0.140843
1146.814614	0.152646
1146.970134	0.147877
1147.125636	0.145193
1147.281120	0.147479
1147.436585	0.144117
1147.592032	0.163937
1147.747461	0.175456
1147.902872	0.177270
1148.058265	0.177356
1148.213639	0.175174
1148.368995	0.172578
1148.524333	0.184876
1148.679653	0.190280
1148.834954	0.181491
1148.990237	0.167532
1149.145502	0.161690
1149.300749	0.159144
1149.455977	0.160292
1149.611188	0.156025
1149.766380	0.152335
1149.921553	0.146638
1150.076709	0.137783
1150.231846	0.148592
1150.386966	0.154036
1150.542066	0.153886
1150.697149	0.154754
1150.852214	0.149545
1151.007260	0.145106
1151.162288	0.146475
1151.317298	0.142444
1151.472289	0.146491
1151.627263	0.150265
1151.782218	0.142956
1151.937155	0.138433
1152.092073	0.131814
1152.246974	0.145261
1152.401856	0.147394
1152.556720	0.158843
1152.711566	0.161532
1152.866393	0.158299
1153.021203	0.158803
1153.175994	0.155517
1153.330767	0.155253
1153.485521	0.170048
1153.640258	0.167188
1153.794976	0.166704
1153.949676	0.152297
1154.104358	0.159976
1154.259021	0.170407
1154.413667	0.163690
1154.568294	0.177669
1154.722903	0.172349
1154.877493	0.163826
1155.032066	0.141262
1155.186620	0.151383
1155.341156	0.152759
1155.495674	0.154383
1155.650173	0.149563
1155.804654	0.148850
1155.959118	0.130107
1156.113562	0.132967
1156.267989	0.145772
1156.422397	0.164962
1156.576788	0.154733
1156.731160	0.154719
1156.885513	0.145567
1157.039849	0.150007
1157.194166	0.141289
1157.348465	0.148007
1157.502746	0.153528
1157.657009	0.147338
1157.811253	0.139180
1157.965479	0.126285
1158.119687	0.134837
1158.273877	0.119523
1158.428048	0.114847
1158.582201	0.130386
1158.736337	0.126019
1158.890453	0.133112
1159.044552	0.131592
1159.198632	0.148491
1159.352694	0.161052
1159.506738	0.146201
1159.660764	0.165174
1159.814771	0.161035
1159.968761	0.147945
1160.122732	0.151029
1160.276685	0.134319
1160.430619	0.131798
1160.584535	0.128516
1160.738434	0.129052
1160.892313	0.141107
1161.046175	0.139180
1161.200019	0.139829
1161.353844	0.144006
1161.507651	0.158350
1161.661440	0.161571
1161.815210	0.160821
1161.968962	0.157014
1162.122697	0.164888
1162.276412	0.157895
1162.430110	0.167913
1162.583789	0.173580
1162.737451	0.187214
1162.891094	0.182700
1163.044718	0.176817
1163.198325	0.188529
1163.351913	0.172663
1163.505483	0.183692
1163.659035	0.176668
1163.812569	0.167964
1163.966084	0.153128
1164.119581	0.152839
1164.273060	0.142038
1164.426521	0.144373
1164.579964	0.128590
1164.733388	0.121074
1164.886794	0.090231
1165.040182	0.095781
1165.193551	0.104371
1165.346903	0.104593
1165.500236	0.095321
1165.653551	0.097434
1165.806848	0.100350
1165.960126	0.101797
1166.113386	0.104849
1166.266628	0.110898
1166.419852	0.114427
1166.573058	0.111185
1166.726245	0.120620
1166.879414	0.123800
1167.032565	0.121415
1167.185698	0.141264
1167.338812	0.148221
1167.491909	0.165314
1167.644987	0.174722
1167.798046	0.178279
1167.951088	0.159851
1168.104111	0.146236
1168.257117	0.144990
1168.410103	0.150180
1168.563072	0.139262
1168.716023	0.113396
1168.868955	0.123517
1169.021869	0.121015
1169.174765	0.114321
1169.327642	0.120603
1169.480501	0.125953
1169.633343	0.112755
1169.786165	0.116434
1169.938970	0.127962
1170.091757	0.159255
1170.244525	0.149301
1170.397275	0.141686
1170.550007	0.149680
1170.702720	0.155547
1170.855415	0.165001
1171.008092	0.171125
1171.160751	0.156870
1171.313392	0.127095
1171.466014	0.168117
1171.618619	0.059628
1171.771205	0.059628
1171.923772	0.059628
