sample name	sample
index	1303
start time	 04-29-2021  03:52:24 PM
880	0.603508
Peak Time (s)	101.037
Peak Height 	0.6035
calc peak height	100,103
Baseline Time (s)	11.534
Baseline Value 	-0.004374
subtract baseline	10,4
Abs	0.351130
Peak Time (s)	101.037
Peak Height 	0.3511
calc peak height	100,103
Baseline Time (s)	9.036
Baseline Value 	0.005401
subtract baseline	10,3
PK_550	0.200641
Peak Time (s)	102.037
Peak Height 	0.2006
calc peak height	100,103
Baseline Time (s)	11.534
Baseline Value 	8.838E-4
subtract baseline	10,2
PK_880	0.339716
Peak Time (s)	102.538
Peak Height 	0.3397
calc peak height	100,103
Baseline Time (s)	11.534
Baseline Value 	0.002482
subtract baseline	10,1


Time (s)	A880-A510	A880-A775	A880-A975	A880	I510	I775	I975	I880	
0.036500	-0.001908	-0.000732	-0.004670	0.002081	6334.346657	41130.562888	3878.918927	20973.727977
0.536500	-0.000279	-0.000181	-0.004043	0.003373	6336.935512	41065.693482	3877.529121	20920.326349
1.037000	-0.003138	-0.000670	-0.007534	0.003051	6317.484195	41051.011449	3870.933459	20933.607970
1.539000	-0.003896	-0.000989	-0.008828	0.005966	6289.530029	40769.028046	3862.248062	20813.635084
2.037500	-0.002536	-0.001083	-0.003474	0.000383	6342.576524	41248.897203	3884.994596	21044.171728
2.537500	0.000227	-0.000574	-0.006322	0.000410	6363.720575	41291.377885	3878.961221	21043.055374
3.035000	0.001261	-0.000578	-0.003226	-0.001624	6387.575865	41470.517405	3889.754547	21127.740430
3.535500	-0.002980	-0.000466	-0.005248	0.004020	6311.289956	40984.111280	3873.667832	20893.623568
4.036000	-0.000556	-0.001294	-0.001766	-0.000162	6362.081647	41278.266744	3889.751845	21066.815940
4.536000	0.000650	-0.000638	0.000065	0.000740	6364.436948	41256.703155	3891.722494	21029.344862
5.036500	-0.001118	-0.000128	-0.003943	0.000402	6353.373654	41331.361046	3883.968362	21043.381417
5.539500	-0.000633	-0.000404	0.000221	0.003394	6334.056432	41044.323804	3886.436163	20919.457409
6.037000	-0.000714	-0.000528	-0.004706	0.000594	6355.003343	41279.163638	3881.960290	21035.373894
6.537000	-0.001020	-0.001030	0.000234	-0.000023	6357.417094	41289.342269	3893.701561	21061.049001
7.034500	0.000030	-0.000426	-0.003024	0.000641	6360.395633	41284.033674	3885.399480	21033.435769
7.535000	0.000105	0.000104	0.000549	0.000290	6363.699477	41361.687357	3893.705537	21048.017895
8.035500	-0.002520	-0.000473	-0.002091	0.000260	6343.651850	41313.518847	3888.173531	21049.288980
8.538500	0.000492	0.000969	0.001837	0.000844	6362.407446	41389.201055	3895.268531	21025.020199
9.035500	-0.002928	-0.000272	0.000000	-0.000044	6342.847826	41358.005153	3893.248288	21061.915445
9.536000	0.000010	-0.000348	-0.005315	-0.000159	6366.444265	41361.461220	3882.263751	21066.712703
10.036500	0.001435	0.000663	-0.006336	0.000656	6371.172555	41378.683457	3878.414029	21032.795743
10.536500	-0.000873	-0.000864	0.001185	-0.000608	6363.077129	41355.489302	3896.971558	21085.383268
11.037000	-0.000835	0.000352	-0.000003	0.000010	6358.593114	41408.354355	3893.127017	21059.678558
11.534000	0.000000	0.000000	0.005140	0.000000	6365.133904	41378.111614	3904.143107	21060.081069
12.034500	-0.001746	-0.000090	0.000794	-0.000162	6352.872801	41384.502444	3895.188659	21066.824212
12.535500	-0.001750	-0.000259	-0.003861	0.000179	6350.203658	41339.421737	3884.608043	21052.622967
13.035000	0.000480	-0.000302	0.002024	-0.000415	6372.085870	41388.086869	3898.353169	21077.357996
13.536000	0.000528	0.000806	-0.000202	0.000083	6368.587851	41441.947913	3892.549547	21056.617311
14.036500	-0.002820	-0.000168	-0.005153	0.001345	6332.989259	41244.739507	3879.448835	21004.206872
14.536000	-0.003768	-0.000634	-0.006531	0.001134	6327.340934	41222.378818	3877.010780	21012.991829
15.039000	-0.001393	-0.000542	-0.003924	-0.000537	6358.498052	41377.615431	3885.984163	21082.423395
15.536500	-0.000406	-0.000270	-0.006343	-0.001180	6371.144294	41458.560349	3882.248500	21109.230559
16.037000	-0.002555	0.000200	-0.004354	-0.000255	6347.352246	41418.297163	3884.485275	21070.703983
16.537000	-0.000189	-0.000018	-0.005274	-0.000304	6366.026714	41403.363889	3882.653024	21072.725276
17.035000	0.000586	-0.000132	-0.003572	-0.003424	6396.374571	41669.827693	3892.839117	21203.063077
17.537500	-0.001701	0.000222	-0.000554	0.000532	6347.857398	41350.691282	3890.849980	21037.950480
18.038500	-0.001987	-0.001217	-0.007194	0.000120	6348.836427	41260.262458	3877.743398	21055.106335
18.535500	-0.000534	-0.000288	-0.005374	0.000130	6359.990484	41341.165353	3881.531512	21054.661741
19.036500	-0.001087	-0.000054	-0.002646	0.000382	6353.768922	41339.676805	3886.742705	21044.217478
19.536500	-0.002751	-0.000663	-0.002867	0.000678	6338.651813	41259.928051	3885.651559	21031.904874
20.037000	-0.000325	-0.000017	-0.005624	0.000755	6356.771622	41309.982670	3879.698349	21028.698100
20.537000	-0.001513	-0.000397	-0.004212	0.000826	6347.044036	41270.288507	3882.509513	21025.741955
21.037500	-0.002687	-0.000233	-0.004369	0.000218	6342.679294	41338.256720	3883.457389	21051.006645
21.534500	-0.000351	-0.000402	-0.001246	0.000517	6358.405708	41297.018014	3889.414197	21038.576819
22.035000	-0.002534	0.000181	-0.001443	0.000791	6339.454355	41324.376786	3888.420187	21027.226313
22.538000	0.000173	0.000290	-0.000263	0.000913	6359.398916	41323.183241	3890.659888	21022.146509
23.036000	-0.002565	-0.000735	-0.003429	0.000239	6343.460096	41292.195110	3885.392423	21050.123628
23.535500	-0.003791	-0.001059	-0.003595	-0.000138	6336.924741	41296.882863	3885.836831	21065.813623
24.036500	-0.000050	0.000673	-0.001047	0.001371	6354.137163	41316.587259	3888.030554	21003.149206
24.536500	-0.001657	-0.001307	0.002057	-0.000206	6353.894765	41281.022629	3897.974277	21068.631337
25.037000	-0.000433	-0.000192	-0.002475	0.000761	6355.888001	41294.053643	3886.303858	21028.460280
25.537000	-0.003175	-0.000504	-0.004940	0.000364	6337.805891	41301.572594	3881.952785	21044.944466
26.037500	-0.002456	-0.000387	-0.003727	0.000073	6345.580163	41337.506605	3885.114214	21057.050716
26.535000	-0.001629	0.000177	-0.000899	0.000780	6346.508350	41324.883571	3889.594132	21027.661338
27.035000	0.001146	0.000018	-0.002851	-0.001655	6386.922636	41526.094141	3890.616389	21129.064100
27.535500	-0.000476	-0.000156	-0.002952	0.001871	6346.987810	41199.612218	3882.962114	20982.428378
28.035500	0.000911	0.000747	-0.001935	0.000342	6369.553638	41413.912085	3888.328679	21045.872904
28.536000	0.000672	0.000199	0.003255	-0.000285	6372.568986	41420.896840	3900.707979	21071.956388
29.036500	-0.000856	0.000613	-0.002548	-0.000213	6360.146565	41451.084026	3888.205084	21068.933375
29.536500	-0.002064	-0.000594	-0.003094	0.000563	6344.830093	41276.158233	3885.416092	21036.683695
30.034000	-0.000836	-0.000601	-0.005596	-0.001090	6367.102781	41421.303758	3883.627341	21105.465605
30.537500	-0.000777	-0.000181	-0.004879	0.001655	6346.333543	41216.399558	3879.374455	20991.379469
31.040000	-0.004386	-0.000856	-0.002696	0.001081	6323.012556	41207.497107	3885.164392	21015.183776
31.535000	0.000814	-0.000170	-0.003432	0.001544	6359.479106	41227.095100	3882.640991	20995.981624
32.040500	0.001230	0.000675	0.002869	-0.000094	6375.418569	41446.031468	3899.471290	21063.986075
32.535000	-0.000001	-0.001278	-0.005329	-0.000787	6371.234810	41334.770971	3883.552426	21092.832556
33.036000	-0.001394	-0.000788	-0.002827	-0.001119	6363.005684	41407.378524	3889.532231	21106.690459
33.536000	-0.002382	-0.000189	-0.003002	0.001147	6337.878324	41260.307887	3884.379565	21012.420687
34.036500	-0.000757	-0.000652	-0.010171	0.000281	6357.096878	41295.859992	3871.210170	21048.407200
34.537000	-0.001559	-0.000784	-0.006334	0.000610	6348.355880	41255.210066	3878.515384	21034.708779
35.037000	-0.001100	-0.000349	0.001494	0.000813	6350.327475	41275.606111	3894.601652	21026.286655
35.536500	-0.000936	-0.000260	-0.000924	0.000978	6350.322732	41268.921853	3889.121924	21019.432392
36.035000	-0.001201	-0.000047	-0.007105	0.001012	6348.011701	41284.734716	3876.065022	21018.019385
36.535500	-0.000585	0.000339	-0.000701	0.001545	6348.657766	41271.766380	3888.393145	20995.918338
37.035500	-0.000889	0.000139	-0.000240	0.001468	6346.907422	41260.941547	3889.531026	20999.106882
37.536000	-0.001622	0.000051	0.000626	0.001294	6342.604984	41268.607184	3891.736764	21006.354512
38.039000	-0.001068	-0.000253	0.002848	0.001093	6348.423076	41259.531057	3896.892288	21014.687414
38.536500	-0.001039	-0.001139	-0.001969	0.000733	6351.423256	41213.242211	3887.430172	21029.624461
39.037000	-0.000025	-0.000059	-0.006472	0.001301	6354.863863	41258.235540	3876.783128	21006.027836
39.536500	-0.000174	-0.000082	0.001121	0.001133	6355.009420	41271.011101	3893.128670	21013.003293
40.040000	-0.002232	-0.001362	-0.002192	0.000746	6342.123893	41192.542172	3886.934071	21029.096066
40.537500	-0.001131	-0.001039	0.004268	0.000931	6349.183818	41204.622606	3900.272952	21021.404780
41.035000	-0.000211	-0.000152	0.001091	0.001361	6352.969790	41244.849262	3892.581702	21003.577585
41.538000	-0.001698	-0.000814	-0.002391	0.000844	6345.478134	41231.981982	3886.304460	21024.987563
42.035500	-0.002958	-0.000348	-0.002626	0.001032	6334.343149	41256.535814	3885.415713	21017.225078
42.536000	-0.001647	-0.000178	0.000344	0.001308	6342.298108	41247.130662	3891.107532	21005.756807
43.036000	-0.000443	0.000382	-0.000843	0.001637	6349.040088	41267.466429	3887.898541	20992.114248
43.536500	-0.000631	0.000895	-0.001110	0.002032	6344.551232	41277.893078	3886.502126	20975.754600
44.037500	-0.000131	-0.001067	-0.001011	-0.001509	6375.829499	41417.122258	3894.212535	21122.941698
44.536500	0.000129	-0.000230	-0.003350	-0.000740	6371.874501	41423.148394	3887.625135	21090.878185
45.034500	0.001371	-0.000365	-0.001682	-0.000338	6378.415192	41375.753272	3890.304062	21074.155789
45.537500	-0.002627	0.000260	-0.001036	-0.000666	6349.967040	41460.004915	3892.370059	21087.817030
46.035000	-0.000061	0.000160	-0.001639	-0.000391	6367.693311	41426.790700	3890.506169	21076.359322
46.535500	-0.000126	0.000602	-0.002808	0.000329	6361.607869	41402.192372	3886.512506	21046.404399
47.035000	-0.003002	-0.000023	0.001091	-0.000321	6344.408985	41404.446581	3896.158689	21073.430550
47.535500	-0.002067	-0.000083	-0.003293	0.001684	6336.176400	41222.516496	3882.639855	20990.189030
48.036500	0.000180	-0.000370	-0.001905	0.000117	6365.621862	41335.195907	3888.868279	21055.224879
48.536500	0.002703	-0.000142	-0.000262	-0.000400	6389.282729	41400.943163	3893.449345	21076.735628
49.037000	-0.001343	0.000621	0.003050	0.000142	6353.633098	41420.400364	3899.354684	21054.161110
49.537500	0.000119	0.000756	-0.001146	-0.000904	6373.070729	41524.891276	3892.640918	21097.713615
50.034500	0.002067	-0.000092	-0.000398	-0.000868	6387.972763	41446.693656	3894.154387	21096.227666
50.535000	-0.000396	0.001077	-0.001065	0.003436	6335.552965	41170.403665	3883.637927	20917.714027
51.038000	-0.012315	-0.024086	0.022470	0.331838	4522.172012	19931.746088	3422.937133	11409.015447
51.536000	-0.022233	-0.028330	-0.012596	-0.028622	6415.039306	41403.849525	3927.846915	22290.749548
52.036000	-0.029008	-0.052784	-0.014724	-0.223186	8263.744930	59799.720663	4461.721051	33196.262239
52.536500	-0.023816	-0.070553	-0.007424	-0.273161	8977.041263	64169.094014	4671.976179	36879.422596
53.036500	-0.004939	-0.025620	0.008753	-0.186130	8108.595128	58521.515247	4415.808054	30726.220000
53.536500	0.003903	-0.016169	0.016895	-0.143440	7725.385644	54433.481441	4305.274514	28130.061844
54.037000	0.007775	-0.014326	0.020596	-0.071061	7035.444735	46728.629215	4110.007278	24271.522431
54.537000	0.013756	-0.008241	0.027360	-0.052111	6916.645126	45453.465421	4078.471428	23363.130578
55.034500	0.033795	0.005833	0.037791	-0.048934	7071.804761	46531.224373	4097.136456	23214.678382
55.537500	0.059788	0.022864	0.058549	-0.028812	7127.256904	46222.736774	4098.789237	22299.214870
56.035500	0.076812	0.033700	0.075610	0.009590	6928.897039	43566.851276	4044.673413	20665.560578
56.535500	0.090294	0.040802	0.092424	0.053010	6667.013468	40315.378498	3980.828454	18984.326976
57.036000	0.101010	0.046202	0.104371	0.091777	6437.495200	37558.541652	3920.309160	17618.890724
57.535500	0.115528	0.055852	0.121246	0.141702	6168.170469	34501.194474	3850.692665	16030.821248
58.036500	0.131368	0.063590	0.141671	0.162228	6134.143313	33588.253125	3850.488613	15429.047609
58.536000	0.144816	0.071467	0.152680	0.189380	6036.712909	32262.014917	3818.370559	14675.483603
59.037000	0.157404	0.077237	0.174342	0.253374	5697.451354	28595.343898	3739.604945	13075.149534
59.534500	0.170850	0.085677	0.185034	0.274036	5652.962551	27886.075302	3722.144210	12606.808809
60.034500	0.188772	0.094456	0.200334	0.298327	5614.303007	27014.191603	3706.737679	12083.952538
60.535000	0.194236	0.097685	0.206605	0.324717	5491.207382	25769.087059	3673.399169	11548.117020
61.035500	0.205619	0.103305	0.221354	0.352897	5396.600227	24618.401931	3651.986462	11010.754457
61.535500	0.207415	0.106773	0.237329	0.373273	5296.130560	23794.390658	3645.114759	10643.375360
62.036000	0.218004	0.112189	0.247050	0.400840	5208.003224	22762.246098	3617.945320	10172.971283
62.536500	0.223491	0.112149	0.260893	0.427667	5102.013349	21579.007678	3598.868177	9743.002670
63.036500	0.222380	0.111577	0.258772	0.468895	4906.531428	19877.652462	3539.155366	9131.886289
63.537000	0.244694	0.128213	0.267566	0.543641	4689.431579	17768.675434	3459.004456	8161.576109
64.037000	0.244978	0.132602	0.263463	0.554958	4646.991300	17535.543290	3441.955750	8028.684588
64.537500	0.251783	0.140796	0.260595	0.516715	4827.271031	19171.592922	3481.984357	8492.031448
65.038000	0.257507	0.145429	0.278143	0.535121	4774.613183	18667.991935	3480.974804	8263.932995
65.594000	0.262147	0.147488	0.275946	0.548421	4739.525672	18268.593118	3463.071984	8105.016618
66.041500	0.265130	0.152583	0.278761	0.556748	4718.220550	18155.693632	3456.857314	8007.975791
66.536000	0.269603	0.155763	0.290640	0.563796	4708.046263	18021.623449	3462.298793	7927.273585
67.036500	0.273079	0.159715	0.284686	0.565662	4714.401326	18093.748387	3453.519478	7906.129824
67.536000	0.278069	0.160603	0.289403	0.563600	4742.507423	18196.385654	3461.121767	7929.505660
68.036500	0.281268	0.163351	0.300175	0.561506	4763.902369	18366.333066	3475.880354	7953.348949
68.537000	0.288185	0.166996	0.300034	0.560593	4796.042123	18528.067535	3476.780668	7963.787408
69.037500	0.286066	0.168585	0.301439	0.558797	4794.705772	18649.269944	3480.527607	7984.383405
69.535000	0.288499	0.169509	0.288893	0.556381	4814.881071	18769.791287	3468.763803	8012.212858
70.038000	0.290324	0.170371	0.303507	0.553178	4836.044144	18917.741861	3489.639234	8049.351485
70.535500	0.295329	0.174544	0.302955	0.554211	4852.937240	19032.945930	3487.746649	8037.342364
71.035500	0.293851	0.175629	0.313667	0.551458	4858.395095	19174.952840	3504.043579	8069.414239
71.535500	0.295024	0.175655	0.307424	0.546561	4884.585231	19358.933465	3502.390661	8126.952255
72.036500	0.298200	0.175144	0.300156	0.542103	4918.045129	19507.917952	3498.958838	8179.900476
72.537000	0.293354	0.176280	0.310338	0.537439	4917.241648	19729.373980	3517.344900	8235.885426
73.037000	0.296609	0.181514	0.303431	0.535604	4939.871955	20003.249086	3510.991470	8258.067332
73.537000	0.297384	0.180262	0.308854	0.529618	4970.345951	20189.219074	3525.385589	8331.114378
74.034500	0.296415	0.181570	0.314892	0.525223	4985.971868	20415.908569	3538.882475	8385.392615
74.540000	0.304032	0.182381	0.304379	0.522914	5031.943814	20541.208249	3528.241904	8414.127135
75.035500	0.302897	0.183778	0.311571	0.520502	5037.937406	20695.429608	3540.718944	8444.311118
75.535500	0.306040	0.184184	0.313750	0.516858	5070.068315	20860.816929	3548.417854	8490.214310
76.035500	0.303240	0.184495	0.308135	0.514605	5067.459302	20966.371874	3543.959866	8518.799507
76.536000	0.304178	0.182990	0.313207	0.513302	5078.173920	20958.031745	3552.443759	8535.402512
77.035500	0.307561	0.186300	0.312402	0.513501	5093.478286	21086.867655	3551.098589	8532.857058
77.537000	0.310660	0.187660	0.317536	0.513496	5108.513476	21143.702372	3558.013412	8532.926514
78.037000	0.314499	0.187815	0.322178	0.513689	5126.312179	21142.132982	3564.064740	8530.468747
78.537500	0.315771	0.189715	0.317062	0.514974	5126.245675	21167.761175	3555.376796	8514.107832
79.035500	0.313327	0.189228	0.322563	0.514964	5114.351875	21147.872207	3562.848794	8514.239405
79.535000	0.316426	0.192084	0.329295	0.516711	5120.951906	21194.178851	3569.690062	8492.084392
80.035500	0.314763	0.190892	0.316670	0.515932	5116.634595	21176.905656	3553.560761	8501.950746
80.535500	0.317979	0.191524	0.324845	0.517100	5126.650528	21154.513747	3563.048043	8487.159379
81.036000	0.318278	0.191466	0.325462	0.519299	5117.352796	21060.624663	3560.893172	8459.418094
81.536500	0.318262	0.192359	0.329503	0.517879	5124.221955	21156.856726	3568.367512	8477.319917
82.036500	0.322690	0.194218	0.334664	0.520320	5133.971675	21132.601834	3572.124812	8446.588675
82.537000	0.321656	0.192402	0.334866	0.519558	5132.632212	21088.726171	3573.461272	8456.157773
83.037000	0.319555	0.194197	0.332978	0.521702	5111.862924	21074.221074	3567.886662	8429.263135
83.536500	0.323632	0.196676	0.330452	0.525979	5110.890517	20999.710108	3558.599300	8376.013022
84.038000	0.325622	0.195708	0.329476	0.526660	5117.272952	20931.672534	3556.359375	8367.587110
84.535500	0.326200	0.198304	0.328117	0.529275	5107.356182	20930.858094	3551.020524	8335.333848
85.038500	0.321592	0.196081	0.332710	0.532949	5067.502830	20689.560816	3552.250964	8290.345713
85.535500	0.327042	0.198524	0.329009	0.532902	5093.866834	20791.039603	3547.373512	8290.912220
86.036000	0.326958	0.199146	0.334839	0.535780	5079.614670	20699.057521	3551.310387	8255.933714
86.536000	0.325602	0.197601	0.326076	0.535378	5075.048736	20652.651688	3540.230589	8260.809394
87.036000	0.320878	0.198540	0.332297	0.542308	5020.043641	20411.322019	3539.302096	8177.458320
87.537000	0.327497	0.199887	0.329531	0.542103	5052.075239	20473.519493	3535.956445	8179.904295
88.034500	0.324401	0.196942	0.328055	0.541252	5041.479744	20389.642871	3535.141699	8190.068631
88.534500	0.327478	0.199422	0.332779	0.545150	5037.618672	20333.104678	3536.217681	8143.651816
89.034500	0.323221	0.197332	0.327847	0.549970	4995.419456	20060.081422	3523.650097	8086.820845
89.535000	0.324221	0.199337	0.341382	0.548549	5006.589423	20194.917284	3543.040772	8103.513608
90.036000	0.324428	0.197778	0.332660	0.549448	5003.388249	20098.061925	3530.490402	8092.943637
90.536000	0.328083	0.200168	0.326824	0.554666	4996.183953	19987.318759	3516.412051	8032.064057
91.036000	0.324607	0.198448	0.338350	0.559188	4959.715179	19745.477068	3525.291068	7979.887856
91.536500	0.329097	0.198716	0.331668	0.556801	4991.032529	19847.901253	3519.828709	8007.363650
92.037000	0.327572	0.197383	0.328032	0.558091	4978.156983	19746.712673	3513.630874	7992.499580
92.537000	0.328748	0.199114	0.339489	0.562466	4963.617261	19645.266149	3522.563305	7942.405108
93.037500	0.324153	0.198108	0.331332	0.567167	4921.983872	19428.491282	3506.452181	7889.147083
93.537500	0.327108	0.199023	0.333714	0.565214	4943.853140	19537.068643	3511.830400	7911.197958
94.037500	0.330102	0.199176	0.331413	0.567633	4946.431273	19451.193191	3505.977339	7883.893530
94.535000	0.328127	0.199284	0.330811	0.570753	4923.703187	19337.772162	3501.405672	7848.896136
95.035000	0.328399	0.197136	0.338874	0.571008	4923.776855	19247.825605	3511.040374	7846.048223
95.536000	0.328273	0.197661	0.340577	0.572424	4916.949447	19214.593536	3511.398007	7830.257396
96.036500	0.330024	0.197007	0.349038	0.574091	4917.320603	19128.386294	3519.929306	7811.730647
96.536500	0.330163	0.198087	0.335675	0.577876	4901.274220	19028.476275	3498.649438	7769.938579
97.037000	0.330264	0.197936	0.339213	0.580159	4891.728952	18939.077482	3500.178984	7744.900306
97.537000	0.330872	0.198102	0.342494	0.582427	4884.504596	18862.326864	3501.416345	7720.158869
98.040000	0.333722	0.198261	0.337370	0.584343	4888.566514	18798.450520	3492.876249	7699.366416
98.535000	0.335881	0.199693	0.344196	0.587554	4883.990847	18733.983693	3497.243865	7664.706132
99.035500	0.331212	0.198802	0.342101	0.588936	4857.891425	18652.080816	3493.041846	7649.872804
99.536000	0.334472	0.200687	0.345171	0.592569	4856.294495	18589.361213	3492.364071	7611.094965
100.036000	0.333548	0.199213	0.348914	0.592544	4852.449084	18537.537854	3496.914100	7611.359525
100.536000	0.331718	0.199631	0.339456	0.594552	4836.127496	18480.896993	3483.191438	7590.068664
101.036500	0.334072	0.200636	0.351130	0.603508	4808.390085	18200.750498	3486.412289	7496.277450
101.537000	0.335090	0.199218	0.341253	0.596451	4842.372428	18398.887859	3483.070925	7570.015236
102.037000	0.337444	0.200641	0.341379	0.599318	4840.198802	18347.925543	3479.845030	7539.914244
102.537500	0.339716	0.200424	0.346188	0.600606	4844.379943	18294.966684	3483.992945	7526.460020
103.037500	0.329755	0.197448	0.341296	0.604138	4787.881971	18068.018020	3474.124137	7489.754584
103.535000	0.335137	0.202019	0.348888	0.603130	4814.417719	18262.352034	3484.200767	7500.197526
104.038500	0.335037	0.198846	0.337617	0.600882	4823.424830	18229.947205	3473.634267	7523.576913
104.535500	0.336218	0.201012	0.341070	0.604793	4811.986971	18169.057644	3473.104358	7482.985511
105.036000	0.338366	0.201888	0.347585	0.612234	4790.006930	17942.042091	3472.032818	7406.746432
105.562000	0.340603	0.203950	0.341298	0.608678	4814.072947	18136.065775	3468.886640	7443.010283
106.033500	0.341673	0.201380	0.344724	0.606829	4826.325403	18111.051795	3474.980350	7461.991700
106.542000	0.339778	0.204338	0.343385	0.612660	4794.080755	18011.653650	3466.716965	7402.420836
107.037000	0.337182	0.202272	0.355696	0.615101	4773.366163	17857.077485	3478.128627	7377.719046
107.534500	0.343483	0.204054	0.350509	0.610768	4817.378817	18067.174996	3477.129816	7421.655655
108.035000	0.341670	0.201889	0.347473	0.609817	4813.776595	18025.245612	3474.702881	7431.367606
108.545500	0.340190	0.203526	0.345890	0.612425	4796.760571	17991.788853	3469.858478	7404.805389
109.035000	0.340410	0.202126	0.341484	0.611275	4802.442148	17983.188181	3466.127480	7416.496404
