sample name	sample
index	840
start time	 04-05-2021  10:59:36 AM


Wavelength (nm)	Absorbance
494.344910	-0.062224
494.563924	-0.062224
494.782919	-0.062224
495.001897	0.048087
495.220856	-0.014127
495.439797	-0.000129
495.658719	0.014294
495.877624	0.017874
496.096510	0.001775
496.315378	-0.004304
496.534227	-0.009962
496.753059	-0.012677
496.971872	-0.005827
497.190667	0.070875
497.409444	0.098020
497.628203	0.110137
497.846943	0.115816
498.065665	0.121930
498.284369	0.123854
498.503055	0.125866
498.721723	0.127119
498.940372	0.127954
499.159003	0.127682
499.377616	0.128184
499.596210	0.127911
499.814787	0.128454
500.033345	0.127993
500.251885	0.129458
500.470406	0.129715
500.688910	0.129588
500.907395	0.128694
501.125862	0.130170
501.344311	0.130926
501.562742	0.131093
501.781154	0.130992
501.999548	0.130897
502.217924	0.130851
502.436282	0.131139
502.654621	0.132434
502.872942	0.133137
503.091245	0.133224
503.309530	0.133883
503.527797	0.134433
503.746045	0.135180
503.964275	0.135799
504.182487	0.135647
504.400681	0.135966
504.618856	0.135085
504.837013	0.135348
505.055152	0.135175
505.273273	0.134781
505.491376	0.134801
505.709460	0.134389
505.927526	0.133964
506.145574	0.133466
506.363604	0.134219
506.581615	0.134500
506.799608	0.133867
507.017583	0.133755
507.235540	0.133343
507.453478	0.133388
507.671399	0.134194
507.889301	0.135227
508.107185	0.135429
508.325050	0.134755
508.542898	0.134756
508.760727	0.135195
508.978538	0.135765
509.196330	0.135728
509.414105	0.135468
509.631861	0.134716
509.849599	0.134911
510.067319	0.135746
510.285021	0.135933
510.502704	0.136561
510.720369	0.137850
510.938016	0.137867
511.155645	0.138816
511.373255	0.139582
511.590848	0.139764
511.808422	0.139224
512.025977	0.139252
512.243515	0.140098
512.461034	0.140074
512.678536	0.139915
512.896018	0.139099
513.113483	0.139006
513.330930	0.138470
513.548358	0.139882
513.765768	0.140225
513.983160	0.140992
514.200533	0.141593
514.417889	0.141229
514.635226	0.141425
514.852545	0.142293
515.069845	0.142171
515.287128	0.143214
515.504392	0.143078
515.721638	0.142731
515.938866	0.141844
516.156075	0.141194
516.373267	0.142102
516.590440	0.141680
516.807594	0.142217
517.024731	0.142329
517.241850	0.142251
517.458950	0.141990
517.676032	0.142557
517.893095	0.143392
518.110141	0.143571
518.327168	0.143588
518.544177	0.143304
518.761168	0.143443
518.978141	0.144081
519.195095	0.143802
519.412031	0.144233
519.628949	0.144952
519.845849	0.145038
520.062731	0.145031
520.279594	0.146165
520.496439	0.148355
520.713266	0.149182
520.930074	0.149366
521.146865	0.150135
521.363637	0.151317
521.580391	0.152072
521.797127	0.152424
522.013844	0.152975
522.230543	0.152302
522.447224	0.150486
522.663887	0.150117
522.880532	0.150487
523.097158	0.150418
523.313766	0.150114
523.530356	0.149815
523.746928	0.150333
523.963481	0.151308
524.180017	0.151937
524.396534	0.153018
524.613032	0.153247
524.829513	0.153631
525.045975	0.154298
525.262420	0.154167
525.478845	0.154525
525.695253	0.154666
525.911643	0.154361
526.128014	0.155339
526.344367	0.154932
526.560702	0.155100
526.777018	0.155227
526.993316	0.155189
527.209597	0.155831
527.425858	0.155588
527.642102	0.155622
527.858328	0.156007
528.074535	0.155486
528.290724	0.157160
528.506894	0.157154
528.723047	0.157540
528.939181	0.158006
529.155297	0.157757
529.371395	0.158138
529.587475	0.158320
529.803536	0.158253
530.019579	0.158249
530.235604	0.157621
530.451611	0.158471
530.667600	0.158667
530.883570	0.158344
531.099522	0.158778
531.315456	0.158525
531.531372	0.158926
531.747269	0.159065
531.963148	0.158985
532.179009	0.159622
532.394852	0.160043
532.610676	0.160622
532.826482	0.161435
533.042271	0.161798
533.258040	0.162821
533.473792	0.163165
533.689525	0.163959
533.905240	0.165280
534.120937	0.165981
534.336616	0.166028
534.552277	0.166130
534.767919	0.166177
534.983543	0.167113
535.199149	0.167513
535.414736	0.167875
535.630306	0.167702
535.845857	0.167444
536.061390	0.167918
536.276904	0.168521
536.492401	0.168801
536.707879	0.169445
536.923339	0.169258
537.138781	0.169222
537.354204	0.169306
537.569610	0.169622
537.784997	0.170345
538.000366	0.169926
538.215716	0.170055
538.431049	0.170178
538.646363	0.170434
538.861659	0.170908
539.076937	0.171061
539.292196	0.171721
539.507438	0.172150
539.722661	0.172618
539.937866	0.173089
540.153052	0.173434
540.368221	0.173721
540.583371	0.174218
540.798503	0.174110
541.013617	0.174442
541.228712	0.174457
541.443789	0.174807
541.658848	0.174931
541.873889	0.174990
542.088912	0.175743
542.303916	0.175925
542.518902	0.175539
542.733870	0.176103
542.948820	0.176761
543.163752	0.176841
543.378665	0.177433
543.593560	0.177619
543.808437	0.178087
544.023295	0.178259
544.238136	0.179027
544.452958	0.180379
544.667762	0.179895
544.882548	0.180305
545.097315	0.180781
545.312064	0.180499
545.526795	0.180937
545.741508	0.181118
545.956203	0.180987
546.170879	0.180816
546.385537	0.180682
546.600177	0.181171
546.814799	0.181359
547.029402	0.181966
547.243988	0.181649
547.458555	0.182093
547.673103	0.182167
547.887634	0.182170
548.102146	0.182259
548.316640	0.182566
548.531116	0.183334
548.745574	0.183476
548.960013	0.183254
549.174435	0.184328
549.388838	0.184322
549.603222	0.184865
549.817589	0.185392
550.031937	0.185618
550.246267	0.185092
550.460579	0.184939
550.674873	0.185250
550.889148	0.185665
551.103405	0.185847
551.317644	0.185918
551.531865	0.185897
551.746068	0.185703
551.960252	0.186102
552.174418	0.186535
552.388566	0.187146
552.602696	0.187377
552.816807	0.187488
553.030900	0.187924
553.244975	0.188018
553.459032	0.188123
553.673070	0.188361
553.887091	0.188500
554.101093	0.189098
554.315077	0.189056
554.529042	0.188768
554.742990	0.188874
554.956919	0.188707
555.170830	0.189006
555.384722	0.189683
555.598597	0.190042
555.812453	0.190254
556.026291	0.190124
556.240111	0.190335
556.453913	0.190950
556.667696	0.191447
556.881461	0.191611
557.095208	0.191924
557.308937	0.191744
557.522647	0.191941
557.736339	0.192101
557.950013	0.192506
558.163669	0.192860
558.377307	0.192936
558.590926	0.193071
558.804527	0.193287
559.018110	0.193615
559.231675	0.193728
559.445221	0.193527
559.658749	0.193539
559.872259	0.193545
560.085751	0.193646
560.299225	0.193727
560.512680	0.193805
560.726117	0.194127
560.939536	0.193910
561.152937	0.194026
561.366319	0.194699
561.579683	0.194900
561.793029	0.194792
562.006357	0.194646
562.219667	0.194638
562.432958	0.194810
562.646231	0.194695
562.859486	0.194570
563.072723	0.194939
563.285941	0.194682
563.499141	0.195227
563.712323	0.195442
563.925487	0.195504
564.138632	0.196077
564.351760	0.195768
564.564869	0.195686
564.777960	0.196529
564.991032	0.196592
565.204087	0.196950
565.417123	0.196971
565.630141	0.196911
565.843140	0.197571
566.056122	0.197531
566.269085	0.197909
566.482030	0.198377
566.694957	0.198233
566.907866	0.198735
567.120756	0.199016
567.333628	0.199420
567.546482	0.199416
567.759318	0.199408
567.972135	0.199457
568.184935	0.200046
568.397716	0.199978
568.610478	0.199935
568.823223	0.199795
569.035949	0.199758
569.248657	0.199767
569.461347	0.200669
569.674019	0.200776
569.886672	0.200877
570.099308	0.200859
570.311925	0.201455
570.524523	0.201989
570.737104	0.202143
570.949666	0.202190
571.162210	0.202465
571.374736	0.202388
571.587244	0.202729
571.799733	0.203217
572.012205	0.203279
572.224658	0.203567
572.437092	0.203178
572.649509	0.203196
572.861907	0.203527
573.074287	0.203406
573.286649	0.203254
573.498993	0.203255
573.711318	0.203104
573.923625	0.203388
574.135914	0.203503
574.348185	0.204129
574.560438	0.204321
574.772672	0.204384
574.984888	0.204389
575.197086	0.204964
575.409266	0.205078
575.621427	0.205290
575.833570	0.205459
576.045695	0.205430
576.257802	0.205183
576.469890	0.205410
576.681961	0.205610
576.894013	0.206017
577.106046	0.206194
577.318062	0.206159
577.530059	0.206177
577.742039	0.205884
577.954000	0.206122
578.165942	0.206218
578.377867	0.206269
578.589773	0.206361
578.801661	0.206272
579.013531	0.206177
579.225382	0.206313
579.437216	0.206661
579.649031	0.206825
579.860828	0.206857
580.072606	0.207498
580.284367	0.207554
580.496109	0.207745
580.707833	0.208166
580.919539	0.208550
581.131227	0.208472
581.342896	0.208677
581.554547	0.209007
581.766180	0.208905
581.977795	0.208783
582.189391	0.208812
582.400969	0.208978
582.612529	0.209025
582.824071	0.209085
583.035595	0.209399
583.247100	0.209350
583.458587	0.209859
583.670056	0.209790
583.881506	0.210174
584.092939	0.210280
584.304353	0.209913
584.515749	0.209873
584.727127	0.209821
584.938486	0.210204
585.149828	0.210322
585.361151	0.209789
585.572456	0.210054
585.783742	0.209493
585.995011	0.209699
586.206261	0.210592
586.417493	0.210516
586.628706	0.211124
586.839902	0.210989
587.051079	0.211379
587.262238	0.211939
587.473379	0.212474
587.684502	0.212871
587.895606	0.213235
588.106692	0.213463
588.317760	0.213838
588.528810	0.213805
588.739841	0.214392
588.950855	0.214584
589.161850	0.214883
589.372827	0.214981
589.583785	0.215420
589.794726	0.215147
590.005648	0.215122
590.216552	0.215283
590.427437	0.215454
590.638305	0.215099
590.849154	0.215171
591.059985	0.215013
591.270798	0.214731
591.481592	0.214861
591.692369	0.214988
591.903127	0.215000
592.113867	0.215255
592.324588	0.215283
592.535292	0.215598
592.745977	0.215404
592.956644	0.215819
593.167293	0.215760
593.377923	0.215489
593.588536	0.215912
593.799130	0.215633
594.009706	0.215601
594.220263	0.215426
594.430803	0.215172
594.641324	0.215497
594.851827	0.215288
595.062312	0.216078
595.272778	0.216585
595.483227	0.216378
595.693657	0.216798
595.904069	0.216789
596.114462	0.217241
596.324838	0.217718
596.535195	0.217359
596.745534	0.217353
596.955855	0.217308
597.166157	0.217298
597.376441	0.217693
597.586707	0.217784
597.796955	0.217856
598.007185	0.218116
598.217396	0.218365
598.427589	0.218811
598.637764	0.219044
598.847921	0.218877
599.058060	0.218948
599.268180	0.219138
599.478282	0.219456
599.688366	0.220046
599.898431	0.220203
600.108479	0.220596
600.318508	0.220818
600.528519	0.220800
600.738511	0.221222
600.948486	0.221351
601.158442	0.221621
601.368380	0.221712
601.578300	0.221801
601.788202	0.221800
601.998085	0.221354
602.207950	0.220963
602.417797	0.220965
602.627626	0.220689
602.837436	0.220686
603.047228	0.220866
603.257002	0.220689
603.466758	0.220517
603.676496	0.220327
603.886215	0.220803
604.095916	0.221556
604.305599	0.222071
604.515264	0.222644
604.724910	0.222949
604.934538	0.222898
605.144148	0.223133
605.353740	0.223386
605.563314	0.223938
605.772869	0.223884
605.982406	0.223729
606.191925	0.223552
606.401425	0.223452
606.610908	0.223669
606.820372	0.223702
607.029818	0.224162
607.239246	0.224196
607.448655	0.224290
607.658047	0.224227
607.867420	0.224821
608.076775	0.225113
608.286111	0.225061
608.495430	0.225090
608.704730	0.225345
608.914012	0.225162
609.123275	0.225335
609.332521	0.225157
609.541748	0.225713
609.750957	0.225350
609.960148	0.225544
610.169321	0.225538
610.378475	0.225538
610.587611	0.225674
610.796729	0.226132
611.005829	0.226107
611.214910	0.226461
611.423974	0.226645
611.633019	0.227037
611.842045	0.227172
612.051054	0.227381
612.260044	0.227764
612.469017	0.227541
612.677970	0.227357
612.886906	0.227588
613.095824	0.227230
613.304723	0.227320
613.513604	0.227272
613.722467	0.227217
613.931311	0.227916
614.140138	0.227771
614.348946	0.227926
614.557736	0.228033
614.766507	0.228194
614.975261	0.228543
615.183996	0.228197
615.392713	0.228425
615.601412	0.228683
615.810092	0.228561
616.018754	0.228591
616.227399	0.228898
616.436024	0.229146
616.644632	0.229301
616.853222	0.229245
617.061793	0.229618
617.270346	0.229577
617.478880	0.229757
617.687397	0.229864
617.895895	0.229773
618.104375	0.229796
618.312837	0.229807
618.521281	0.229596
618.729706	0.229677
618.938113	0.229826
619.146502	0.230017
619.354873	0.230046
619.563226	0.229846
619.771560	0.230389
619.979876	0.230868
620.188174	0.230937
620.396453	0.231572
620.604715	0.231753
620.812958	0.231992
621.021183	0.232104
621.229390	0.232310
621.437578	0.232651
621.645748	0.232544
621.853900	0.232461
622.062034	0.232378
622.270150	0.232291
622.478247	0.232496
622.686326	0.232478
622.894387	0.232994
623.102430	0.232951
623.310454	0.233458
623.518461	0.233862
623.726449	0.233859
623.934418	0.234193
624.142370	0.234298
624.350303	0.234423
624.558218	0.234419
624.766115	0.234253
624.973994	0.234667
625.181855	0.234601
625.389697	0.234807
625.597521	0.235001
625.805327	0.235027
626.013114	0.235101
626.220883	0.235446
626.428634	0.235776
626.636367	0.235944
626.844082	0.235953
627.051778	0.236044
627.259457	0.236098
627.467117	0.236375
627.674758	0.236374
627.882382	0.236611
628.089987	0.236826
628.297574	0.236687
628.505143	0.236727
628.712694	0.236859
628.920226	0.236864
629.127740	0.236984
629.335236	0.236986
629.542714	0.237446
629.750174	0.237406
629.957615	0.237338
630.165038	0.237790
630.372443	0.238081
630.579829	0.238289
630.787198	0.238605
630.994548	0.238840
631.201880	0.239035
631.409194	0.239160
631.616489	0.239390
631.823766	0.239592
632.031025	0.239553
632.238266	0.239611
632.445489	0.239826
632.652693	0.239715
632.859879	0.239497
633.067047	0.239618
633.274197	0.239740
633.481329	0.239831
633.688442	0.239896
633.895537	0.240472
634.102614	0.240755
634.309672	0.240849
634.516713	0.241219
634.723735	0.241760
634.930739	0.242238
635.137724	0.242225
635.344692	0.242138
635.551641	0.242469
635.758572	0.242377
635.965485	0.242454
636.172379	0.242714
636.379256	0.242963
636.586114	0.243025
636.792954	0.242888
636.999775	0.243153
637.206579	0.243602
637.413364	0.243776
637.620131	0.243632
637.826880	0.243625
638.033610	0.243550
638.240323	0.243602
638.447017	0.243810
638.653692	0.243976
638.860350	0.244110
639.066990	0.244084
639.273611	0.244183
639.480214	0.244490
639.686798	0.244524
639.893365	0.244598
640.099913	0.244659
640.306443	0.244728
640.512955	0.244998
640.719449	0.245047
640.925924	0.245440
641.132381	0.245619
641.338820	0.245719
641.545241	0.245920
641.751644	0.246143
641.958028	0.246330
642.164394	0.246351
642.370742	0.246370
642.577071	0.246500
642.783383	0.246566
642.989676	0.246765
643.195951	0.246841
643.402207	0.247175
643.608446	0.247455
643.814666	0.247639
644.020868	0.247569
644.227052	0.247922
644.433218	0.248091
644.639365	0.248064
644.845494	0.248057
645.051605	0.248147
645.257698	0.248212
645.463772	0.248068
645.669828	0.247792
645.875866	0.248201
646.081886	0.248179
646.287888	0.248655
646.493871	0.248983
646.699836	0.249155
646.905783	0.249392
647.111712	0.249678
647.317622	0.250149
647.523514	0.250600
647.729388	0.250615
647.935244	0.250637
648.141082	0.250831
648.346901	0.251079
648.552702	0.250957
648.758485	0.251323
648.964250	0.251506
649.169996	0.251628
649.375724	0.252023
649.581434	0.252617
649.787126	0.253033
649.992800	0.253035
650.198455	0.253164
650.404092	0.253726
650.609711	0.253873
650.815311	0.253827
651.020894	0.254118
651.226458	0.254151
651.432004	0.254328
651.637532	0.254501
651.843041	0.254603
652.048532	0.254668
652.254006	0.254756
652.459460	0.254832
652.664897	0.255100
652.870315	0.255192
653.075716	0.255437
653.281097	0.255512
653.486461	0.255580
653.691807	0.255890
653.897134	0.256392
654.102443	0.256509
654.307734	0.256604
654.513006	0.256679
654.718261	0.256849
654.923497	0.257237
655.128715	0.257325
655.333915	0.257600
655.539096	0.257881
655.744259	0.257858
655.949404	0.258024
656.154531	0.258351
656.359640	0.258711
656.564730	0.258778
656.769802	0.258906
656.974856	0.259026
657.179892	0.259141
657.384909	0.259109
657.589908	0.259237
657.794889	0.259854
657.999852	0.260132
658.204797	0.260390
658.409723	0.260693
658.614631	0.260649
658.819521	0.260919
659.024393	0.261177
659.229246	0.261368
659.434081	0.261601
659.638898	0.261635
659.843697	0.261652
660.048478	0.261822
660.253240	0.262027
660.457984	0.262379
660.662710	0.262512
660.867417	0.262456
661.072107	0.262766
661.276778	0.262922
661.481431	0.262970
661.686066	0.263107
661.890682	0.263184
662.095281	0.263268
662.299861	0.263565
662.504422	0.263789
662.708966	0.264163
662.913491	0.264307
663.117999	0.264587
663.322488	0.264765
663.526958	0.265474
663.731411	0.265912
663.935845	0.266154
664.140261	0.266031
664.344659	0.266315
664.549038	0.266371
664.753400	0.266651
664.957743	0.267038
665.162068	0.267214
665.366375	0.267041
665.570663	0.266957
665.774933	0.267213
665.979185	0.267463
666.183419	0.267663
666.387635	0.267874
666.591832	0.267966
666.796011	0.268001
667.000172	0.268271
667.204315	0.268570
667.408439	0.268786
667.612545	0.268938
667.816634	0.269176
668.020703	0.269339
668.224755	0.269599
668.428788	0.269953
668.632803	0.270124
668.836800	0.270162
669.040779	0.270477
669.244739	0.270633
669.448681	0.270904
669.652605	0.271126
669.856511	0.271420
670.060399	0.271548
670.264268	0.271437
670.468119	0.271774
670.671952	0.272007
670.875767	0.272226
671.079563	0.272481
671.283341	0.272810
671.487101	0.272954
671.690843	0.272822
671.894567	0.273200
672.098272	0.273462
672.301959	0.273562
672.505628	0.273694
672.709278	0.273694
672.912911	0.273927
673.116525	0.273938
673.320121	0.274095
673.523699	0.274577
673.727258	0.274839
673.930799	0.275220
674.134322	0.275193
674.337827	0.275258
674.541314	0.275299
674.744782	0.275547
674.948232	0.275637
675.151664	0.275998
675.355078	0.276047
675.558474	0.275869
675.761851	0.276132
675.965210	0.276489
676.168551	0.277109
676.371873	0.277361
676.575178	0.277306
676.778464	0.277789
676.981732	0.277901
677.184981	0.278053
677.388213	0.278918
677.591426	0.279216
677.794621	0.279520
677.997798	0.279411
678.200956	0.279645
678.404097	0.280081
678.607219	0.279949
678.810323	0.280335
679.013408	0.280644
679.216476	0.280370
679.419525	0.280268
679.622556	0.280353
679.825569	0.280732
680.028563	0.281235
680.231540	0.281481
680.434498	0.281743
680.637438	0.281759
680.840359	0.282039
681.043263	0.282262
681.246148	0.282561
681.449015	0.282639
681.651864	0.283080
681.854694	0.283075
682.057506	0.283146
682.260301	0.283469
682.463076	0.283678
682.665834	0.283756
682.868573	0.284178
683.071295	0.284001
683.273998	0.284227
683.476682	0.284250
683.679349	0.284633
683.881997	0.284717
684.084627	0.284823
684.287239	0.285079
684.489833	0.285419
684.692408	0.285428
684.894965	0.285845
685.097504	0.286122
685.300025	0.286408
685.502527	0.286439
685.705012	0.286756
685.907478	0.287181
686.109925	0.287371
686.312355	0.287576
686.514766	0.287871
686.717159	0.288122
686.919534	0.288316
687.121891	0.288346
687.324230	0.288460
687.526550	0.288809
687.728852	0.288838
687.931136	0.288906
688.133401	0.288942
688.335649	0.289011
688.537878	0.289053
688.740089	0.289157
688.942281	0.289574
689.144456	0.290051
689.346612	0.290276
689.548750	0.290197
689.750870	0.290491
689.952971	0.290582
690.155055	0.290705
690.357120	0.291210
690.559167	0.291572
690.761195	0.291504
690.963206	0.291477
691.165198	0.291545
691.367172	0.291787
691.569128	0.291825
691.771065	0.292147
691.972984	0.292339
692.174885	0.292555
692.376768	0.292607
692.578633	0.292621
692.780479	0.292764
692.982308	0.292877
693.184118	0.293126
693.385909	0.293259
693.587683	0.293360
693.789438	0.293535
693.991175	0.293413
694.192894	0.293733
694.394595	0.293821
694.596277	0.293620
694.797941	0.293899
694.999587	0.294099
695.201215	0.294425
695.402824	0.294533
695.604416	0.294681
695.805989	0.295046
696.007543	0.295008
696.209080	0.295245
696.410598	0.295834
696.612099	0.295800
696.813580	0.295906
697.015044	0.296003
697.216490	0.295989
697.417917	0.295958
697.619326	0.295896
697.820717	0.295950
698.022089	0.295994
698.223444	0.295978
698.424780	0.296179
698.626098	0.296462
698.827397	0.296483
699.028679	0.296765
699.229942	0.297051
699.431187	0.297092
699.632414	0.297312
699.833622	0.297660
700.034813	0.297436
700.235985	0.297366
700.437139	0.297261
700.638274	0.297420
700.839392	0.297378
701.040491	0.297503
701.241572	0.297928
701.442635	0.298117
701.643679	0.298196
701.844706	0.298321
702.045714	0.298562
702.246704	0.298692
702.447675	0.298700
702.648629	0.298915
702.849564	0.299011
703.050481	0.298838
703.251380	0.298843
703.452260	0.298784
703.653122	0.299081
703.853966	0.299144
704.054792	0.299168
704.255600	0.299322
704.456389	0.299673
704.657160	0.299598
704.857913	0.299413
705.058648	0.299060
705.259365	0.299154
705.460063	0.299010
705.660743	0.299097
705.861405	0.299069
706.062048	0.299121
706.262674	0.298993
706.463281	0.299011
706.663870	0.299404
706.864441	0.299790
707.064993	0.299868
707.265527	0.300095
707.466043	0.300033
707.666541	0.299998
707.867021	0.300040
708.067482	0.299886
708.267925	0.300045
708.468350	0.300053
708.668757	0.299950
708.869145	0.300031
709.069516	0.299988
709.269868	0.300030
709.470201	0.300072
709.670517	0.300138
709.870814	0.300019
710.071093	0.300189
710.271354	0.299751
710.471597	0.299752
710.671821	0.299575
710.872028	0.299671
711.072216	0.299587
711.272385	0.299817
711.472537	0.299363
711.672670	0.299322
711.872785	0.299243
712.072882	0.299884
712.272961	0.300106
712.473021	0.300153
712.673063	0.299914
712.873087	0.300082
713.073093	0.299876
713.273081	0.300166
713.473050	0.300242
713.673001	0.300123
713.872934	0.299663
714.072849	0.299434
714.272745	0.299397
714.472623	0.299315
714.672483	0.299185
714.872325	0.299170
715.072148	0.299064
715.271954	0.299144
715.471741	0.298846
715.671509	0.298687
715.871260	0.298568
716.070992	0.298528
716.270707	0.298637
716.470403	0.298652
716.670080	0.298575
716.869740	0.298342
717.069381	0.298206
717.269004	0.297924
717.468609	0.298035
717.668195	0.298087
717.867764	0.298180
718.067314	0.298117
718.266846	0.297734
718.466360	0.297815
718.665855	0.297841
718.865332	0.297552
719.064791	0.297718
719.264232	0.297552
719.463655	0.297158
719.663059	0.296700
719.862445	0.296364
720.061813	0.296289
720.261163	0.296009
720.460494	0.295973
720.659807	0.296095
720.859102	0.296034
721.058379	0.295769
721.257638	0.296012
721.456878	0.296083
721.656100	0.296032
721.855304	0.295945
722.054490	0.295877
722.253657	0.295349
722.452806	0.295111
722.651937	0.294794
722.851050	0.294790
723.050145	0.294140
723.249221	0.293790
723.448279	0.293759
723.647319	0.293772
723.846340	0.293379
724.045344	0.293597
724.244329	0.293678
724.443296	0.293816
724.642245	0.293800
724.841175	0.293900
725.040088	0.293904
725.238982	0.293644
725.437857	0.293313
725.636715	0.293431
725.835554	0.293372
726.034376	0.293073
726.233179	0.293002
726.431963	0.292772
726.630730	0.292841
726.829478	0.292831
727.028208	0.292817
727.226920	0.292697
727.425614	0.292432
727.624289	0.292087
727.822946	0.292014
728.021585	0.291617
728.220206	0.291202
728.418808	0.290793
728.617392	0.290583
728.815958	0.290335
729.014506	0.290274
729.213036	0.290242
729.411547	0.290079
729.610040	0.289650
729.808515	0.289519
730.006972	0.289775
730.205410	0.289824
730.403831	0.288988
730.602233	0.289107
730.800616	0.288880
730.998982	0.288622
731.197329	0.288406
731.395658	0.288287
731.593969	0.288190
731.792262	0.287709
731.990536	0.287593
732.188793	0.287918
732.387031	0.287939
732.585250	0.287814
732.783452	0.287659
732.981635	0.287571
733.179800	0.287630
733.377947	0.287466
733.576076	0.287383
733.774186	0.287063
733.972278	0.287139
734.170352	0.286898
734.368408	0.286503
734.566446	0.286352
734.764465	0.286429
734.962466	0.286402
735.160449	0.286195
735.358413	0.286460
735.556360	0.286463
735.754288	0.286199
735.952198	0.285977
736.150090	0.286098
736.347963	0.285986
736.545818	0.285625
736.743655	0.285191
736.941474	0.284751
737.139275	0.284163
737.337057	0.283955
737.534821	0.283787
737.732567	0.283128
737.930295	0.282927
738.128005	0.282457
738.325696	0.281669
738.523369	0.281260
738.721024	0.281436
738.918660	0.281307
739.116279	0.281086
739.313879	0.280793
739.511461	0.280999
739.709024	0.280746
739.906570	0.280690
740.104097	0.280917
740.301606	0.280894
740.499097	0.280762
740.696569	0.280685
740.894024	0.280489
741.091460	0.280442
741.288878	0.280091
741.486277	0.279932
741.683659	0.279677
741.881022	0.279753
742.078367	0.279593
742.275694	0.279198
742.473002	0.278775
742.670293	0.278537
742.867565	0.278045
743.064819	0.277960
743.262054	0.277516
743.459272	0.277315
743.656471	0.277093
743.853652	0.276659
744.050815	0.276435
744.247959	0.275881
744.445085	0.275630
744.642194	0.275495
744.839283	0.275161
745.036355	0.274677
745.233408	0.274326
745.430444	0.273958
745.627461	0.274105
745.824459	0.274096
746.021440	0.274636
746.218402	0.274533
746.415346	0.274411
746.612272	0.274203
746.809180	0.274386
747.006069	0.274428
747.202940	0.274007
747.399793	0.273633
747.596628	0.273482
747.793444	0.273083
747.990243	0.272758
748.187023	0.272810
748.383784	0.272687
748.580528	0.272495
748.777253	0.272155
748.973960	0.272328
749.170649	0.272293
749.367320	0.271839
749.563973	0.271599
749.760607	0.271470
749.957223	0.270875
750.153821	0.270596
750.350400	0.270551
750.546962	0.270479
750.743505	0.270031
750.940030	0.269933
751.136536	0.269925
751.333025	0.270066
751.529495	0.269824
751.725947	0.269814
751.922381	0.269613
752.118796	0.269428
752.315194	0.269576
752.511573	0.269667
752.707934	0.269428
752.904276	0.269053
753.100601	0.268570
753.296907	0.268499
753.493195	0.268018
753.689465	0.267601
753.885716	0.267424
754.081949	0.266676
754.278164	0.266383
754.474361	0.265854
754.670540	0.265922
754.866700	0.265670
755.062843	0.265342
755.258967	0.265529
755.455072	0.265620
755.651160	0.265305
755.847229	0.265390
756.043280	0.265284
756.239313	0.265466
756.435328	0.265031
756.631324	0.264956
756.827302	0.264804
757.023262	0.264522
757.219204	0.264029
757.415127	0.263921
757.611033	0.263715
757.806920	0.263405
758.002788	0.263358
758.198639	0.263286
758.394471	0.263174
758.590286	0.263307
758.786081	0.263364
758.981859	0.263682
759.177619	0.263690
759.373360	0.263586
759.569083	0.263472
759.764788	0.262962
759.960474	0.262804
760.156143	0.262653
760.351793	0.262147
760.547425	0.261700
760.743038	0.261086
760.938634	0.260629
761.134211	0.260248
761.329770	0.260122
761.525311	0.260069
761.720833	0.259881
761.916338	0.259673
762.111824	0.259626
762.307292	0.259857
762.502741	0.259852
762.698173	0.259785
762.893586	0.260101
763.088981	0.259850
763.284358	0.259917
763.479716	0.259948
763.675057	0.259834
763.870379	0.259607
764.065683	0.259336
764.260968	0.259239
764.456236	0.259148
764.651485	0.258711
764.846716	0.258912
765.041929	0.258724
765.237123	0.258441
765.432299	0.258346
765.627457	0.258312
765.822597	0.257871
766.017719	0.257943
766.212822	0.257738
766.407907	0.257530
766.602974	0.257246
766.798023	0.257003
766.993054	0.257048
767.188066	0.256802
767.383060	0.256548
767.578036	0.256738
767.772993	0.256356
767.967933	0.256174
768.162854	0.256290
768.357757	0.256179
768.552642	0.256284
768.747508	0.256174
768.942356	0.256093
769.137186	0.256268
769.331998	0.256150
769.526792	0.256569
769.721567	0.256505
769.916324	0.256622
770.111063	0.256711
770.305784	0.256520
770.500486	0.256338
770.695171	0.256144
770.889837	0.255999
771.084484	0.255685
771.279114	0.255370
771.473725	0.255246
771.668318	0.254984
771.862893	0.254725
772.057450	0.254722
772.251988	0.254751
772.446509	0.254521
772.641011	0.254569
772.835494	0.254621
773.029960	0.254392
773.224407	0.254400
773.418836	0.254214
773.613247	0.254254
773.807640	0.254009
774.002014	0.253882
774.196370	0.254156
774.390708	0.253830
774.585028	0.254040
774.779330	0.254224
774.973613	0.254381
775.167878	0.254643
775.362125	0.254574
775.556354	0.254394
775.750564	0.254341
775.944756	0.254257
776.138930	0.254558
776.333086	0.254258
776.527223	0.254143
776.721343	0.254071
776.915444	0.253824
777.109526	0.253619
777.303591	0.254002
777.497637	0.254139
777.691666	0.254066
777.885676	0.253822
778.079667	0.254117
778.273641	0.254017
778.467596	0.254042
778.661533	0.254125
778.855452	0.254289
779.049352	0.254084
779.243235	0.254104
779.437099	0.254331
779.630945	0.254478
779.824773	0.254314
780.018582	0.254243
780.212373	0.254250
780.406146	0.254181
780.599901	0.254366
780.793638	0.254417
780.987356	0.254330
781.181056	0.254079
781.374738	0.254346
781.568402	0.254288
781.762047	0.254330
781.955674	0.254279
782.149283	0.254590
782.342874	0.254371
782.536447	0.254148
782.730001	0.254011
782.923537	0.254211
783.117055	0.253953
783.310555	0.253895
783.504036	0.253964
783.697499	0.254107
783.890944	0.254037
784.084371	0.254029
784.277780	0.254398
784.471170	0.254441
784.664542	0.254326
784.857896	0.254341
785.051231	0.254428
785.244549	0.254502
785.437848	0.254614
785.631129	0.254459
785.824392	0.254675
786.017636	0.254531
786.210863	0.254624
786.404071	0.254878
786.597260	0.255061
786.790432	0.255253
786.983585	0.255375
787.176721	0.255420
787.369838	0.255649
787.562936	0.255751
787.756017	0.255984
787.949079	0.256015
788.142123	0.256004
788.335149	0.256042
788.528156	0.256020
788.721146	0.256358
788.914117	0.256525
789.107070	0.256491
789.300005	0.256578
789.492921	0.256644
789.685819	0.256765
789.878699	0.256884
790.071561	0.256959
790.264405	0.257203
790.457230	0.257354
790.650037	0.257279
790.842826	0.257261
791.035597	0.257445
791.228349	0.257456
791.421084	0.257517
791.613800	0.257566
791.806497	0.257481
791.999177	0.257486
792.191838	0.257402
792.384481	0.257363
792.577106	0.257440
792.769713	0.257446
792.962301	0.257612
793.154871	0.257754
793.347423	0.257964
793.539957	0.258542
793.732473	0.258440
793.924970	0.258507
794.117449	0.258632
794.309910	0.258868
794.502353	0.258957
794.694777	0.259054
794.887183	0.259532
795.079571	0.259908
795.271941	0.259814
795.464293	0.259970
795.656626	0.260240
795.848941	0.260300
796.041238	0.260774
796.233516	0.261062
796.425777	0.261127
796.618019	0.261397
796.810243	0.261401
797.002449	0.261525
797.194636	0.261777
797.386805	0.261674
797.578956	0.262285
797.771089	0.262093
797.963204	0.261982
798.155300	0.262308
798.347378	0.262056
798.539438	0.262100
798.731480	0.262134
798.923503	0.262488
799.115509	0.262791
799.307496	0.262949
799.499465	0.263108
799.691415	0.263599
799.883348	0.263778
800.075262	0.264233
800.267158	0.264509
800.459035	0.264714
800.650895	0.264898
800.842736	0.264972
801.034559	0.264933
801.226364	0.265225
801.418150	0.265098
801.609919	0.264972
801.801669	0.265083
801.993401	0.265112
802.185114	0.265324
802.376810	0.265511
802.568487	0.265790
802.760146	0.265921
802.951787	0.266106
803.143409	0.266567
803.335014	0.267007
803.526600	0.267263
803.718168	0.267507
803.909717	0.267869
804.101249	0.268190
804.292762	0.268412
804.484257	0.268937
804.675734	0.269576
804.867192	0.269802
805.058632	0.270141
805.250054	0.270219
805.441458	0.270758
805.632844	0.270862
805.824211	0.271062
806.015561	0.271266
806.206891	0.271258
806.398204	0.271120
806.589499	0.271397
806.780775	0.271733
806.972033	0.272015
807.163273	0.272256
807.354495	0.272760
807.545698	0.273020
807.736883	0.273621
807.928050	0.274238
808.119199	0.274732
808.310329	0.274785
808.501441	0.275190
808.692535	0.275598
808.883611	0.275917
809.074669	0.276048
809.265708	0.276274
809.456729	0.276334
809.647732	0.276673
809.838717	0.276883
810.029683	0.277327
810.220632	0.277328
810.411562	0.277568
810.602474	0.277483
810.793367	0.277874
810.984242	0.278406
811.175100	0.278972
811.365938	0.278945
811.556759	0.279139
811.747562	0.279351
811.938346	0.279605
812.129112	0.279929
812.319860	0.280341
812.510589	0.280658
812.701300	0.280484
812.891994	0.280257
813.082668	0.280701
813.273325	0.280976
813.463964	0.281300
813.654584	0.281715
813.845186	0.282097
814.035769	0.282125
814.226335	0.282492
814.416882	0.283030
814.607411	0.283515
814.797922	0.283716
814.988415	0.284089
815.178889	0.284648
815.369345	0.285041
815.559783	0.285291
815.750203	0.285857
815.940605	0.286388
816.130988	0.286693
816.321353	0.287046
816.511700	0.287330
816.702028	0.287706
816.892339	0.287840
817.082631	0.287996
817.272905	0.288249
817.463161	0.288663
817.653398	0.288740
817.843617	0.289191
818.033819	0.289883
818.224001	0.290285
818.414166	0.290397
818.604312	0.290978
818.794440	0.291372
818.984550	0.291415
819.174642	0.291763
819.364716	0.291881
819.554771	0.292042
819.744808	0.292094
819.934827	0.292046
820.124827	0.292490
820.314810	0.292614
820.504774	0.293020
820.694720	0.293573
820.884647	0.293976
821.074557	0.294368
821.264448	0.294845
821.454321	0.295146
821.644176	0.295899
821.834012	0.296128
822.023831	0.296227
822.213631	0.296330
822.403413	0.296643
822.593176	0.296862
822.782922	0.297132
822.972649	0.297487
823.162358	0.297694
823.352049	0.297809
823.541721	0.298589
823.731376	0.299083
823.921012	0.299644
824.110629	0.300035
824.300229	0.300415
824.489811	0.300782
824.679374	0.301032
824.868919	0.301485
825.058445	0.301827
825.247954	0.301818
825.437444	0.302250
825.626916	0.302749
825.816370	0.303464
826.005806	0.303644
826.195223	0.304000
826.384622	0.304278
826.574003	0.304601
826.763366	0.305388
826.952711	0.305808
827.142037	0.306075
827.331345	0.306544
827.520635	0.306462
827.709906	0.306670
827.899160	0.307138
828.088395	0.307719
828.277612	0.308293
828.466810	0.308718
828.655991	0.308969
828.845153	0.309496
829.034297	0.309629
829.223423	0.310161
829.412531	0.311041
829.601620	0.311560
829.790691	0.311727
829.979744	0.312167
830.168779	0.312352
830.357795	0.312896
830.546793	0.313401
830.735773	0.313497
830.924735	0.313859
831.113679	0.314059
831.302604	0.314135
831.491511	0.314830
831.680400	0.315225
831.869271	0.315732
832.058123	0.316120
832.246957	0.316424
832.435773	0.317352
832.624571	0.317860
832.813351	0.318456
833.002112	0.319043
833.190855	0.319370
833.379580	0.319782
833.568287	0.320342
833.756975	0.320878
833.945645	0.321253
834.134297	0.321412
834.322931	0.321649
834.511547	0.321757
834.700144	0.321994
834.888723	0.322040
835.077284	0.322219
835.265826	0.322590
835.454351	0.323152
835.642857	0.323597
835.831345	0.323919
836.019815	0.324558
836.208266	0.325217
836.396699	0.325875
836.585114	0.326814
836.773511	0.327509
836.961890	0.327738
837.150250	0.328069
837.338592	0.328640
837.526916	0.329316
837.715222	0.329489
837.903510	0.330087
838.091779	0.330478
838.280030	0.330590
838.468263	0.331032
838.656477	0.331761
838.844674	0.331736
839.032852	0.332015
839.221012	0.332299
839.409153	0.333229
839.597277	0.333407
839.785382	0.334089
839.973469	0.334799
840.161538	0.335045
840.349589	0.335228
840.537621	0.335987
840.725635	0.336521
840.913631	0.337302
841.101609	0.337345
841.289568	0.338150
841.477509	0.338462
841.665432	0.338980
841.853337	0.339727
842.041224	0.340322
842.229092	0.340786
842.416942	0.341198
842.604774	0.341669
842.792588	0.342471
842.980383	0.343075
843.168160	0.343767
843.355919	0.344353
843.543660	0.344442
843.731382	0.344854
843.919087	0.345287
844.106773	0.345818
844.294441	0.346108
844.482090	0.346558
844.669722	0.346432
844.857335	0.346859
845.044930	0.347156
845.232507	0.347577
845.420065	0.348322
845.607605	0.349176
845.795127	0.349836
845.982631	0.350854
846.170117	0.350976
846.357584	0.351512
846.545033	0.351767
846.732464	0.352131
846.919877	0.352774
847.107272	0.352885
847.294648	0.352744
847.482006	0.352967
847.669346	0.352834
847.856667	0.353540
848.043971	0.354161
848.231256	0.354470
848.418523	0.354736
848.605771	0.355436
848.793002	0.356084
848.980214	0.356618
849.167408	0.357191
849.354584	0.357795
849.541742	0.358409
849.728881	0.359034
849.916002	0.360034
850.103105	0.360799
850.290190	0.360948
850.477256	0.361135
850.664304	0.361695
850.851334	0.361726
851.038346	0.361872
851.225340	0.362134
851.412315	0.362351
851.599272	0.362479
851.786211	0.363113
851.973132	0.363391
852.160034	0.363871
852.346918	0.364075
852.533784	0.364749
852.720632	0.365368
852.907462	0.365572
853.094273	0.366072
853.281066	0.366407
853.467841	0.366541
853.654598	0.367402
853.841336	0.367650
854.028056	0.368337
854.214758	0.368845
854.401442	0.368907
854.588107	0.369546
854.774755	0.370074
854.961384	0.370594
855.147995	0.370669
855.334587	0.370573
855.521162	0.371205
855.707718	0.371930
855.894256	0.372054
856.080775	0.373219
856.267277	0.373567
856.453760	0.373891
856.640225	0.374105
856.826672	0.374741
857.013101	0.375572
857.199511	0.375617
857.385903	0.376044
857.572277	0.376539
857.758633	0.376716
857.944970	0.376946
858.131290	0.377346
858.317591	0.378230
858.503873	0.378846
858.690138	0.379474
858.876384	0.380249
859.062612	0.381062
859.248822	0.382120
859.435014	0.382056
859.621188	0.382714
859.807343	0.383274
859.993480	0.383116
860.179599	0.383836
860.365699	0.384001
860.551781	0.384747
860.737846	0.384438
860.923891	0.384506
861.109919	0.385314
861.295929	0.385715
861.481920	0.386185
861.667893	0.386919
861.853848	0.387031
862.039784	0.387193
862.225702	0.387354
862.411603	0.387964
862.597484	0.388072
862.783348	0.388358
862.969193	0.388498
863.155021	0.388530
863.340830	0.388576
863.526620	0.388556
863.712393	0.388986
863.898147	0.389234
864.083883	0.389276
864.269601	0.389664
864.455301	0.390102
864.640982	0.390893
864.826645	0.391588
865.012290	0.392244
865.197917	0.392820
865.383526	0.393660
865.569116	0.394007
865.754688	0.394770
865.940242	0.395517
866.125777	0.396071
866.311295	0.396250
866.496794	0.396483
866.682275	0.396692
866.867737	0.397401
867.053182	0.397359
867.238608	0.397517
867.424016	0.397574
867.609406	0.398126
867.794778	0.398473
867.980131	0.398637
868.165466	0.398642
868.350783	0.399164
868.536082	0.399195
868.721362	0.399520
868.906625	0.400138
869.091869	0.400551
869.277094	0.400541
869.462302	0.400389
869.647491	0.400609
869.832662	0.401226
870.017815	0.401658
870.202950	0.402127
870.388066	0.402473
870.573165	0.402206
870.758245	0.402721
870.943306	0.402945
871.128350	0.403676
871.313375	0.404395
871.498382	0.404768
871.683371	0.405195
871.868342	0.405576
872.053294	0.405762
872.238229	0.406198
872.423144	0.406562
872.608042	0.406469
872.792922	0.406635
872.977783	0.406471
873.162626	0.406394
873.347451	0.406399
873.532258	0.406232
873.717046	0.406918
873.901816	0.407902
874.086568	0.408055
874.271302	0.409148
874.456017	0.409237
874.640715	0.409815
874.825394	0.410000
875.010055	0.410186
875.194697	0.410331
875.379322	0.410547
875.563928	0.410121
875.748516	0.410457
875.933085	0.410290
876.117637	0.410452
876.302170	0.410604
876.486685	0.411170
876.671182	0.411486
876.855661	0.411889
877.040121	0.411820
877.224563	0.412566
877.408987	0.412587
877.593393	0.412975
877.777780	0.413631
877.962150	0.413858
878.146501	0.414155
878.330833	0.414060
878.515148	0.414375
878.699444	0.414511
878.883722	0.414461
879.067982	0.414311
879.252224	0.414322
879.436447	0.414267
879.620653	0.414662
879.804840	0.415077
879.989008	0.415610
880.173159	0.415738
880.357291	0.415911
880.541405	0.415845
880.725501	0.416456
880.909579	0.416483
881.093638	0.416916
881.277680	0.417208
881.461703	0.417132
881.645707	0.416881
881.829694	0.417165
882.013662	0.417926
882.197612	0.418444
882.381544	0.418514
882.565458	0.418842
882.749353	0.418610
882.933230	0.418332
883.117089	0.418184
883.300930	0.418089
883.484753	0.418257
883.668557	0.417989
883.852343	0.417959
884.036111	0.417920
884.219861	0.417871
884.403592	0.417826
884.587305	0.418488
884.771000	0.418519
884.954677	0.419120
885.138335	0.419039
885.321976	0.418681
885.505598	0.418799
885.689201	0.419018
885.872787	0.419082
886.056354	0.419219
886.239904	0.419083
886.423434	0.419559
886.606947	0.419631
886.790442	0.419668
886.973918	0.420148
887.157376	0.420039
887.340816	0.420278
887.524237	0.420153
887.707641	0.419925
887.891026	0.419418
888.074393	0.419060
888.257741	0.419047
888.441072	0.419720
888.624384	0.419661
888.807678	0.420040
888.990954	0.419263
889.174211	0.419666
889.357451	0.420308
889.540672	0.420485
889.723875	0.420524
889.907059	0.420638
890.090226	0.420314
890.273374	0.419858
890.456504	0.419526
890.639616	0.419781
890.822709	0.419429
891.005785	0.419479
891.188842	0.419104
891.371881	0.419145
891.554901	0.418998
891.737904	0.418498
891.920888	0.418932
892.103854	0.418708
892.286802	0.419141
892.469731	0.419315
892.652643	0.419181
892.835536	0.419717
893.018410	0.419658
893.201267	0.419492
893.384106	0.419514
893.566926	0.419292
893.749728	0.419406
893.932511	0.419223
894.115277	0.419040
894.298024	0.418476
894.480753	0.417935
894.663464	0.418140
894.846157	0.418029
895.028831	0.418007
895.211487	0.418223
895.394125	0.418082
895.576745	0.417691
895.759346	0.417841
895.941930	0.418097
896.124495	0.417752
896.307041	0.417100
896.489570	0.417052
896.672080	0.416478
896.854573	0.415803
897.037046	0.415712
897.219502	0.415504
897.401940	0.415048
897.584359	0.414551
897.766760	0.415030
897.949143	0.415087
898.131507	0.414708
898.313854	0.414602
898.496182	0.414427
898.678492	0.413996
898.860783	0.413553
899.043057	0.413369
899.225312	0.412797
899.407549	0.412321
899.589768	0.412313
899.771968	0.411951
899.954151	0.412275
900.136315	0.412549
900.318461	0.412298
900.500588	0.412604
900.682698	0.412254
900.864789	0.412427
901.046862	0.412352
901.228917	0.411518
901.410953	0.411497
901.592971	0.410810
901.774972	0.409607
901.956953	0.409633
902.138917	0.408884
902.320862	0.408313
902.502790	0.408081
902.684699	0.407544
902.866589	0.407422
903.048462	0.406680
903.230316	0.405999
903.412152	0.405864
903.593970	0.405130
903.775770	0.404632
903.957551	0.404558
904.139314	0.403379
904.321059	0.402876
904.502786	0.402474
904.684494	0.402122
904.866185	0.401823
905.047857	0.401364
905.229510	0.401409
905.411146	0.401308
905.592763	0.401219
905.774363	0.401790
905.955943	0.401686
906.137506	0.401349
906.319051	0.401174
906.500577	0.401444
906.682085	0.401193
906.863575	0.400251
907.045046	0.399949
907.226500	0.399202
907.407935	0.398427
907.589352	0.397483
907.770750	0.397039
907.952131	0.397210
908.133493	0.396537
908.314837	0.396057
908.496163	0.396447
908.677470	0.396261
908.858760	0.395494
909.040031	0.395484
909.221284	0.395046
909.402518	0.394062
909.583735	0.393057
909.764933	0.392800
909.946113	0.392818
910.127275	0.391658
910.308418	0.390599
910.489544	0.390024
910.670651	0.389071
910.851740	0.388662
911.032810	0.388802
911.213863	0.387904
911.394897	0.387420
911.575913	0.386553
911.756911	0.385454
911.937890	0.385501
912.118851	0.384708
912.299794	0.384182
912.480719	0.383504
912.661626	0.383242
912.842514	0.382889
913.023384	0.381690
913.204236	0.381031
913.385070	0.380870
913.565886	0.380515
913.746683	0.380683
913.927462	0.380263
914.108223	0.379677
914.288965	0.378672
914.469690	0.378382
914.650396	0.378276
914.831084	0.377842
915.011754	0.377550
915.192405	0.376258
915.373038	0.375295
915.553653	0.374420
915.734250	0.374543
915.914829	0.374452
916.095389	0.373673
916.275931	0.372846
916.456455	0.372034
916.636961	0.371727
916.817448	0.371640
916.997917	0.371576
917.178368	0.370764
917.358801	0.370011
917.539216	0.368651
917.719612	0.368157
917.899990	0.367067
918.080350	0.366849
918.260692	0.364961
918.441015	0.364392
918.621320	0.363028
918.801607	0.362401
918.981876	0.361197
919.162127	0.360773
919.342359	0.359803
919.522573	0.360132
919.702769	0.359933
919.882947	0.360010
920.063106	0.358662
920.243247	0.358167
920.423370	0.357684
920.603475	0.356743
920.783562	0.355750
920.963630	0.355248
921.143680	0.353834
921.323712	0.351873
921.503725	0.351023
921.683721	0.350058
921.863698	0.349678
922.043657	0.348959
922.223598	0.348847
922.403520	0.347484
922.583424	0.346304
922.763311	0.345555
922.943178	0.344949
923.123028	0.344586
923.302859	0.344771
923.482673	0.343909
923.662467	0.343239
923.842244	0.342297
924.022003	0.343452
924.201743	0.342802
924.381465	0.341104
924.561169	0.340794
924.740854	0.339603
924.920522	0.338317
925.100171	0.336850
925.279802	0.335264
925.459414	0.334428
925.639009	0.332787
925.818585	0.332228
925.998143	0.332081
926.177683	0.331249
926.357205	0.330616
926.536708	0.330172
926.716193	0.329664
926.895660	0.329574
927.075109	0.328407
927.254539	0.327213
927.433951	0.326371
927.613345	0.326242
927.792721	0.325982
927.972079	0.324125
928.151418	0.322485
928.330739	0.321679
928.510042	0.320611
928.689327	0.319420
928.868593	0.318613
929.047841	0.317704
929.227071	0.316696
929.406283	0.314163
929.585476	0.314449
929.764652	0.313528
929.943809	0.312302
930.122948	0.311065
930.302068	0.310401
930.481171	0.308995
930.660255	0.308663
930.839321	0.307634
931.018369	0.307471
931.197398	0.305538
931.376409	0.304851
931.555402	0.303328
931.734377	0.302634
931.913334	0.301612
932.092272	0.300842
932.271192	0.298990
932.450094	0.296623
932.628978	0.295862
932.807844	0.295426
932.986691	0.293617
933.165520	0.293754
933.344331	0.291825
933.523123	0.291486
933.701898	0.291161
933.880654	0.290162
934.059392	0.289516
934.238111	0.288011
934.416813	0.286802
934.595496	0.286734
934.774161	0.284992
934.952808	0.284979
935.131437	0.283762
935.310047	0.282768
935.488639	0.281173
935.667213	0.280708
935.845769	0.279861
936.024306	0.279485
936.202825	0.277232
936.381326	0.275716
936.559809	0.274109
936.738274	0.272105
936.916720	0.270462
937.095148	0.269333
937.273558	0.268475
937.451950	0.266774
937.630323	0.264755
937.808678	0.263492
937.987015	0.262127
938.165334	0.261663
938.343635	0.261181
938.521917	0.259873
938.700181	0.259112
938.878427	0.257363
939.056655	0.256136
939.234864	0.254875
939.413055	0.253937
939.591228	0.253949
939.769383	0.252234
939.947519	0.251537
940.125638	0.250655
940.303738	0.249140
940.481820	0.248751
940.659883	0.246283
940.837929	0.245420
941.015956	0.245283
941.193965	0.243228
941.371955	0.243086
941.549928	0.241642
941.727882	0.237905
941.905818	0.237035
942.083736	0.234907
942.261636	0.235969
942.439517	0.235852
942.617380	0.234610
942.795225	0.234108
942.973052	0.232217
943.150860	0.230329
943.328651	0.231020
943.506423	0.230156
943.684176	0.228373
943.861912	0.226752
944.039629	0.224438
944.217328	0.223448
944.395009	0.221952
944.572672	0.221384
944.750317	0.220292
944.927943	0.217883
945.105551	0.215449
945.283141	0.214856
945.460712	0.213137
945.638265	0.212595
945.815801	0.210957
945.993317	0.209540
946.170816	0.207629
946.348297	0.207890
946.525759	0.208405
946.703203	0.208054
946.880629	0.207051
947.058036	0.205354
947.235425	0.203893
947.412797	0.202720
947.590149	0.202376
947.767484	0.201869
947.944800	0.200695
948.122099	0.198470
948.299379	0.197379
948.476640	0.195739
948.653884	0.195747
948.831109	0.194925
949.008316	0.194634
949.185505	0.194600
949.362676	0.192378
949.539828	0.189830
949.716962	0.188894
949.894078	0.187827
950.071176	0.187493
950.248256	0.187832
950.425317	0.185409
950.602360	0.184805
950.779385	0.181992
950.956391	0.180963
951.133380	0.179413
951.310350	0.178681
951.487302	0.177520
951.664235	0.176008
951.841151	0.174563
952.018048	0.174669
952.194927	0.172852
952.371788	0.171136
952.548631	0.170197
952.725455	0.168806
952.902261	0.167873
953.079049	0.168222
953.255819	0.167595
953.432570	0.164540
953.609303	0.162441
953.786018	0.160964
953.962715	0.159622
954.139394	0.156467
954.316054	0.155568
954.492696	0.155150
954.669320	0.152759
954.845926	0.150970
955.022513	0.150408
955.199083	0.150986
955.375634	0.147600
955.552166	0.149198
955.728681	0.149289
955.905177	0.148786
956.081655	0.145752
956.258115	0.143754
956.434557	0.144167
956.610980	0.142980
956.787385	0.140744
956.963772	0.140210
957.140141	0.139102
957.316492	0.140358
957.492824	0.139703
957.669138	0.140487
957.845434	0.139906
958.021712	0.138434
958.197971	0.138087
958.374212	0.138890
958.550435	0.138534
958.726640	0.136363
958.902826	0.132732
959.078995	0.130690
959.255145	0.129956
959.431277	0.131680
959.607390	0.131707
959.783486	0.131260
959.959563	0.130000
960.135622	0.130556
960.311662	0.129487
960.487685	0.130557
960.663689	0.131632
960.839675	0.131873
961.015643	0.130726
961.191593	0.128945
961.367524	0.126488
961.543437	0.124145
961.719332	0.122138
961.895209	0.123318
962.071067	0.123229
962.246907	0.122591
962.422730	0.120471
962.598533	0.119191
962.774319	0.118297
962.950086	0.119931
963.125835	0.118857
963.301566	0.120664
963.477279	0.117580
963.652973	0.115950
963.828650	0.113789
964.004308	0.114224
964.179947	0.112841
964.355569	0.113480
964.531172	0.111113
964.706757	0.111210
964.882324	0.109152
965.057873	0.109942
965.233403	0.110310
965.408916	0.111255
965.584410	0.107733
965.759885	0.110566
965.935343	0.110943
966.110782	0.111969
966.286203	0.112945
966.461606	0.116333
966.636991	0.116289
966.812357	0.118111
966.987705	0.118159
967.163035	0.121552
967.338347	0.119841
967.513641	0.116932
967.688916	0.113309
967.864173	0.113474
968.039412	0.110011
968.214632	0.112060
968.389835	0.111014
968.565019	0.110741
968.740185	0.112220
968.915333	0.111121
969.090462	0.111144
969.265573	0.115658
969.440667	0.114684
969.615741	0.115743
969.790798	0.114095
969.965836	0.113608
970.140856	0.114724
970.315858	0.111451
970.490842	0.111892
970.665808	0.112780
970.840755	0.111685
971.015684	0.110777
971.190595	0.108973
971.365487	0.107386
971.540362	0.107094
971.715218	0.106868
971.890056	0.108233
972.064875	0.108456
972.239677	0.108540
972.414460	0.108232
972.589225	0.108769
972.763972	0.109263
972.938700	0.110575
973.113411	0.110831
973.288103	0.108453
973.462777	0.109090
973.637432	0.107562
973.812070	0.107708
973.986689	0.106686
974.161290	0.107194
974.335873	0.108723
974.510437	0.107875
974.684984	0.106710
974.859512	0.108832
975.034022	0.107685
975.208513	0.106751
975.382987	0.108493
975.557442	0.109300
975.731879	0.112550
975.906298	0.112508
976.080698	0.112991
976.255080	0.114044
976.429445	0.112939
976.603790	0.112161
976.778118	0.114188
976.952427	0.112376
977.126719	0.112611
977.300992	0.110628
977.475246	0.109376
977.649483	0.109146
977.823701	0.108518
977.997901	0.108428
978.172083	0.109792
978.346247	0.109974
978.520392	0.112387
978.694519	0.112891
978.868628	0.113926
979.042719	0.113926
979.216791	0.114654
979.390845	0.114365
979.564882	0.116259
979.738899	0.114583
979.912899	0.113379
980.086880	0.109315
980.260843	0.110777
980.434788	0.107735
980.608715	0.105962
980.782623	0.104288
980.956514	0.104014
981.130386	0.102216
981.304240	0.103086
981.478075	0.102314
981.651892	0.104212
981.825692	0.103668
981.999472	0.104214
982.173235	0.105386
982.346980	0.104982
982.520706	0.106138
982.694414	0.106393
982.868104	0.109340
983.041775	0.111000
983.215428	0.112090
983.389064	0.111814
983.562680	0.111444
983.736279	0.111334
983.909860	0.114449
984.083422	0.114095
984.256966	0.116210
984.430491	0.113912
984.603999	0.115394
984.777488	0.112347
984.950959	0.110560
985.124412	0.112021
985.297847	0.114689
985.471263	0.113955
985.644661	0.112562
985.818041	0.111022
985.991403	0.110089
986.164747	0.107935
986.338072	0.110915
986.511379	0.111311
986.684668	0.110036
986.857938	0.109068
987.031191	0.108273
987.204425	0.110795
987.377641	0.111424
987.550839	0.112472
987.724018	0.112334
987.897179	0.110440
988.070322	0.109896
988.243447	0.110800
988.416554	0.111840
988.589642	0.111867
988.762712	0.108914
988.935764	0.107435
989.108798	0.107392
989.281813	0.108453
989.454811	0.110681
989.627790	0.112178
989.800751	0.112680
989.973693	0.112504
990.146617	0.113679
990.319524	0.114611
990.492412	0.115227
990.665281	0.115686
990.838133	0.113608
991.010966	0.112982
991.183781	0.112678
991.356578	0.111491
991.529356	0.108299
991.702117	0.108483
991.874859	0.109286
992.047583	0.107086
992.220288	0.105890
992.392976	0.108104
992.565645	0.107155
992.738296	0.105473
992.910929	0.106576
993.083543	0.109615
993.256139	0.107679
993.428718	0.105385
993.601277	0.108303
993.773819	0.109332
993.946342	0.108718
994.118848	0.110483
994.291335	0.111874
994.463803	0.112879
994.636254	0.114366
994.808686	0.114858
994.981100	0.114204
995.153496	0.112868
995.325874	0.113429
995.498233	0.114265
995.670574	0.111357
995.842897	0.111665
996.015202	0.109797
996.187488	0.106966
996.359757	0.107742
996.532007	0.110164
996.704239	0.111298
996.876452	0.110110
997.048648	0.109902
997.220825	0.113404
997.392984	0.112054
997.565124	0.112416
997.737247	0.114855
997.909351	0.113685
998.081437	0.116539
998.253505	0.117590
998.425554	0.117705
998.597586	0.117471
998.769599	0.115414
998.941594	0.117693
999.113571	0.118138
999.285529	0.115124
999.457469	0.118474
999.629391	0.116932
999.801295	0.114594
999.973181	0.114236
1000.145048	0.115803
1000.316897	0.115424
1000.488728	0.114054
1000.660541	0.113752
1000.832335	0.113449
1001.004111	0.111970
1001.175869	0.110264
1001.347609	0.110285
1001.519331	0.110732
1001.691034	0.107720
1001.862719	0.109108
1002.034386	0.110044
1002.206035	0.109875
1002.377665	0.110704
1002.549277	0.108347
1002.720871	0.108300
1002.892447	0.108103
1003.064004	0.109359
1003.235544	0.111197
1003.407065	0.110802
1003.578568	0.110542
1003.750052	0.111286
1003.921519	0.111608
1004.092967	0.112444
1004.264397	0.112998
1004.435809	0.113875
1004.607202	0.111398
1004.778577	0.110445
1004.949934	0.109760
1005.121273	0.109331
1005.292594	0.108371
1005.463896	0.107336
1005.635180	0.107415
1005.806446	0.106904
1005.977694	0.106325
1006.148923	0.106904
1006.320135	0.106127
1006.491328	0.105118
1006.662503	0.105796
1006.833659	0.105144
1007.004798	0.106540
1007.175918	0.106594
1007.347020	0.106745
1007.518103	0.108282
1007.689169	0.108855
1007.860216	0.107808
1008.031245	0.109095
1008.202256	0.108054
1008.373248	0.110309
1008.544223	0.108904
1008.715179	0.108852
1008.886117	0.108958
1009.057036	0.108290
1009.227938	0.108822
1009.398821	0.110280
1009.569686	0.108864
1009.740533	0.109212
1009.911361	0.105870
1010.082172	0.105939
1010.252964	0.107765
1010.423738	0.107115
1010.594493	0.105345
1010.765231	0.105900
1010.935950	0.104729
1011.106651	0.104353
1011.277334	0.103628
1011.447998	0.106127
1011.618645	0.107106
1011.789273	0.103870
1011.959882	0.105824
1012.130474	0.108299
1012.301048	0.107418
1012.471603	0.110253
1012.642140	0.111698
1012.812658	0.111440
1012.983159	0.110151
1013.153641	0.109565
1013.324105	0.110876
1013.494551	0.108937
1013.664979	0.106912
1013.835388	0.107345
1014.005779	0.105897
1014.176152	0.105936
1014.346507	0.104711
1014.516843	0.105141
1014.687162	0.107596
1014.857462	0.109006
1015.027744	0.109207
1015.198007	0.108863
1015.368252	0.109264
1015.538480	0.108143
1015.708689	0.108271
1015.878879	0.110137
1016.049052	0.109908
1016.219206	0.106893
1016.389342	0.106005
1016.559460	0.106054
1016.729559	0.107247
1016.899641	0.105085
1017.069704	0.107439
1017.239749	0.107579
1017.409775	0.107044
1017.579784	0.108144
1017.749774	0.109848
1017.919746	0.108249
1018.089700	0.107152
1018.259635	0.105908
1018.429553	0.105931
1018.599452	0.104918
1018.769333	0.104661
1018.939195	0.103585
1019.109040	0.101584
1019.278866	0.100072
1019.448674	0.100371
1019.618464	0.102857
1019.788235	0.103541
1019.957989	0.103962
1020.127724	0.102601
1020.297441	0.102942
1020.467139	0.104518
1020.636820	0.103582
1020.806482	0.104352
1020.976126	0.106030
1021.145752	0.104213
1021.315359	0.103177
1021.484948	0.102894
1021.654519	0.103812
1021.824072	0.103966
1021.993607	0.104470
1022.163123	0.105561
1022.332621	0.106361
1022.502101	0.105210
1022.671563	0.106656
1022.841007	0.108122
1023.010432	0.110527
1023.179839	0.109677
1023.349228	0.107445
1023.518598	0.106116
1023.687951	0.107049
1023.857285	0.105425
1024.026601	0.106596
1024.195899	0.106431
1024.365178	0.105176
1024.534439	0.103067
1024.703682	0.104709
1024.872907	0.105699
1025.042114	0.107256
1025.211302	0.107465
1025.380472	0.108922
1025.549624	0.109004
1025.718758	0.108253
1025.887873	0.109573
1026.056970	0.110201
1026.226049	0.108596
1026.395110	0.109503
1026.564153	0.108655
1026.733177	0.109222
1026.902183	0.107272
1027.071171	0.107917
1027.240141	0.109306
1027.409092	0.110800
1027.578026	0.111662
1027.746940	0.113810
1027.915837	0.113810
1028.084716	0.115439
1028.253576	0.115561
1028.422418	0.116243
1028.591242	0.115036
1028.760048	0.113860
1028.928835	0.112037
1029.097604	0.111553
1029.266355	0.110122
1029.435088	0.110699
1029.603803	0.109424
1029.772499	0.107239
1029.941177	0.106640
1030.109837	0.105936
1030.278478	0.105631
1030.447102	0.106237
1030.615707	0.105188
1030.784294	0.105502
1030.952863	0.103201
1031.121413	0.101911
1031.289945	0.101596
1031.458460	0.101321
1031.626955	0.102137
1031.795433	0.102412
1031.963892	0.102668
1032.132334	0.104260
1032.300756	0.103701
1032.469161	0.103556
1032.637548	0.103930
1032.805916	0.104890
1032.974266	0.106873
1033.142598	0.106179
1033.310911	0.105162
1033.479207	0.105208
1033.647484	0.104392
1033.815743	0.102648
1033.983983	0.104903
1034.152206	0.105741
1034.320410	0.105467
1034.488596	0.104241
1034.656764	0.104675
1034.824914	0.106803
1034.993045	0.104782
1035.161158	0.104878
1035.329253	0.106762
1035.497330	0.107899
1035.665388	0.108308
1035.833428	0.108040
1036.001450	0.108136
1036.169454	0.108540
1036.337440	0.106971
1036.505407	0.108508
1036.673356	0.108439
1036.841287	0.107988
1037.009200	0.105978
1037.177094	0.104628
1037.344970	0.106717
1037.512828	0.107390
1037.680668	0.106829
1037.848489	0.106818
1038.016293	0.106322
1038.184078	0.107153
1038.351845	0.109758
1038.519593	0.108713
1038.687324	0.108175
1038.855036	0.105939
1039.022730	0.104674
1039.190406	0.105613
1039.358063	0.105598
1039.525702	0.105301
1039.693323	0.104747
1039.860926	0.103161
1040.028511	0.105200
1040.196077	0.107070
1040.363625	0.107667
1040.531155	0.109385
1040.698667	0.108739
1040.866161	0.107956
1041.033636	0.109218
1041.201093	0.108830
1041.368532	0.109490
1041.535952	0.108762
1041.703355	0.108166
1041.870739	0.110089
1042.038105	0.108036
1042.205452	0.106979
1042.372782	0.107944
1042.540093	0.106825
1042.707386	0.105753
1042.874661	0.105154
1043.041918	0.104975
1043.209156	0.104471
1043.376376	0.101759
1043.543578	0.102419
1043.710762	0.104272
1043.877927	0.104304
1044.045074	0.105467
1044.212203	0.107002
1044.379314	0.105954
1044.546407	0.104116
1044.713481	0.104027
1044.880537	0.105824
1045.047575	0.106228
1045.214595	0.104668
1045.381596	0.105877
1045.548579	0.105550
1045.715544	0.106003
1045.882491	0.106332
1046.049420	0.109109
1046.216330	0.110969
1046.383222	0.109756
1046.550096	0.110691
1046.716951	0.110577
1046.883789	0.109239
1047.050608	0.108456
1047.217409	0.106892
1047.384192	0.107482
1047.550956	0.107817
1047.717703	0.105625
1047.884431	0.107545
1048.051140	0.105242
1048.217832	0.106222
1048.384505	0.106544
1048.551161	0.105850
1048.717798	0.104679
1048.884416	0.104153
1049.051017	0.102843
1049.217599	0.102939
1049.384163	0.100034
1049.550709	0.101110
1049.717237	0.100446
1049.883746	0.100018
1050.050237	0.101724
1050.216710	0.103724
1050.383165	0.103622
1050.549601	0.104477
1050.716019	0.106356
1050.882420	0.108642
1051.048801	0.110356
1051.215165	0.111001
1051.381510	0.110326
1051.547837	0.109257
1051.714146	0.109823
1051.880437	0.111499
1052.046709	0.110344
1052.212964	0.109174
1052.379200	0.109269
1052.545417	0.108372
1052.711617	0.107334
1052.877798	0.106900
1053.043961	0.107565
1053.210106	0.107987
1053.376233	0.104756
1053.542341	0.105106
1053.708432	0.104990
1053.874504	0.101514
1054.040557	0.099163
1054.206593	0.100515
1054.372610	0.102354
1054.538609	0.101889
1054.704590	0.100146
1054.870553	0.102610
1055.036497	0.103357
1055.202424	0.104504
1055.368331	0.108669
1055.534221	0.110540
1055.700093	0.109770
1055.865946	0.109144
1056.031781	0.110254
1056.197598	0.109815
1056.363397	0.108808
1056.529177	0.106355
1056.694939	0.106295
1056.860683	0.104452
1057.026409	0.105326
1057.192116	0.105407
1057.357806	0.104036
1057.523477	0.103652
1057.689130	0.103271
1057.854764	0.103387
1058.020381	0.104841
1058.185979	0.103745
1058.351559	0.105720
1058.517120	0.105413
1058.682664	0.105102
1058.848189	0.106022
1059.013696	0.105249
1059.179185	0.106427
1059.344656	0.107127
1059.510108	0.108900
1059.675542	0.109017
1059.840958	0.107833
1060.006356	0.107481
1060.171735	0.109958
1060.337096	0.110680
1060.502439	0.110954
1060.667764	0.111801
1060.833071	0.112218
1060.998359	0.109304
1061.163629	0.110523
1061.328881	0.111109
1061.494115	0.112052
1061.659330	0.110644
1061.824527	0.112069
1061.989706	0.113444
1062.154867	0.111542
1062.320010	0.111382
1062.485134	0.113466
1062.650240	0.111516
1062.815328	0.112281
1062.980398	0.111694
1063.145449	0.110485
1063.310482	0.109273
1063.475497	0.107442
1063.640494	0.109751
1063.805473	0.110079
1063.970433	0.108587
1064.135375	0.109426
1064.300299	0.108097
1064.465204	0.107233
1064.630092	0.107654
1064.794961	0.108385
1064.959812	0.109168
1065.124645	0.108219
1065.289459	0.110428
1065.454256	0.111589
1065.619034	0.112233
1065.783793	0.111546
1065.948535	0.112134
1066.113258	0.112621
1066.277964	0.113069
1066.442651	0.112067
1066.607319	0.111405
1066.771970	0.107180
1066.936602	0.107951
1067.101216	0.106622
1067.265812	0.108276
1067.430389	0.108043
1067.594949	0.108017
1067.759490	0.106933
1067.924013	0.108170
1068.088518	0.109903
1068.253004	0.111088
1068.417472	0.112778
1068.581922	0.114411
1068.746354	0.115189
1068.910768	0.114936
1069.075163	0.114983
1069.239540	0.114432
1069.403899	0.114169
1069.568240	0.112888
1069.732562	0.113715
1069.896866	0.109826
1070.061152	0.108342
1070.225420	0.106041
1070.389670	0.105575
1070.553901	0.106349
1070.718114	0.109502
1070.882309	0.108943
1071.046486	0.109280
1071.210644	0.109825
1071.374784	0.111515
1071.538906	0.114342
1071.703010	0.114693
1071.867096	0.118346
1072.031163	0.116800
1072.195212	0.114661
1072.359243	0.116585
1072.523256	0.116308
1072.687250	0.115111
1072.851226	0.114066
1073.015184	0.113584
1073.179124	0.114054
1073.343045	0.112008
1073.506949	0.113529
1073.670834	0.112637
1073.834701	0.110964
1073.998549	0.108831
1074.162380	0.109659
1074.326192	0.110480
1074.489986	0.108271
1074.653761	0.110031
1074.817519	0.106350
1074.981258	0.103510
1075.144979	0.104120
1075.308682	0.104815
1075.472367	0.107421
1075.636033	0.106114
1075.799681	0.105906
1075.963311	0.106525
1076.126923	0.103988
1076.290516	0.108766
1076.454092	0.109438
1076.617649	0.107111
1076.781187	0.105590
1076.944708	0.104569
1077.108210	0.106610
1077.271695	0.108516
1077.435160	0.108967
1077.598608	0.110480
1077.762038	0.108838
1077.925449	0.112149
1078.088842	0.116510
1078.252217	0.116643
1078.415573	0.116013
1078.578912	0.116773
1078.742232	0.115900
1078.905534	0.116328
1079.068817	0.115922
1079.232083	0.119478
1079.395330	0.116473
1079.558559	0.116504
1079.721770	0.118264
1079.884962	0.119175
1080.048136	0.117985
1080.211293	0.117110
1080.374430	0.117166
1080.537550	0.116192
1080.700651	0.110561
1080.863735	0.113062
1081.026800	0.112983
1081.189846	0.113888
1081.352875	0.114588
1081.515885	0.113713
1081.678877	0.114497
1081.841851	0.112212
1082.004807	0.114343
1082.167744	0.119119
1082.330663	0.115804
1082.493564	0.113912
1082.656447	0.111350
1082.819312	0.111142
1082.982158	0.111794
1083.144986	0.111074
1083.307796	0.113368
1083.470587	0.112039
1083.633361	0.110042
1083.796116	0.112255
1083.958853	0.112859
1084.121571	0.110048
1084.284272	0.109191
1084.446954	0.108518
1084.609618	0.109706
1084.772264	0.109090
1084.934892	0.111319
1085.097501	0.112779
1085.260092	0.110872
1085.422665	0.109816
1085.585220	0.113565
1085.747756	0.115902
1085.910274	0.113665
1086.072774	0.113463
1086.235256	0.112497
1086.397720	0.111417
1086.560165	0.110767
1086.722592	0.114742
1086.885001	0.116254
1087.047392	0.115642
1087.209764	0.114318
1087.372119	0.117286
1087.534455	0.117814
1087.696772	0.119275
1087.859072	0.116278
1088.021353	0.115643
1088.183616	0.113214
1088.345861	0.112910
1088.508088	0.114023
1088.670296	0.115802
1088.832486	0.116184
1088.994658	0.116777
1089.156812	0.116552
1089.318948	0.115406
1089.481065	0.116138
1089.643164	0.117595
1089.805245	0.118055
1089.967308	0.118524
1090.129352	0.114748
1090.291378	0.114776
1090.453386	0.112971
1090.615376	0.113437
1090.777347	0.113167
1090.939301	0.110513
1091.101236	0.110077
1091.263153	0.110421
1091.425051	0.110972
1091.586932	0.114732
1091.748794	0.113068
1091.910638	0.113482
1092.072463	0.113585
1092.234271	0.118633
1092.396060	0.118783
1092.557831	0.118732
1092.719584	0.117895
1092.881319	0.119695
1093.043035	0.118107
1093.204733	0.118779
1093.366413	0.119579
1093.528075	0.117224
1093.689718	0.117117
1093.851343	0.119353
1094.012950	0.117877
1094.174539	0.117829
1094.336110	0.115395
1094.497662	0.115965
1094.659196	0.117226
1094.820712	0.115043
1094.982210	0.117211
1095.143689	0.115010
1095.305151	0.116860
1095.466594	0.117356
1095.628018	0.116562
1095.789425	0.118600
1095.950813	0.118972
1096.112183	0.118761
1096.273535	0.120405
1096.434869	0.121182
1096.596184	0.124093
1096.757482	0.121166
1096.918761	0.119347
1097.080021	0.120667
1097.241264	0.118063
1097.402488	0.115932
1097.563694	0.116075
1097.724882	0.115872
1097.886052	0.117480
1098.047203	0.118679
1098.208336	0.119154
1098.369451	0.124324
1098.530548	0.123172
1098.691627	0.124189
1098.852687	0.125900
1099.013729	0.122988
1099.174753	0.122142
1099.335758	0.117942
1099.496746	0.113423
1099.657715	0.113709
1099.818666	0.110736
1099.979599	0.111926
1100.140513	0.111914
1100.301409	0.109615
1100.462287	0.109851
1100.623147	0.106669
1100.783989	0.108932
1100.944812	0.109700
1101.105617	0.111766
1101.266404	0.111798
1101.427173	0.112011
1101.587923	0.112413
1101.748656	0.116510
1101.909370	0.119883
1102.070066	0.125441
1102.230743	0.126467
1102.391403	0.128255
1102.552044	0.124818
1102.712667	0.125461
1102.873271	0.122707
1103.033858	0.121655
1103.194426	0.119574
1103.354976	0.120268
1103.515508	0.117289
1103.676021	0.115548
1103.836517	0.113390
1103.996994	0.114592
1104.157453	0.113295
1104.317893	0.115869
1104.478316	0.118065
1104.638720	0.117824
1104.799106	0.116274
1104.959474	0.117113
1105.119823	0.118538
1105.280155	0.118884
1105.440468	0.119950
1105.600763	0.119477
1105.761039	0.119138
1105.921298	0.115298
1106.081538	0.114041
1106.241760	0.115404
1106.401964	0.116483
1106.562149	0.116860
1106.722316	0.113123
1106.882465	0.110422
1107.042596	0.112489
1107.202709	0.111547
1107.362803	0.112729
1107.522879	0.115381
1107.682937	0.112739
1107.842977	0.111037
1108.002999	0.109960
1108.163002	0.114775
1108.322987	0.114088
1108.482954	0.111496
1108.642902	0.110643
1108.802833	0.110768
1108.962745	0.109391
1109.122639	0.106935
1109.282515	0.108863
1109.442372	0.109237
1109.602211	0.106159
1109.762032	0.109649
1109.921835	0.110291
1110.081620	0.111768
1110.241386	0.111655
1110.401134	0.111593
1110.560864	0.114181
1110.720576	0.111353
1110.880269	0.110894
1111.039945	0.114631
1111.199602	0.110363
1111.359240	0.114108
1111.518861	0.117772
1111.678463	0.119092
1111.838047	0.121326
1111.997613	0.121989
1112.157161	0.127023
1112.316690	0.125672
1112.476202	0.122006
1112.635695	0.125353
1112.795169	0.124875
1112.954626	0.124718
1113.114064	0.124054
1113.273484	0.119963
1113.432886	0.123492
1113.592270	0.119907
1113.751635	0.117847
1113.910983	0.120704
1114.070312	0.120013
1114.229622	0.122052
1114.388915	0.116434
1114.548189	0.116261
1114.707445	0.116372
1114.866683	0.114232
1115.025903	0.112280
1115.185104	0.115423
1115.344287	0.116184
1115.503452	0.114648
1115.662599	0.109182
1115.821727	0.110180
1115.980838	0.109124
1116.139930	0.110320
1116.299004	0.110604
1116.458059	0.110046
1116.617097	0.110217
1116.776116	0.110958
1116.935117	0.110595
1117.094099	0.116029
1117.253064	0.119696
1117.412010	0.119897
1117.570938	0.123113
1117.729848	0.122220
1117.888740	0.125542
1118.047613	0.126286
1118.206468	0.124247
1118.365305	0.126270
1118.524124	0.121527
1118.682924	0.118208
1118.841707	0.119339
1119.000471	0.116825
1119.159216	0.117454
1119.317944	0.116199
1119.476653	0.116583
1119.635344	0.117856
1119.794017	0.119027
1119.952672	0.118248
1120.111308	0.119021
1120.269927	0.119174
1120.428527	0.119360
1120.587108	0.116348
1120.745672	0.116049
1120.904217	0.115282
1121.062744	0.113215
1121.221253	0.112342
1121.379744	0.113058
1121.538216	0.113932
1121.696671	0.110186
1121.855107	0.112290
1122.013524	0.114413
1122.171924	0.116617
1122.330305	0.114499
1122.488668	0.114815
1122.647013	0.114234
1122.805340	0.114582
1122.963648	0.112620
1123.121938	0.117457
1123.280210	0.114086
1123.438464	0.111853
1123.596700	0.114182
1123.754917	0.115787
1123.913116	0.115596
1124.071297	0.114763
1124.229459	0.114392
1124.387604	0.113561
1124.545730	0.110414
1124.703838	0.111512
1124.861928	0.117101
1125.019999	0.111362
1125.178052	0.110203
1125.336088	0.109315
1125.494104	0.110679
1125.652103	0.115093
1125.810083	0.117635
1125.968045	0.119584
1126.125989	0.123051
1126.283915	0.122164
1126.441823	0.123202
1126.599712	0.126238
1126.757583	0.127201
1126.915436	0.128217
1127.073270	0.125414
1127.231087	0.127626
1127.388885	0.131572
1127.546665	0.128245
1127.704426	0.127510
1127.862170	0.131190
1128.019895	0.130608
1128.177602	0.135081
1128.335291	0.134292
1128.492961	0.135870
1128.650614	0.135466
1128.808248	0.128902
1128.965864	0.131334
1129.123461	0.130368
1129.281041	0.127637
1129.438602	0.124489
1129.596145	0.125674
1129.753670	0.124621
1129.911176	0.117794
1130.068665	0.112885
1130.226135	0.117927
1130.383587	0.118551
1130.541020	0.116808
1130.698436	0.113635
1130.855833	0.115135
1131.013212	0.109549
1131.170573	0.110214
1131.327915	0.114178
1131.485239	0.121396
1131.642545	0.120421
1131.799833	0.118147
1131.957103	0.117131
1132.114354	0.123048
1132.271588	0.127447
1132.428803	0.129404
1132.585999	0.130058
1132.743178	0.129039
1132.900338	0.124002
1133.057480	0.118819
1133.214604	0.118085
1133.371710	0.120842
1133.528797	0.121049
1133.685866	0.113676
1133.842917	0.112002
1133.999950	0.112677
1134.156964	0.112953
1134.313960	0.115297
1134.470938	0.115629
1134.627898	0.111448
1134.784840	0.111828
1134.941763	0.111158
1135.098668	0.111724
1135.255555	0.115432
1135.412424	0.114753
1135.569274	0.117767
1135.726107	0.116174
1135.882921	0.120667
1136.039716	0.127324
1136.196494	0.124307
1136.353253	0.122913
1136.509995	0.126764
1136.666717	0.120974
1136.823422	0.114820
1136.980109	0.117019
1137.136777	0.117831
1137.293427	0.117315
1137.450059	0.111414
1137.606672	0.109954
1137.763267	0.106592
1137.919844	0.104475
1138.076403	0.104433
1138.232944	0.112282
1138.389466	0.112868
1138.545971	0.108753
1138.702457	0.107941
1138.858924	0.108530
1139.015374	0.111560
1139.171805	0.119381
1139.328218	0.124142
1139.484613	0.126622
1139.640990	0.123650
1139.797348	0.119768
1139.953688	0.124689
1140.110010	0.122239
1140.266314	0.123663
1140.422600	0.119801
1140.578867	0.114099
1140.735116	0.110934
1140.891347	0.113788
1141.047559	0.111978
1141.203754	0.113122
1141.359930	0.108883
1141.516088	0.109350
1141.672228	0.114245
1141.828349	0.118297
1141.984452	0.119398
1142.140537	0.119298
1142.296604	0.116528
1142.452653	0.117019
1142.608683	0.114114
1142.764695	0.118558
1142.920689	0.118265
1143.076665	0.112498
1143.232622	0.111515
1143.388562	0.109957
1143.544483	0.111036
1143.700385	0.111449
1143.856270	0.117515
1144.012136	0.117450
1144.167985	0.115841
1144.323814	0.121514
1144.479626	0.123429
1144.635420	0.127734
1144.791195	0.131301
1144.946952	0.130057
1145.102691	0.126498
1145.258411	0.119999
1145.414113	0.115349
1145.569798	0.113803
1145.725463	0.112610
1145.881111	0.115487
1146.036741	0.111629
1146.192352	0.102387
1146.347945	0.100873
1146.503519	0.102939
1146.659076	0.103409
1146.814614	0.106502
1146.970134	0.111954
1147.125636	0.102372
1147.281120	0.097071
1147.436585	0.094226
1147.592032	0.098856
1147.747461	0.099307
1147.902872	0.100752
1148.058265	0.104995
1148.213639	0.103968
1148.368995	0.102528
1148.524333	0.110633
1148.679653	0.116196
1148.834954	0.112515
1148.990237	0.112987
1149.145502	0.114034
1149.300749	0.119473
1149.455977	0.115465
1149.611188	0.115175
1149.766380	0.112248
1149.921553	0.111019
1150.076709	0.106582
1150.231846	0.113716
1150.386966	0.116423
1150.542066	0.116633
1150.697149	0.109984
1150.852214	0.108804
1151.007260	0.113163
1151.162288	0.110130
1151.317298	0.113778
1151.472289	0.115218
1151.627263	0.112099
1151.782218	0.108064
1151.937155	0.105795
1152.092073	0.102579
1152.246974	0.102880
1152.401856	0.104636
1152.556720	0.103819
1152.711566	0.099407
1152.866393	0.097162
1153.021203	0.097341
1153.175994	0.098097
1153.330767	0.097937
1153.485521	0.101556
1153.640258	0.101482
1153.794976	0.098252
1153.949676	0.103433
1154.104358	0.102869
1154.259021	0.104097
1154.413667	0.103038
1154.568294	0.106448
1154.722903	0.110377
1154.877493	0.108266
1155.032066	0.109792
1155.186620	0.109122
1155.341156	0.100588
1155.495674	0.099404
1155.650173	0.101623
1155.804654	0.100611
1155.959118	0.099374
1156.113562	0.099510
1156.267989	0.099754
1156.422397	0.100696
1156.576788	0.098001
1156.731160	0.105455
1156.885513	0.107321
1157.039849	0.106268
1157.194166	0.109402
1157.348465	0.107692
1157.502746	0.099878
1157.657009	0.104777
1157.811253	0.102223
1157.965479	0.104098
1158.119687	0.103859
1158.273877	0.100349
1158.428048	0.098340
1158.582201	0.102661
1158.736337	0.106029
1158.890453	0.107575
1159.044552	0.102786
1159.198632	0.108199
1159.352694	0.107157
1159.506738	0.107641
1159.660764	0.108925
1159.814771	0.110829
1159.968761	0.107927
1160.122732	0.104084
1160.276685	0.107958
1160.430619	0.104477
1160.584535	0.101465
1160.738434	0.104209
1160.892313	0.105614
1161.046175	0.114407
1161.200019	0.116508
1161.353844	0.109891
1161.507651	0.108161
1161.661440	0.105673
1161.815210	0.115866
1161.968962	0.111599
1162.122697	0.116790
1162.276412	0.114429
1162.430110	0.105828
1162.583789	0.097056
1162.737451	0.095540
1162.891094	0.099774
1163.044718	0.097815
1163.198325	0.089667
1163.351913	0.091506
1163.505483	0.086776
1163.659035	0.085180
1163.812569	0.081649
1163.966084	0.079336
1164.119581	0.089858
1164.273060	0.091567
1164.426521	0.096070
1164.579964	0.097377
1164.733388	0.100265
1164.886794	0.097256
1165.040182	0.093582
1165.193551	0.096718
1165.346903	0.106523
1165.500236	0.098973
1165.653551	0.093617
1165.806848	0.090008
1165.960126	0.086405
1166.113386	0.087508
1166.266628	0.093119
1166.419852	0.097469
1166.573058	0.095463
1166.726245	0.092134
1166.879414	0.099378
1167.032565	0.102411
1167.185698	0.107097
1167.338812	0.114686
1167.491909	0.110958
1167.644987	0.109511
1167.798046	0.105733
1167.951088	0.111455
1168.104111	0.112189
1168.257117	0.105687
1168.410103	0.106115
1168.563072	0.107832
1168.716023	0.106701
1168.868955	0.098415
1169.021869	0.098532
1169.174765	0.103934
1169.327642	0.100977
1169.480501	0.102649
1169.633343	0.106094
1169.786165	0.105013
1169.938970	0.094874
1170.091757	0.093744
1170.244525	0.102687
1170.397275	0.095004
1170.550007	0.089871
1170.702720	0.089806
1170.855415	0.084449
1171.008092	0.073283
1171.160751	0.064031
1171.313392	0.059909
1171.466014	0.058792
1171.618619	0.017109
1171.771205	0.017109
1171.923772	0.017109
