sample name	sample
index	1275
start time	 04-29-2021  02:26:04 PM


Wavelength (nm)	Absorbance
494.344910	NaN
494.563924	NaN
494.782919	NaN
495.001897	-0.507949
495.220856	-0.020720
495.439797	-0.029285
495.658719	-0.066550
495.877624	-0.074243
496.096510	0.075633
496.315378	0.108290
496.534227	0.127646
496.753059	0.200076
496.971872	0.156632
497.190667	0.068462
497.409444	0.063621
497.628203	0.056109
497.846943	0.057404
498.065665	0.057239
498.284369	0.058779
498.503055	0.060019
498.721723	0.059653
498.940372	0.058828
499.159003	0.057720
499.377616	0.055073
499.596210	0.056374
499.814787	0.055318
500.033345	0.054116
500.251885	0.053892
500.470406	0.054371
500.688910	0.055596
500.907395	0.056800
501.125862	0.057903
501.344311	0.059881
501.562742	0.059876
501.781154	0.059595
501.999548	0.061242
502.217924	0.061029
502.436282	0.059982
502.654621	0.059487
502.872942	0.058344
503.091245	0.058410
503.309530	0.057931
503.527797	0.057526
503.746045	0.057987
503.964275	0.057298
504.182487	0.056291
504.400681	0.055978
504.618856	0.056170
504.837013	0.057188
505.055152	0.056822
505.273273	0.057204
505.491376	0.057749
505.709460	0.057743
505.927526	0.057527
506.145574	0.058326
506.363604	0.058330
506.581615	0.057553
506.799608	0.057475
507.017583	0.057470
507.235540	0.057851
507.453478	0.057957
507.671399	0.058313
507.889301	0.058886
508.107185	0.058529
508.325050	0.058906
508.542898	0.059865
508.760727	0.059563
508.978538	0.060627
509.196330	0.060907
509.414105	0.060619
509.631861	0.061004
509.849599	0.061037
510.067319	0.060861
510.285021	0.060788
510.502704	0.060482
510.720369	0.060377
510.938016	0.059510
511.155645	0.059476
511.373255	0.060333
511.590848	0.060796
511.808422	0.061052
512.025977	0.061015
512.243515	0.061628
512.461034	0.062112
512.678536	0.062915
512.896018	0.063461
513.113483	0.062863
513.330930	0.062989
513.548358	0.062403
513.765768	0.061787
513.983160	0.062494
514.200533	0.062405
514.417889	0.061258
514.635226	0.060711
514.852545	0.060660
515.069845	0.060881
515.287128	0.060671
515.504392	0.060558
515.721638	0.060611
515.938866	0.061532
516.156075	0.061438
516.373267	0.062268
516.590440	0.062354
516.807594	0.062587
517.024731	0.063208
517.241850	0.063447
517.458950	0.063622
517.676032	0.064133
517.893095	0.064326
518.110141	0.065049
518.327168	0.065064
518.544177	0.065449
518.761168	0.065877
518.978141	0.065955
519.195095	0.065783
519.412031	0.065904
519.628949	0.065311
519.845849	0.064717
520.062731	0.064197
520.279594	0.064438
520.496439	0.064298
520.713266	0.064305
520.930074	0.064162
521.146865	0.064809
521.363637	0.064827
521.580391	0.065524
521.797127	0.066065
522.013844	0.066380
522.230543	0.066279
522.447224	0.066630
522.663887	0.066336
522.880532	0.066632
523.097158	0.067111
523.313766	0.067670
523.530356	0.067372
523.746928	0.066829
523.963481	0.067199
524.180017	0.067253
524.396534	0.067683
524.613032	0.068694
524.829513	0.069017
525.045975	0.068463
525.262420	0.068301
525.478845	0.069207
525.695253	0.069322
525.911643	0.069214
526.128014	0.069823
526.344367	0.069533
526.560702	0.069449
526.777018	0.069543
526.993316	0.069456
527.209597	0.069780
527.425858	0.069633
527.642102	0.069948
527.858328	0.070627
528.074535	0.071145
528.290724	0.071288
528.506894	0.070874
528.723047	0.070618
528.939181	0.070767
529.155297	0.070957
529.371395	0.070656
529.587475	0.070571
529.803536	0.070189
530.019579	0.069980
530.235604	0.069940
530.451611	0.070401
530.667600	0.070755
530.883570	0.070846
531.099522	0.070595
531.315456	0.071396
531.531372	0.072146
531.747269	0.072683
531.963148	0.073244
532.179009	0.073628
532.394852	0.073451
532.610676	0.073633
532.826482	0.073901
533.042271	0.074053
533.258040	0.074003
533.473792	0.073721
533.689525	0.073907
533.905240	0.073429
534.120937	0.073975
534.336616	0.074137
534.552277	0.074293
534.767919	0.074734
534.983543	0.075624
535.199149	0.075573
535.414736	0.076256
535.630306	0.075995
535.845857	0.076374
536.061390	0.076717
536.276904	0.077138
536.492401	0.077150
536.707879	0.077704
536.923339	0.077818
537.138781	0.078150
537.354204	0.078326
537.569610	0.078735
537.784997	0.079138
538.000366	0.078897
538.215716	0.078780
538.431049	0.079060
538.646363	0.078755
538.861659	0.078748
539.076937	0.079281
539.292196	0.079371
539.507438	0.079383
539.722661	0.079315
539.937866	0.079696
540.153052	0.080219
540.368221	0.080248
540.583371	0.080658
540.798503	0.080673
541.013617	0.080906
541.228712	0.080655
541.443789	0.080628
541.658848	0.080914
541.873889	0.081160
542.088912	0.081305
542.303916	0.081847
542.518902	0.081647
542.733870	0.081636
542.948820	0.081347
543.163752	0.081690
543.378665	0.082080
543.593560	0.082093
543.808437	0.082214
544.023295	0.082264
544.238136	0.082476
544.452958	0.082860
544.667762	0.083380
544.882548	0.084227
545.097315	0.084750
545.312064	0.085489
545.526795	0.085889
545.741508	0.085777
545.956203	0.086078
546.170879	0.086136
546.385537	0.086517
546.600177	0.086580
546.814799	0.086664
547.029402	0.086649
547.243988	0.086436
547.458555	0.086604
547.673103	0.086731
547.887634	0.087097
548.102146	0.087329
548.316640	0.087125
548.531116	0.087349
548.745574	0.087452
548.960013	0.087852
549.174435	0.087935
549.388838	0.088100
549.603222	0.088430
549.817589	0.088046
550.031937	0.087915
550.246267	0.088177
550.460579	0.088185
550.674873	0.088082
550.889148	0.087968
551.103405	0.088345
551.317644	0.088289
551.531865	0.088628
551.746068	0.089128
551.960252	0.089448
552.174418	0.089568
552.388566	0.089777
552.602696	0.090136
552.816807	0.090063
553.030900	0.090313
553.244975	0.090702
553.459032	0.090996
553.673070	0.091038
553.887091	0.091299
554.101093	0.091619
554.315077	0.091704
554.529042	0.091717
554.742990	0.092095
554.956919	0.091890
555.170830	0.091837
555.384722	0.092020
555.598597	0.092292
555.812453	0.092668
556.026291	0.092726
556.240111	0.093157
556.453913	0.093386
556.667696	0.093544
556.881461	0.093841
557.095208	0.094374
557.308937	0.094373
557.522647	0.094510
557.736339	0.094525
557.950013	0.094738
558.163669	0.094707
558.377307	0.095079
558.590926	0.095406
558.804527	0.095463
559.018110	0.095451
559.231675	0.095643
559.445221	0.095691
559.658749	0.095648
559.872259	0.095833
560.085751	0.095724
560.299225	0.095298
560.512680	0.095468
560.726117	0.095309
560.939536	0.095193
561.152937	0.095522
561.366319	0.096025
561.579683	0.095911
561.793029	0.095884
562.006357	0.096422
562.219667	0.096813
562.432958	0.096598
562.646231	0.097048
562.859486	0.097209
563.072723	0.097119
563.285941	0.096790
563.499141	0.097196
563.712323	0.097795
563.925487	0.098206
564.138632	0.098662
564.351760	0.099176
564.564869	0.099572
564.777960	0.099815
564.991032	0.099780
565.204087	0.100078
565.417123	0.100441
565.630141	0.100361
565.843140	0.100031
566.056122	0.099810
566.269085	0.099937
566.482030	0.099824
566.694957	0.100074
566.907866	0.100315
567.120756	0.100613
567.333628	0.100452
567.546482	0.100157
567.759318	0.100391
567.972135	0.100279
568.184935	0.100294
568.397716	0.100420
568.610478	0.100536
568.823223	0.100576
569.035949	0.100733
569.248657	0.100712
569.461347	0.101454
569.674019	0.101760
569.886672	0.102307
570.099308	0.102532
570.311925	0.102679
570.524523	0.102568
570.737104	0.102634
570.949666	0.102880
571.162210	0.103492
571.374736	0.103152
571.587244	0.103063
571.799733	0.102865
572.012205	0.102704
572.224658	0.102703
572.437092	0.102994
572.649509	0.103168
572.861907	0.103020
573.074287	0.102996
573.286649	0.103073
573.498993	0.103212
573.711318	0.103698
573.923625	0.103826
574.135914	0.104674
574.348185	0.105016
574.560438	0.105344
574.772672	0.105638
574.984888	0.106031
575.197086	0.106557
575.409266	0.106581
575.621427	0.106592
575.833570	0.107189
576.045695	0.106858
576.257802	0.106378
576.469890	0.106257
576.681961	0.106102
576.894013	0.105673
577.106046	0.105340
577.318062	0.105484
577.530059	0.105361
577.742039	0.105299
577.954000	0.105184
578.165942	0.105767
578.377867	0.105993
578.589773	0.106204
578.801661	0.106565
579.013531	0.107007
579.225382	0.107220
579.437216	0.107588
579.649031	0.107795
579.860828	0.108021
580.072606	0.107957
580.284367	0.108033
580.496109	0.108155
580.707833	0.108289
580.919539	0.108294
581.131227	0.108337
581.342896	0.108411
581.554547	0.108063
581.766180	0.108126
581.977795	0.108293
582.189391	0.108110
582.400969	0.108226
582.612529	0.107839
582.824071	0.107752
583.035595	0.107944
583.247100	0.107672
583.458587	0.107822
583.670056	0.107788
583.881506	0.107607
584.092939	0.107487
584.304353	0.107326
584.515749	0.107348
584.727127	0.107563
584.938486	0.107337
585.149828	0.107408
585.361151	0.107228
585.572456	0.107423
585.783742	0.107592
585.995011	0.107995
586.206261	0.108289
586.417493	0.108655
586.628706	0.108620
586.839902	0.108716
587.051079	0.109115
587.262238	0.109275
587.473379	0.109600
587.684502	0.109640
587.895606	0.109932
588.106692	0.109912
588.317760	0.110091
588.528810	0.110507
588.739841	0.110630
588.950855	0.110483
589.161850	0.110849
589.372827	0.110872
589.583785	0.110931
589.794726	0.110772
590.005648	0.110724
590.216552	0.110483
590.427437	0.110377
590.638305	0.110688
590.849154	0.110563
591.059985	0.110437
591.270798	0.110021
591.481592	0.110404
591.692369	0.110459
591.903127	0.110889
592.113867	0.111350
592.324588	0.111425
592.535292	0.111774
592.745977	0.112278
592.956644	0.112400
593.167293	0.112723
593.377923	0.112652
593.588536	0.112694
593.799130	0.112987
594.009706	0.113106
594.220263	0.112988
594.430803	0.112566
594.641324	0.112453
594.851827	0.112503
595.062312	0.112504
595.272778	0.112103
595.483227	0.112087
595.693657	0.111606
595.904069	0.111685
596.114462	0.111788
596.324838	0.112035
596.535195	0.112198
596.745534	0.111701
596.955855	0.112038
597.166157	0.112332
597.376441	0.112558
597.586707	0.112491
597.796955	0.112312
598.007185	0.112349
598.217396	0.112350
598.427589	0.112400
598.637764	0.112726
598.847921	0.112560
599.058060	0.112692
599.268180	0.112808
599.478282	0.113092
599.688366	0.113239
599.898431	0.113336
600.108479	0.113157
600.318508	0.113147
600.528519	0.113483
600.738511	0.113373
600.948486	0.113478
601.158442	0.113426
601.368380	0.113478
601.578300	0.113522
601.788202	0.113488
601.998085	0.113861
602.207950	0.113845
602.417797	0.113925
602.627626	0.114215
602.837436	0.114403
603.047228	0.114799
603.257002	0.115092
603.466758	0.115262
603.676496	0.115643
603.886215	0.115508
604.095916	0.115672
604.305599	0.115722
604.515264	0.115752
604.724910	0.115743
604.934538	0.115796
605.144148	0.115792
605.353740	0.115784
605.563314	0.115839
605.772869	0.115815
605.982406	0.115774
606.191925	0.115567
606.401425	0.115394
606.610908	0.115477
606.820372	0.114895
607.029818	0.114438
607.239246	0.114168
607.448655	0.113737
607.658047	0.113640
607.867420	0.113537
608.076775	0.113735
608.286111	0.114011
608.495430	0.113898
608.704730	0.114013
608.914012	0.114433
609.123275	0.114669
609.332521	0.114941
609.541748	0.115300
609.750957	0.115539
609.960148	0.115754
610.169321	0.115661
610.378475	0.115783
610.587611	0.116015
610.796729	0.115919
611.005829	0.116056
611.214910	0.116353
611.423974	0.116313
611.633019	0.116387
611.842045	0.116347
612.051054	0.116511
612.260044	0.116475
612.469017	0.116572
612.677970	0.116582
612.886906	0.116649
613.095824	0.116452
613.304723	0.116454
613.513604	0.116299
613.722467	0.116277
613.931311	0.116298
614.140138	0.116119
614.348946	0.116251
614.557736	0.116073
614.766507	0.115859
614.975261	0.115828
615.183996	0.115781
615.392713	0.116164
615.601412	0.116477
615.810092	0.116469
616.018754	0.116618
616.227399	0.116467
616.436024	0.116769
616.644632	0.116901
616.853222	0.117037
617.061793	0.117079
617.270346	0.116855
617.478880	0.116581
617.687397	0.116364
617.895895	0.116433
618.104375	0.116839
618.312837	0.117019
618.521281	0.117281
618.729706	0.117286
618.938113	0.117329
619.146502	0.117407
619.354873	0.117459
619.563226	0.117863
619.771560	0.117964
619.979876	0.117710
620.188174	0.117841
620.396453	0.117986
620.604715	0.118243
620.812958	0.118610
621.021183	0.118755
621.229390	0.119403
621.437578	0.119644
621.645748	0.120033
621.853900	0.120337
622.062034	0.120268
622.270150	0.120169
622.478247	0.120356
622.686326	0.120362
622.894387	0.120398
623.102430	0.120009
623.310454	0.119822
623.518461	0.119587
623.726449	0.119617
623.934418	0.119689
624.142370	0.119692
624.350303	0.119500
624.558218	0.119579
624.766115	0.119732
624.973994	0.119630
625.181855	0.119631
625.389697	0.119974
625.597521	0.119849
625.805327	0.119853
626.013114	0.119944
626.220883	0.120046
626.428634	0.119893
626.636367	0.119887
626.844082	0.120166
627.051778	0.120197
627.259457	0.120181
627.467117	0.120309
627.674758	0.120312
627.882382	0.120399
628.089987	0.120592
628.297574	0.120816
628.505143	0.121222
628.712694	0.121566
628.920226	0.121680
629.127740	0.121641
629.335236	0.121923
629.542714	0.122142
629.750174	0.122313
629.957615	0.122396
630.165038	0.122419
630.372443	0.122340
630.579829	0.122250
630.787198	0.122547
630.994548	0.122586
631.201880	0.122476
631.409194	0.122649
631.616489	0.122642
631.823766	0.122606
632.031025	0.122621
632.238266	0.122734
632.445489	0.122775
632.652693	0.122842
632.859879	0.122926
633.067047	0.123305
633.274197	0.123470
633.481329	0.123349
633.688442	0.123540
633.895537	0.123831
634.102614	0.123696
634.309672	0.123897
634.516713	0.123787
634.723735	0.123956
634.930739	0.123810
635.137724	0.123763
635.344692	0.124328
635.551641	0.124402
635.758572	0.124440
635.965485	0.124647
636.172379	0.124644
636.379256	0.124882
636.586114	0.124887
636.792954	0.124827
636.999775	0.124740
637.206579	0.124615
637.413364	0.124626
637.620131	0.124619
637.826880	0.124589
638.033610	0.124666
638.240323	0.124733
638.447017	0.124652
638.653692	0.124863
638.860350	0.125159
639.066990	0.125221
639.273611	0.125363
639.480214	0.125394
639.686798	0.125579
639.893365	0.125819
640.099913	0.125920
640.306443	0.126218
640.512955	0.126524
640.719449	0.126433
640.925924	0.126466
641.132381	0.126581
641.338820	0.126869
641.545241	0.127138
641.751644	0.126975
641.958028	0.126924
642.164394	0.126943
642.370742	0.126964
642.577071	0.127099
642.783383	0.127273
642.989676	0.127342
643.195951	0.127310
643.402207	0.126988
643.608446	0.127259
643.814666	0.127511
644.020868	0.127716
644.227052	0.127628
644.433218	0.127882
644.639365	0.128103
644.845494	0.128318
645.051605	0.128595
645.257698	0.128958
645.463772	0.128932
645.669828	0.128945
645.875866	0.128926
646.081886	0.129023
646.287888	0.128816
646.493871	0.128349
646.699836	0.127995
646.905783	0.127848
647.111712	0.127631
647.317622	0.127652
647.523514	0.127644
647.729388	0.127892
647.935244	0.127939
648.141082	0.128193
648.346901	0.128675
648.552702	0.129142
648.758485	0.129406
648.964250	0.130005
649.169996	0.130193
649.375724	0.130525
649.581434	0.130724
649.787126	0.131054
649.992800	0.131338
650.198455	0.131556
650.404092	0.131616
650.609711	0.131721
650.815311	0.131640
651.020894	0.131719
651.226458	0.131888
651.432004	0.131978
651.637532	0.131934
651.843041	0.132011
652.048532	0.132057
652.254006	0.132157
652.459460	0.132097
652.664897	0.132082
652.870315	0.132312
653.075716	0.132259
653.281097	0.132459
653.486461	0.132622
653.691807	0.132673
653.897134	0.132918
654.102443	0.132835
654.307734	0.133257
654.513006	0.133586
654.718261	0.133556
654.923497	0.134071
655.128715	0.133956
655.333915	0.134052
655.539096	0.134318
655.744259	0.134351
655.949404	0.134790
656.154531	0.134630
656.359640	0.134567
656.564730	0.134756
656.769802	0.134436
656.974856	0.134567
657.179892	0.134545
657.384909	0.134447
657.589908	0.134457
657.794889	0.134324
657.999852	0.134405
658.204797	0.134575
658.409723	0.134776
658.614631	0.134777
658.819521	0.134776
659.024393	0.135014
659.229246	0.134963
659.434081	0.135039
659.638898	0.134944
659.843697	0.135081
660.048478	0.135026
660.253240	0.134870
660.457984	0.135137
660.662710	0.135166
660.867417	0.135112
661.072107	0.135127
661.276778	0.135085
661.481431	0.135198
661.686066	0.135267
661.890682	0.135077
662.095281	0.135333
662.299861	0.135336
662.504422	0.135608
662.708966	0.135585
662.913491	0.135695
663.117999	0.135726
663.322488	0.135841
663.526958	0.135833
663.731411	0.136309
663.935845	0.136204
664.140261	0.136113
664.344659	0.135916
664.549038	0.136038
664.753400	0.136165
664.957743	0.136247
665.162068	0.136384
665.366375	0.136465
665.570663	0.136520
665.774933	0.136785
665.979185	0.137025
666.183419	0.137577
666.387635	0.137891
666.591832	0.138210
666.796011	0.138463
667.000172	0.138748
667.204315	0.138794
667.408439	0.138937
667.612545	0.138800
667.816634	0.138778
668.020703	0.138483
668.224755	0.138347
668.428788	0.138137
668.632803	0.138280
668.836800	0.138166
669.040779	0.138499
669.244739	0.138312
669.448681	0.138497
669.652605	0.138798
669.856511	0.138985
670.060399	0.139210
670.264268	0.139577
670.468119	0.139615
670.671952	0.139892
670.875767	0.139938
671.079563	0.140429
671.283341	0.140649
671.487101	0.140648
671.690843	0.140805
671.894567	0.141053
672.098272	0.141244
672.301959	0.141271
672.505628	0.141178
672.709278	0.141380
672.912911	0.141282
673.116525	0.141410
673.320121	0.141551
673.523699	0.141663
673.727258	0.141928
673.930799	0.141876
674.134322	0.142132
674.337827	0.142334
674.541314	0.142210
674.744782	0.142358
674.948232	0.142337
675.151664	0.142216
675.355078	0.142373
675.558474	0.142092
675.761851	0.142349
675.965210	0.142356
676.168551	0.142273
676.371873	0.142421
676.575178	0.142464
676.778464	0.142642
676.981732	0.143018
677.184981	0.142935
677.388213	0.143111
677.591426	0.143188
677.794621	0.143340
677.997798	0.143664
678.200956	0.143818
678.404097	0.143990
678.607219	0.143843
678.810323	0.143944
679.013408	0.144102
679.216476	0.144263
679.419525	0.144392
679.622556	0.144375
679.825569	0.144464
680.028563	0.144563
680.231540	0.144552
680.434498	0.144811
680.637438	0.144921
680.840359	0.144993
681.043263	0.144962
681.246148	0.144846
681.449015	0.144978
681.651864	0.145070
681.854694	0.145139
682.057506	0.145324
682.260301	0.145573
682.463076	0.145559
682.665834	0.145386
682.868573	0.145509
683.071295	0.145464
683.273998	0.145615
683.476682	0.145720
683.679349	0.145690
683.881997	0.145716
684.084627	0.145804
684.287239	0.145759
684.489833	0.146180
684.692408	0.146068
684.894965	0.146098
685.097504	0.146069
685.300025	0.146116
685.502527	0.146482
685.705012	0.146510
685.907478	0.146370
686.109925	0.146532
686.312355	0.146635
686.514766	0.146842
686.717159	0.146952
686.919534	0.147060
687.121891	0.147235
687.324230	0.147405
687.526550	0.147533
687.728852	0.147792
687.931136	0.148009
688.133401	0.148078
688.335649	0.148203
688.537878	0.148477
688.740089	0.148741
688.942281	0.148885
689.144456	0.148895
689.346612	0.149008
689.548750	0.149062
689.750870	0.149171
689.952971	0.149348
690.155055	0.149738
690.357120	0.149836
690.559167	0.149822
690.761195	0.149866
690.963206	0.150051
691.165198	0.150394
691.367172	0.150645
691.569128	0.150895
691.771065	0.151106
691.972984	0.151220
692.174885	0.151516
692.376768	0.151998
692.578633	0.152408
692.780479	0.152499
692.982308	0.152630
693.184118	0.152773
693.385909	0.152623
693.587683	0.152698
693.789438	0.152819
693.991175	0.152803
694.192894	0.152838
694.394595	0.152600
694.596277	0.152543
694.797941	0.152438
694.999587	0.152321
695.201215	0.152479
695.402824	0.152454
695.604416	0.152240
695.805989	0.152399
696.007543	0.152114
696.209080	0.152135
696.410598	0.152147
696.612099	0.152177
696.813580	0.152323
697.015044	0.152395
697.216490	0.152354
697.417917	0.152578
697.619326	0.152289
697.820717	0.152581
698.022089	0.152688
698.223444	0.152955
698.424780	0.153062
698.626098	0.153257
698.827397	0.153230
699.028679	0.153257
699.229942	0.153216
699.431187	0.153656
699.632414	0.153845
699.833622	0.153884
700.034813	0.153954
700.235985	0.154288
700.437139	0.154368
700.638274	0.154705
700.839392	0.155040
701.040491	0.155382
701.241572	0.155378
701.442635	0.155287
701.643679	0.155494
701.844706	0.155437
702.045714	0.155212
702.246704	0.155162
702.447675	0.155136
702.648629	0.154952
702.849564	0.154598
703.050481	0.154518
703.251380	0.154382
703.452260	0.154259
703.653122	0.154108
703.853966	0.154134
704.054792	0.153902
704.255600	0.153669
704.456389	0.153377
704.657160	0.153496
704.857913	0.153499
705.058648	0.153455
705.259365	0.153436
705.460063	0.153520
705.660743	0.153393
705.861405	0.153593
706.062048	0.153638
706.262674	0.154014
706.463281	0.154180
706.663870	0.154339
706.864441	0.154633
707.064993	0.154894
707.265527	0.155238
707.466043	0.155500
707.666541	0.155544
707.867021	0.155902
708.067482	0.155917
708.267925	0.155980
708.468350	0.156002
708.668757	0.155946
708.869145	0.155842
709.069516	0.155567
709.269868	0.155387
709.470201	0.155294
709.670517	0.154882
709.870814	0.155023
710.071093	0.154947
710.271354	0.154814
710.471597	0.154620
710.671821	0.154599
710.872028	0.154680
711.072216	0.154801
711.272385	0.154823
711.472537	0.155258
711.672670	0.155085
711.872785	0.155065
712.072882	0.155048
712.272961	0.155217
712.473021	0.155152
712.673063	0.154939
712.873087	0.154985
713.073093	0.155051
713.273081	0.154817
713.473050	0.154837
713.673001	0.154576
713.872934	0.154695
714.072849	0.154690
714.272745	0.154892
714.472623	0.155163
714.672483	0.155075
714.872325	0.155136
715.072148	0.154953
715.271954	0.155039
715.471741	0.155478
715.671509	0.155536
715.871260	0.155522
716.070992	0.155360
716.270707	0.155331
716.470403	0.155289
716.670080	0.155096
716.869740	0.155402
717.069381	0.155456
717.269004	0.155197
717.468609	0.155037
717.668195	0.155030
717.867764	0.155116
718.067314	0.155156
718.266846	0.155464
718.466360	0.155830
718.665855	0.155988
718.865332	0.155979
719.064791	0.156317
719.264232	0.156630
719.463655	0.156864
719.663059	0.156965
719.862445	0.157024
720.061813	0.157054
720.261163	0.157041
720.460494	0.157102
720.659807	0.157316
720.859102	0.157277
721.058379	0.157143
721.257638	0.156976
721.456878	0.157154
721.656100	0.157195
721.855304	0.157138
722.054490	0.156945
722.253657	0.157059
722.452806	0.157083
722.651937	0.157083
722.851050	0.157317
723.050145	0.157592
723.249221	0.157465
723.448279	0.157665
723.647319	0.157704
723.846340	0.157653
724.045344	0.157515
724.244329	0.157475
724.443296	0.157597
724.642245	0.157598
724.841175	0.157516
725.040088	0.157466
725.238982	0.157214
725.437857	0.157240
725.636715	0.157426
725.835554	0.157452
726.034376	0.157408
726.233179	0.157232
726.431963	0.156971
726.630730	0.156911
726.829478	0.156863
727.028208	0.156939
727.226920	0.156825
727.425614	0.156781
727.624289	0.156438
727.822946	0.156362
728.021585	0.156120
728.220206	0.156116
728.418808	0.155888
728.617392	0.155948
728.815958	0.155648
729.014506	0.155436
729.213036	0.155193
729.411547	0.155120
729.610040	0.155015
729.808515	0.155114
730.006972	0.154828
730.205410	0.154785
730.403831	0.154536
730.602233	0.154572
730.800616	0.154257
730.998982	0.154237
731.197329	0.154039
731.395658	0.153908
731.593969	0.153733
731.792262	0.153840
731.990536	0.153606
732.188793	0.153578
732.387031	0.153591
732.585250	0.153811
732.783452	0.153807
732.981635	0.153683
733.179800	0.153556
733.377947	0.153616
733.576076	0.153531
733.774186	0.153679
733.972278	0.153783
734.170352	0.153737
734.368408	0.153650
734.566446	0.153602
734.764465	0.153778
734.962466	0.153767
735.160449	0.153590
735.358413	0.153610
735.556360	0.153497
735.754288	0.153218
735.952198	0.153026
736.150090	0.152962
736.347963	0.152848
736.545818	0.152875
736.743655	0.153096
736.941474	0.153168
737.139275	0.153305
737.337057	0.153321
737.534821	0.153326
737.732567	0.153528
737.930295	0.153547
738.128005	0.153390
738.325696	0.153241
738.523369	0.152811
738.721024	0.152892
738.918660	0.152740
739.116279	0.152865
739.313879	0.152878
739.511461	0.152434
739.709024	0.152360
739.906570	0.152502
740.104097	0.152529
740.301606	0.152519
740.499097	0.152426
740.696569	0.152192
740.894024	0.152079
741.091460	0.151963
741.288878	0.152198
741.486277	0.152192
741.683659	0.152002
741.881022	0.151814
742.078367	0.151679
742.275694	0.151415
742.473002	0.151565
742.670293	0.151328
742.867565	0.151561
743.064819	0.151373
743.262054	0.151383
743.459272	0.151486
743.656471	0.151512
743.853652	0.151560
744.050815	0.151586
744.247959	0.151540
744.445085	0.151646
744.642194	0.151265
744.839283	0.151276
745.036355	0.151553
745.233408	0.151686
745.430444	0.151685
745.627461	0.151872
745.824459	0.152055
746.021440	0.152282
746.218402	0.152389
746.415346	0.152709
746.612272	0.152883
746.809180	0.152693
747.006069	0.152537
747.202940	0.152843
747.399793	0.152873
747.596628	0.152846
747.793444	0.152663
747.990243	0.152486
748.187023	0.152048
748.383784	0.151712
748.580528	0.151472
748.777253	0.151396
748.973960	0.150957
749.170649	0.150930
749.367320	0.150657
749.563973	0.150408
749.760607	0.150084
749.957223	0.150483
750.153821	0.150533
750.350400	0.150500
750.546962	0.150304
750.743505	0.150283
750.940030	0.150010
751.136536	0.150217
751.333025	0.150383
751.529495	0.150595
751.725947	0.150235
751.922381	0.150280
752.118796	0.150144
752.315194	0.150318
752.511573	0.150358
752.707934	0.150402
752.904276	0.150291
753.100601	0.149974
753.296907	0.149970
753.493195	0.149850
753.689465	0.149601
753.885716	0.149624
754.081949	0.149563
754.278164	0.149639
754.474361	0.149612
754.670540	0.149311
754.866700	0.149335
755.062843	0.149174
755.258967	0.149138
755.455072	0.149197
755.651160	0.149152
755.847229	0.148924
756.043280	0.148418
756.239313	0.148106
756.435328	0.147969
756.631324	0.147762
756.827302	0.147550
757.023262	0.147454
757.219204	0.147321
757.415127	0.147099
757.611033	0.147021
757.806920	0.147206
758.002788	0.147164
758.198639	0.147322
758.394471	0.147301
758.590286	0.147315
758.786081	0.147094
758.981859	0.146965
759.177619	0.147116
759.373360	0.147115
759.569083	0.147248
759.764788	0.147474
759.960474	0.147514
760.156143	0.147546
760.351793	0.147583
760.547425	0.148075
760.743038	0.148191
760.938634	0.148409
761.134211	0.148643
761.329770	0.148482
761.525311	0.148408
761.720833	0.148522
761.916338	0.148634
762.111824	0.148702
762.307292	0.148378
762.502741	0.148391
762.698173	0.148132
762.893586	0.148136
763.088981	0.148228
763.284358	0.148084
763.479716	0.147834
763.675057	0.147685
763.870379	0.147624
764.065683	0.147687
764.260968	0.147632
764.456236	0.147634
764.651485	0.147358
764.846716	0.147418
765.041929	0.147541
765.237123	0.147565
765.432299	0.147412
765.627457	0.147427
765.822597	0.147431
766.017719	0.147330
766.212822	0.147099
766.407907	0.147495
766.602974	0.147502
766.798023	0.147490
766.993054	0.147557
767.188066	0.147967
767.383060	0.148071
767.578036	0.148267
767.772993	0.148305
767.967933	0.148517
768.162854	0.148101
768.357757	0.148030
768.552642	0.147846
768.747508	0.147794
768.942356	0.147696
769.137186	0.147704
769.331998	0.147392
769.526792	0.147468
769.721567	0.147565
769.916324	0.147657
770.111063	0.147721
770.305784	0.147999
770.500486	0.148028
770.695171	0.147772
770.889837	0.147624
771.084484	0.147858
771.279114	0.147703
771.473725	0.147749
771.668318	0.147876
771.862893	0.147838
772.057450	0.147825
772.251988	0.147628
772.446509	0.147760
772.641011	0.147664
772.835494	0.147259
773.029960	0.147590
773.224407	0.147302
773.418836	0.147068
773.613247	0.146666
773.807640	0.146526
774.002014	0.146536
774.196370	0.146383
774.390708	0.146328
774.585028	0.146307
774.779330	0.145819
774.973613	0.145692
775.167878	0.145737
775.362125	0.145991
775.556354	0.146142
775.750564	0.146202
775.944756	0.146359
776.138930	0.146513
776.333086	0.146958
776.527223	0.147369
776.721343	0.147759
776.915444	0.148132
777.109526	0.148243
777.303591	0.148239
777.497637	0.148312
777.691666	0.148511
777.885676	0.148733
778.079667	0.148380
778.273641	0.148380
778.467596	0.148539
778.661533	0.148287
778.855452	0.148312
779.049352	0.148138
779.243235	0.148108
779.437099	0.148162
779.630945	0.147966
779.824773	0.148426
780.018582	0.148657
780.212373	0.148463
780.406146	0.148587
780.599901	0.148767
780.793638	0.149099
780.987356	0.149636
781.181056	0.149752
781.374738	0.149910
781.568402	0.150053
781.762047	0.150127
781.955674	0.150434
782.149283	0.150522
782.342874	0.150663
782.536447	0.150792
782.730001	0.150499
782.923537	0.150434
783.117055	0.150725
783.310555	0.150646
783.504036	0.150748
783.697499	0.150461
783.890944	0.150440
784.084371	0.150182
784.277780	0.150054
784.471170	0.150339
784.664542	0.150227
784.857896	0.150034
785.051231	0.150126
785.244549	0.149857
785.437848	0.150077
785.631129	0.149903
785.824392	0.149854
786.017636	0.149967
786.210863	0.149858
786.404071	0.149914
786.597260	0.150047
786.790432	0.149915
786.983585	0.149988
787.176721	0.149952
787.369838	0.150349
787.562936	0.150539
787.756017	0.150570
787.949079	0.150503
788.142123	0.150757
788.335149	0.150536
788.528156	0.150639
788.721146	0.150645
788.914117	0.150709
789.107070	0.150566
789.300005	0.150786
789.492921	0.150937
789.685819	0.151079
789.878699	0.151017
790.071561	0.151317
790.264405	0.151387
790.457230	0.151706
790.650037	0.151726
790.842826	0.152088
791.035597	0.151938
791.228349	0.151980
791.421084	0.151982
791.613800	0.152167
791.806497	0.152228
791.999177	0.152270
792.191838	0.152122
792.384481	0.152144
792.577106	0.152026
792.769713	0.152043
792.962301	0.151895
793.154871	0.152069
793.347423	0.151813
793.539957	0.151516
793.732473	0.151462
793.924970	0.151397
794.117449	0.151319
794.309910	0.151036
794.502353	0.151113
794.694777	0.151125
794.887183	0.150996
795.079571	0.151132
795.271941	0.151653
795.464293	0.151898
795.656626	0.152310
795.848941	0.152678
796.041238	0.153169
796.233516	0.153523
796.425777	0.153722
796.618019	0.154156
796.810243	0.154625
797.002449	0.154869
797.194636	0.155092
797.386805	0.155221
797.578956	0.155208
797.771089	0.155191
797.963204	0.155145
798.155300	0.155324
798.347378	0.155077
798.539438	0.155104
798.731480	0.155006
798.923503	0.155054
799.115509	0.154694
799.307496	0.154834
799.499465	0.154752
799.691415	0.154802
799.883348	0.154755
800.075262	0.154926
800.267158	0.154680
800.459035	0.154603
800.650895	0.154407
800.842736	0.154559
801.034559	0.154539
801.226364	0.155022
801.418150	0.155289
801.609919	0.155463
801.801669	0.155436
801.993401	0.155789
802.185114	0.156070
802.376810	0.156489
802.568487	0.156857
802.760146	0.157241
802.951787	0.157170
803.143409	0.157292
803.335014	0.157586
803.526600	0.157935
803.718168	0.158131
803.909717	0.158175
804.101249	0.158447
804.292762	0.158658
804.484257	0.158888
804.675734	0.159073
804.867192	0.159284
805.058632	0.159279
805.250054	0.159422
805.441458	0.159495
805.632844	0.159846
805.824211	0.159921
806.015561	0.160129
806.206891	0.160059
806.398204	0.160060
806.589499	0.160013
806.780775	0.160140
806.972033	0.160349
807.163273	0.160552
807.354495	0.160756
807.545698	0.160636
807.736883	0.160861
807.928050	0.161076
808.119199	0.161347
808.310329	0.161761
808.501441	0.162075
808.692535	0.162115
808.883611	0.162342
809.074669	0.162372
809.265708	0.162667
809.456729	0.162620
809.647732	0.162694
809.838717	0.162882
810.029683	0.163028
810.220632	0.163319
810.411562	0.163463
810.602474	0.163434
810.793367	0.163373
810.984242	0.163521
811.175100	0.163734
811.365938	0.164014
811.556759	0.164356
811.747562	0.164487
811.938346	0.164521
812.129112	0.164822
812.319860	0.165071
812.510589	0.165430
812.701300	0.165559
812.891994	0.165779
813.082668	0.165898
813.273325	0.165904
813.463964	0.165984
813.654584	0.165854
813.845186	0.166053
814.035769	0.166087
814.226335	0.166160
814.416882	0.166510
814.607411	0.166458
814.797922	0.166720
814.988415	0.166876
815.178889	0.166890
815.369345	0.167171
815.559783	0.167131
815.750203	0.167390
815.940605	0.167480
816.130988	0.167337
816.321353	0.167304
816.511700	0.167201
816.702028	0.166965
816.892339	0.167125
817.082631	0.167045
817.272905	0.166843
817.463161	0.166662
817.653398	0.166518
817.843617	0.166340
818.033819	0.166232
818.224001	0.166292
818.414166	0.166442
818.604312	0.166374
818.794440	0.166532
818.984550	0.166716
819.174642	0.166874
819.364716	0.167084
819.554771	0.167584
819.744808	0.168071
819.934827	0.168127
820.124827	0.168345
820.314810	0.168592
820.504774	0.168812
820.694720	0.169118
820.884647	0.169142
821.074557	0.169354
821.264448	0.169395
821.454321	0.169624
821.644176	0.169820
821.834012	0.170097
822.023831	0.170326
822.213631	0.170629
822.403413	0.170983
822.593176	0.171361
822.782922	0.171800
822.972649	0.172162
823.162358	0.172549
823.352049	0.172984
823.541721	0.173440
823.731376	0.173888
823.921012	0.174019
824.110629	0.174261
824.300229	0.174788
824.489811	0.175058
824.679374	0.175370
824.868919	0.175705
825.058445	0.175946
825.247954	0.176163
825.437444	0.176256
825.626916	0.176795
825.816370	0.177048
826.005806	0.177001
826.195223	0.177248
826.384622	0.177532
826.574003	0.177707
826.763366	0.177747
826.952711	0.177753
827.142037	0.177851
827.331345	0.178055
827.520635	0.178111
827.709906	0.178477
827.899160	0.178776
828.088395	0.179053
828.277612	0.179171
828.466810	0.179643
828.655991	0.180121
828.845153	0.180652
829.034297	0.180599
829.223423	0.181043
829.412531	0.181440
829.601620	0.181538
829.790691	0.181109
829.979744	0.181200
830.168779	0.181420
830.357795	0.181404
830.546793	0.181329
830.735773	0.181768
830.924735	0.181640
831.113679	0.181479
831.302604	0.181346
831.491511	0.181697
831.680400	0.181829
831.869271	0.181565
832.058123	0.181675
832.246957	0.181703
832.435773	0.181617
832.624571	0.181824
832.813351	0.181908
833.002112	0.182115
833.190855	0.182476
833.379580	0.182602
833.568287	0.182876
833.756975	0.183094
833.945645	0.183614
834.134297	0.183678
834.322931	0.184163
834.511547	0.184784
834.700144	0.185334
834.888723	0.185556
835.077284	0.186089
835.265826	0.186541
835.454351	0.186652
835.642857	0.186653
835.831345	0.186989
836.019815	0.187312
836.208266	0.187256
836.396699	0.187448
836.585114	0.187897
836.773511	0.187950
836.961890	0.188006
837.150250	0.188419
837.338592	0.188745
837.526916	0.189037
837.715222	0.189076
837.903510	0.189652
838.091779	0.189906
838.280030	0.190163
838.468263	0.190578
838.656477	0.191184
838.844674	0.191475
839.032852	0.191849
839.221012	0.192420
839.409153	0.192644
839.597277	0.192707
839.785382	0.192874
839.973469	0.192814
840.161538	0.193018
840.349589	0.193279
840.537621	0.193401
840.725635	0.193599
840.913631	0.194022
841.101609	0.194633
841.289568	0.195127
841.477509	0.195512
841.665432	0.196107
841.853337	0.196437
842.041224	0.196584
842.229092	0.196977
842.416942	0.197436
842.604774	0.197302
842.792588	0.197338
842.980383	0.197398
843.168160	0.197415
843.355919	0.197415
843.543660	0.197423
843.731382	0.197659
843.919087	0.197830
844.106773	0.197997
844.294441	0.198408
844.482090	0.198889
844.669722	0.199462
844.857335	0.200044
845.044930	0.200666
845.232507	0.201163
845.420065	0.201527
845.607605	0.201712
845.795127	0.202133
845.982631	0.202342
846.170117	0.202248
846.357584	0.202107
846.545033	0.202175
846.732464	0.202084
846.919877	0.202217
847.107272	0.202304
847.294648	0.202701
847.482006	0.202618
847.669346	0.202847
847.856667	0.203278
848.043971	0.203370
848.231256	0.203630
848.418523	0.203926
848.605771	0.203900
848.793002	0.204190
848.980214	0.204355
849.167408	0.204914
849.354584	0.205270
849.541742	0.205196
849.728881	0.205462
849.916002	0.205550
850.103105	0.205569
850.290190	0.206296
850.477256	0.206548
850.664304	0.206859
850.851334	0.206464
851.038346	0.206502
851.225340	0.206619
851.412315	0.206871
851.599272	0.207051
851.786211	0.207142
851.973132	0.206879
852.160034	0.206993
852.346918	0.206979
852.533784	0.207404
852.720632	0.207384
852.907462	0.207918
853.094273	0.207851
853.281066	0.207631
853.467841	0.207962
853.654598	0.208120
853.841336	0.208244
854.028056	0.208218
854.214758	0.208270
854.401442	0.208550
854.588107	0.208614
854.774755	0.209083
854.961384	0.209922
855.147995	0.210012
855.334587	0.210365
855.521162	0.210607
855.707718	0.211472
855.894256	0.212010
856.080775	0.212402
856.267277	0.212595
856.453760	0.212643
856.640225	0.212962
856.826672	0.213545
857.013101	0.213811
857.199511	0.213948
857.385903	0.213954
857.572277	0.214258
857.758633	0.214839
857.944970	0.215107
858.131290	0.215647
858.317591	0.215473
858.503873	0.216074
858.690138	0.216109
858.876384	0.216496
859.062612	0.216750
859.248822	0.216791
859.435014	0.216528
859.621188	0.217229
859.807343	0.217469
859.993480	0.218076
860.179599	0.218116
860.365699	0.218531
860.551781	0.218911
860.737846	0.219038
860.923891	0.219619
861.109919	0.219976
861.295929	0.219939
861.481920	0.220137
861.667893	0.220225
861.853848	0.219885
862.039784	0.220233
862.225702	0.220240
862.411603	0.220639
862.597484	0.220442
862.783348	0.220647
862.969193	0.220360
863.155021	0.220488
863.340830	0.220473
863.526620	0.221102
863.712393	0.221286
863.898147	0.221550
864.083883	0.221693
864.269601	0.222036
864.455301	0.222262
864.640982	0.222810
864.826645	0.222977
865.012290	0.222946
865.197917	0.223100
865.383526	0.223091
865.569116	0.223401
865.754688	0.223224
865.940242	0.222754
866.125777	0.222564
866.311295	0.222172
866.496794	0.222236
866.682275	0.222720
866.867737	0.222971
867.053182	0.222729
867.238608	0.222511
867.424016	0.222939
867.609406	0.223441
867.794778	0.223901
867.980131	0.224328
868.165466	0.224300
868.350783	0.224173
868.536082	0.223908
868.721362	0.224152
868.906625	0.224474
869.091869	0.224798
869.277094	0.225063
869.462302	0.225176
869.647491	0.225634
869.832662	0.226319
870.017815	0.226947
870.202950	0.227446
870.388066	0.227931
870.573165	0.228170
870.758245	0.228051
870.943306	0.228156
871.128350	0.228363
871.313375	0.228096
871.498382	0.228328
871.683371	0.228427
871.868342	0.228551
872.053294	0.228808
872.238229	0.228933
872.423144	0.229412
872.608042	0.229858
872.792922	0.229562
872.977783	0.229980
873.162626	0.229731
873.347451	0.229979
873.532258	0.230117
873.717046	0.230542
873.901816	0.230520
874.086568	0.230695
874.271302	0.230491
874.456017	0.230963
874.640715	0.231168
874.825394	0.231277
875.010055	0.231157
875.194697	0.231540
875.379322	0.231425
875.563928	0.231486
875.748516	0.231625
875.933085	0.232153
876.117637	0.232316
876.302170	0.232836
876.486685	0.233480
876.671182	0.233964
876.855661	0.233855
877.040121	0.234114
877.224563	0.234875
877.408987	0.234881
877.593393	0.235020
877.777780	0.235189
877.962150	0.235139
878.146501	0.234856
878.330833	0.234731
878.515148	0.234862
878.699444	0.234769
878.883722	0.234552
879.067982	0.234741
879.252224	0.234547
879.436447	0.235103
879.620653	0.234958
879.804840	0.235049
879.989008	0.235332
880.173159	0.235420
880.357291	0.235917
880.541405	0.236177
880.725501	0.235970
880.909579	0.235933
881.093638	0.235691
881.277680	0.235533
881.461703	0.235512
881.645707	0.235625
881.829694	0.235438
882.013662	0.235291
882.197612	0.235175
882.381544	0.235186
882.565458	0.235564
882.749353	0.235333
882.933230	0.235522
883.117089	0.235891
883.300930	0.235354
883.484753	0.235298
883.668557	0.234834
883.852343	0.234744
884.036111	0.234587
884.219861	0.234224
884.403592	0.234006
884.587305	0.234052
884.771000	0.234016
884.954677	0.234446
885.138335	0.234535
885.321976	0.234574
885.505598	0.234453
885.689201	0.234525
885.872787	0.234312
886.056354	0.234545
886.239904	0.234591
886.423434	0.234489
886.606947	0.234272
886.790442	0.234077
886.973918	0.234540
887.157376	0.234810
887.340816	0.234799
887.524237	0.235122
887.707641	0.234854
887.891026	0.234797
888.074393	0.234598
888.257741	0.234697
888.441072	0.234913
888.624384	0.234904
888.807678	0.234780
888.990954	0.234899
889.174211	0.235292
889.357451	0.235724
889.540672	0.235874
889.723875	0.235948
889.907059	0.235900
890.090226	0.236245
890.273374	0.236017
890.456504	0.236197
890.639616	0.236461
890.822709	0.236084
891.005785	0.235663
891.188842	0.235775
891.371881	0.235580
891.554901	0.235707
891.737904	0.235521
891.920888	0.235397
892.103854	0.235262
892.286802	0.235185
892.469731	0.235060
892.652643	0.235524
892.835536	0.235308
893.018410	0.235894
893.201267	0.235820
893.384106	0.235937
893.566926	0.236267
893.749728	0.236245
893.932511	0.236374
894.115277	0.236599
894.298024	0.237010
894.480753	0.237189
894.663464	0.237536
894.846157	0.237841
895.028831	0.237784
895.211487	0.237765
895.394125	0.237727
895.576745	0.237453
895.759346	0.237496
895.941930	0.236838
896.124495	0.236708
896.307041	0.235536
896.489570	0.235317
896.672080	0.235179
896.854573	0.234914
897.037046	0.234953
897.219502	0.235133
897.401940	0.235385
897.584359	0.235206
897.766760	0.235163
897.949143	0.235728
898.131507	0.235646
898.313854	0.235654
898.496182	0.235559
898.678492	0.235469
898.860783	0.234842
899.043057	0.234143
899.225312	0.234318
899.407549	0.234402
899.589768	0.234146
899.771968	0.234140
899.954151	0.233897
900.136315	0.234005
900.318461	0.234429
900.500588	0.234939
900.682698	0.235277
900.864789	0.235051
901.046862	0.234897
901.228917	0.234856
901.410953	0.234358
901.592971	0.234038
901.774972	0.233576
901.956953	0.233014
902.138917	0.232459
902.320862	0.232046
902.502790	0.232290
902.684699	0.231831
902.866589	0.231612
903.048462	0.231535
903.230316	0.231790
903.412152	0.232097
903.593970	0.231728
903.775770	0.231819
903.957551	0.231721
904.139314	0.231520
904.321059	0.231791
904.502786	0.231741
904.684494	0.231638
904.866185	0.231252
905.047857	0.230932
905.229510	0.231186
905.411146	0.230768
905.592763	0.230623
905.774363	0.230422
905.955943	0.229462
906.137506	0.229272
906.319051	0.228989
906.500577	0.228903
906.682085	0.228775
906.863575	0.227752
907.045046	0.227428
907.226500	0.226674
907.407935	0.225847
907.589352	0.226027
907.770750	0.225840
907.952131	0.226055
908.133493	0.225918
908.314837	0.225390
908.496163	0.225791
908.677470	0.225628
908.858760	0.225971
909.040031	0.226243
909.221284	0.225445
909.402518	0.225219
909.583735	0.225021
909.764933	0.224909
909.946113	0.224659
910.127275	0.224245
910.308418	0.224138
910.489544	0.224292
910.670651	0.223791
910.851740	0.224446
911.032810	0.223971
911.213863	0.223558
911.394897	0.223394
911.575913	0.223056
911.756911	0.222934
911.937890	0.222773
912.118851	0.222123
912.299794	0.222134
912.480719	0.221274
912.661626	0.221150
912.842514	0.220583
913.023384	0.219514
913.204236	0.219353
913.385070	0.218700
913.565886	0.218262
913.746683	0.217992
913.927462	0.217676
914.108223	0.217411
914.288965	0.216558
914.469690	0.216288
914.650396	0.216291
914.831084	0.215824
915.011754	0.215848
915.192405	0.215930
915.373038	0.215897
915.553653	0.215564
915.734250	0.215978
915.914829	0.216161
916.095389	0.216484
916.275931	0.216005
916.456455	0.216093
916.636961	0.215800
916.817448	0.215187
916.997917	0.214666
917.178368	0.214024
917.358801	0.213186
917.539216	0.212726
917.719612	0.211963
917.899990	0.211869
918.080350	0.212125
918.260692	0.211869
918.441015	0.211853
918.621320	0.210942
918.801607	0.210729
918.981876	0.210757
919.162127	0.210697
919.342359	0.210230
919.522573	0.209987
919.702769	0.208788
919.882947	0.207947
920.063106	0.207487
920.243247	0.207087
920.423370	0.206692
920.603475	0.205617
920.783562	0.205107
920.963630	0.204443
921.143680	0.204081
921.323712	0.203375
921.503725	0.202917
921.683721	0.202188
921.863698	0.202175
922.043657	0.202001
922.223598	0.202226
922.403520	0.201292
922.583424	0.201324
922.763311	0.200728
922.943178	0.200705
923.123028	0.200674
923.302859	0.199925
923.482673	0.199567
923.662467	0.199348
923.842244	0.198414
924.022003	0.198302
924.201743	0.197919
924.381465	0.197667
924.561169	0.196972
924.740854	0.196811
924.920522	0.196803
925.100171	0.196401
925.279802	0.195463
925.459414	0.195153
925.639009	0.195064
925.818585	0.194293
925.998143	0.193670
926.177683	0.193651
926.357205	0.192470
926.536708	0.192502
926.716193	0.192433
926.895660	0.192259
927.075109	0.191957
927.254539	0.191503
927.433951	0.191828
927.613345	0.191730
927.792721	0.191306
927.972079	0.191163
928.151418	0.190333
928.330739	0.189562
928.510042	0.189039
928.689327	0.188555
928.868593	0.187919
929.047841	0.187228
929.227071	0.186256
929.406283	0.186064
929.585476	0.186340
929.764652	0.186341
929.943809	0.185979
930.122948	0.185402
930.302068	0.184759
930.481171	0.184199
930.660255	0.183919
930.839321	0.183756
931.018369	0.182344
931.197398	0.181055
931.376409	0.180734
931.555402	0.180736
931.734377	0.180806
931.913334	0.180998
932.092272	0.180368
932.271192	0.179071
932.450094	0.178980
932.628978	0.178799
932.807844	0.178344
932.986691	0.177695
933.165520	0.176429
933.344331	0.175637
933.523123	0.174649
933.701898	0.174192
933.880654	0.174250
934.059392	0.173175
934.238111	0.172621
934.416813	0.172462
934.595496	0.171530
934.774161	0.170708
934.952808	0.170016
935.131437	0.168905
935.310047	0.169326
935.488639	0.167976
935.667213	0.168244
935.845769	0.169000
936.024306	0.168564
936.202825	0.167740
936.381326	0.167861
936.559809	0.167544
936.738274	0.167169
936.916720	0.166489
937.095148	0.166160
937.273558	0.164984
937.451950	0.163484
937.630323	0.162490
937.808678	0.161741
937.987015	0.160551
938.165334	0.158984
938.343635	0.159422
938.521917	0.157279
938.700181	0.156393
938.878427	0.155007
939.056655	0.153870
939.234864	0.153369
939.413055	0.151909
939.591228	0.150686
939.769383	0.150462
939.947519	0.148987
940.125638	0.148419
940.303738	0.148608
940.481820	0.148727
940.659883	0.148518
940.837929	0.147103
941.015956	0.147747
941.193965	0.148324
941.371955	0.148201
941.549928	0.147672
941.727882	0.147669
941.905818	0.146950
942.083736	0.145534
942.261636	0.145615
942.439517	0.145813
942.617380	0.145824
942.795225	0.145448
942.973052	0.144195
943.150860	0.143694
943.328651	0.144064
943.506423	0.143273
943.684176	0.143280
943.861912	0.142709
944.039629	0.142552
944.217328	0.140910
944.395009	0.139906
944.572672	0.139868
944.750317	0.139150
944.927943	0.138413
945.105551	0.137628
945.283141	0.137601
945.460712	0.135878
945.638265	0.134861
945.815801	0.133667
945.993317	0.132786
946.170816	0.131749
946.348297	0.132006
946.525759	0.131597
946.703203	0.131590
946.880629	0.130262
947.058036	0.131100
947.235425	0.130662
947.412797	0.131361
947.590149	0.129905
947.767484	0.129432
947.944800	0.128230
948.122099	0.126857
948.299379	0.127252
948.476640	0.128045
948.653884	0.127205
948.831109	0.126518
949.008316	0.124919
949.185505	0.124162
949.362676	0.123615
949.539828	0.123281
949.716962	0.123073
949.894078	0.122008
950.071176	0.120666
950.248256	0.118576
950.425317	0.117517
950.602360	0.118031
950.779385	0.119537
950.956391	0.119530
951.133380	0.117226
951.310350	0.115008
951.487302	0.113523
951.664235	0.112938
951.841151	0.112612
952.018048	0.113287
952.194927	0.111203
952.371788	0.108846
952.548631	0.108630
952.725455	0.110118
952.902261	0.110761
953.079049	0.109976
953.255819	0.110612
953.432570	0.109747
953.609303	0.108636
953.786018	0.109022
953.962715	0.110363
954.139394	0.109767
954.316054	0.107057
954.492696	0.107579
954.669320	0.107735
954.845926	0.106799
955.022513	0.107849
955.199083	0.107729
955.375634	0.106997
955.552166	0.106984
955.728681	0.106717
955.905177	0.109224
956.081655	0.110995
956.258115	0.111129
956.434557	0.109308
956.610980	0.107303
956.787385	0.108222
956.963772	0.107735
957.140141	0.106306
957.316492	0.105916
957.492824	0.105880
957.669138	0.102123
957.845434	0.100544
958.021712	0.101899
958.197971	0.103467
958.374212	0.100380
958.550435	0.101456
958.726640	0.101323
958.902826	0.101457
959.078995	0.101161
959.255145	0.101236
959.431277	0.100587
959.607390	0.100245
959.783486	0.099417
959.959563	0.100516
960.135622	0.100498
960.311662	0.100625
960.487685	0.099089
960.663689	0.097414
960.839675	0.096975
961.015643	0.099072
961.191593	0.097682
961.367524	0.096877
961.543437	0.094775
961.719332	0.095743
961.895209	0.096298
962.071067	0.096619
962.246907	0.096075
962.422730	0.098302
962.598533	0.096837
962.774319	0.097119
962.950086	0.095273
963.125835	0.094632
963.301566	0.093019
963.477279	0.093360
963.652973	0.094139
963.828650	0.095472
964.004308	0.095138
964.179947	0.095320
964.355569	0.096401
964.531172	0.099382
964.706757	0.099516
964.882324	0.099919
965.057873	0.098550
965.233403	0.097482
965.408916	0.097133
965.584410	0.096087
965.759885	0.096760
965.935343	0.094412
966.110782	0.092133
966.286203	0.095709
966.461606	0.094972
966.636991	0.094659
966.812357	0.093938
966.987705	0.093231
967.163035	0.092417
967.338347	0.091782
967.513641	0.093354
967.688916	0.094979
967.864173	0.092107
968.039412	0.093653
968.214632	0.093942
968.389835	0.094875
968.565019	0.095363
968.740185	0.097277
968.915333	0.097427
969.090462	0.097704
969.265573	0.097466
969.440667	0.099856
969.615741	0.098373
969.790798	0.097812
969.965836	0.096605
970.140856	0.096956
970.315858	0.095421
970.490842	0.097411
970.665808	0.095300
970.840755	0.093784
971.015684	0.091125
971.190595	0.090348
971.365487	0.089312
971.540362	0.089553
971.715218	0.087898
971.890056	0.086474
972.064875	0.082745
972.239677	0.082929
972.414460	0.083893
972.589225	0.086851
972.763972	0.087223
972.938700	0.087331
973.113411	0.087419
973.288103	0.088463
973.462777	0.090983
973.637432	0.092769
973.812070	0.094475
973.986689	0.096228
974.161290	0.095377
974.335873	0.094931
974.510437	0.094965
974.684984	0.096778
974.859512	0.095994
975.034022	0.097388
975.208513	0.096658
975.382987	0.096281
975.557442	0.093849
975.731879	0.091587
975.906298	0.093491
976.080698	0.095450
976.255080	0.094854
976.429445	0.094818
976.603790	0.093062
976.778118	0.091662
976.952427	0.089995
977.126719	0.089897
977.300992	0.091618
977.475246	0.090275
977.649483	0.089386
977.823701	0.089828
977.997901	0.089473
978.172083	0.088993
978.346247	0.090530
978.520392	0.092242
978.694519	0.093189
978.868628	0.092925
979.042719	0.096043
979.216791	0.096258
979.390845	0.094562
979.564882	0.094928
979.738899	0.094712
979.912899	0.093138
980.086880	0.093692
980.260843	0.093129
980.434788	0.093180
980.608715	0.088890
980.782623	0.087606
980.956514	0.088575
981.130386	0.088105
981.304240	0.087922
981.478075	0.090281
981.651892	0.088876
981.825692	0.087822
981.999472	0.088150
982.173235	0.088197
982.346980	0.088845
982.520706	0.085588
982.694414	0.084893
982.868104	0.085601
983.041775	0.084872
983.215428	0.083259
983.389064	0.084533
983.562680	0.084600
983.736279	0.083599
983.909860	0.085237
984.083422	0.087436
984.256966	0.088287
984.430491	0.089912
984.603999	0.089678
984.777488	0.091191
984.950959	0.091705
985.124412	0.089964
985.297847	0.090905
985.471263	0.090251
985.644661	0.090816
985.818041	0.090581
985.991403	0.087595
986.164747	0.086474
986.338072	0.086433
986.511379	0.085843
986.684668	0.087332
986.857938	0.088681
987.031191	0.090158
987.204425	0.091332
987.377641	0.092472
987.550839	0.092256
987.724018	0.094985
987.897179	0.094377
988.070322	0.094632
988.243447	0.094287
988.416554	0.094848
988.589642	0.093973
988.762712	0.093902
988.935764	0.093564
989.108798	0.094847
989.281813	0.091384
989.454811	0.094335
989.627790	0.094422
989.800751	0.094677
989.973693	0.096142
990.146617	0.094721
990.319524	0.095048
990.492412	0.095320
990.665281	0.094096
990.838133	0.095412
991.010966	0.094566
991.183781	0.094198
991.356578	0.093503
991.529356	0.091056
991.702117	0.091937
991.874859	0.090974
992.047583	0.091619
992.220288	0.093531
992.392976	0.092846
992.565645	0.092103
992.738296	0.091771
992.910929	0.092136
993.083543	0.091698
993.256139	0.091416
993.428718	0.090633
993.601277	0.089940
993.773819	0.090320
993.946342	0.090551
994.118848	0.090626
994.291335	0.091226
994.463803	0.091904
994.636254	0.094056
994.808686	0.094974
994.981100	0.094801
995.153496	0.094222
995.325874	0.092949
995.498233	0.092944
995.670574	0.092688
995.842897	0.092694
996.015202	0.090917
996.187488	0.088564
996.359757	0.088089
996.532007	0.088617
996.704239	0.088660
996.876452	0.087549
997.048648	0.088027
997.220825	0.086774
997.392984	0.085833
997.565124	0.086804
997.737247	0.086842
997.909351	0.086904
998.081437	0.087908
998.253505	0.086943
998.425554	0.087285
998.597586	0.088296
998.769599	0.091214
998.941594	0.091007
999.113571	0.091588
999.285529	0.091927
999.457469	0.092539
999.629391	0.090722
999.801295	0.091405
999.973181	0.091473
1000.145048	0.091158
1000.316897	0.090725
1000.488728	0.092139
1000.660541	0.093327
1000.832335	0.093824
1001.004111	0.092288
1001.175869	0.093085
1001.347609	0.093718
1001.519331	0.094172
1001.691034	0.095172
1001.862719	0.093295
1002.034386	0.092140
1002.206035	0.090019
1002.377665	0.090197
1002.549277	0.093297
1002.720871	0.094030
1002.892447	0.094731
1003.064004	0.093981
1003.235544	0.092540
1003.407065	0.095769
1003.578568	0.095284
1003.750052	0.095711
1003.921519	0.094420
1004.092967	0.090445
1004.264397	0.089476
1004.435809	0.088884
1004.607202	0.087486
1004.778577	0.088118
1004.949934	0.085979
1005.121273	0.087346
1005.292594	0.089794
1005.463896	0.091182
1005.635180	0.092073
1005.806446	0.093693
1005.977694	0.093007
1006.148923	0.094376
1006.320135	0.094054
1006.491328	0.093995
1006.662503	0.093848
1006.833659	0.091740
1007.004798	0.093773
1007.175918	0.093654
1007.347020	0.091359
1007.518103	0.092916
1007.689169	0.092707
1007.860216	0.091619
1008.031245	0.090912
1008.202256	0.092275
1008.373248	0.092688
1008.544223	0.089077
1008.715179	0.088301
1008.886117	0.088589
1009.057036	0.086725
1009.227938	0.088163
1009.398821	0.090224
1009.569686	0.090400
1009.740533	0.090224
1009.911361	0.090867
1010.082172	0.092015
1010.252964	0.093664
1010.423738	0.094647
1010.594493	0.094454
1010.765231	0.094390
1010.935950	0.094194
1011.106651	0.093472
1011.277334	0.093707
1011.447998	0.092258
1011.618645	0.092762
1011.789273	0.092159
1011.959882	0.091404
1012.130474	0.093247
1012.301048	0.092547
1012.471603	0.091212
1012.642140	0.092053
1012.812658	0.091243
1012.983159	0.092540
1013.153641	0.091589
1013.324105	0.090458
1013.494551	0.092411
1013.664979	0.091912
1013.835388	0.092184
1014.005779	0.091865
1014.176152	0.092957
1014.346507	0.093441
1014.516843	0.093353
1014.687162	0.093953
1014.857462	0.095574
1015.027744	0.093773
1015.198007	0.093303
1015.368252	0.093087
1015.538480	0.095029
1015.708689	0.094491
1015.878879	0.093085
1016.049052	0.092904
1016.219206	0.091188
1016.389342	0.089323
1016.559460	0.089043
1016.729559	0.090500
1016.899641	0.091178
1017.069704	0.088717
1017.239749	0.089720
1017.409775	0.091116
1017.579784	0.089275
1017.749774	0.091337
1017.919746	0.092736
1018.089700	0.095298
1018.259635	0.093686
1018.429553	0.094295
1018.599452	0.096180
1018.769333	0.094791
1018.939195	0.093785
1019.109040	0.096616
1019.278866	0.096069
1019.448674	0.096920
1019.618464	0.094976
1019.788235	0.095682
1019.957989	0.094169
1020.127724	0.093901
1020.297441	0.095358
1020.467139	0.093211
1020.636820	0.091170
1020.806482	0.092373
1020.976126	0.092043
1021.145752	0.091783
1021.315359	0.091955
1021.484948	0.094280
1021.654519	0.092568
1021.824072	0.090892
1021.993607	0.093491
1022.163123	0.094840
1022.332621	0.093427
1022.502101	0.092147
1022.671563	0.092193
1022.841007	0.093260
1023.010432	0.092487
1023.179839	0.093699
1023.349228	0.092798
1023.518598	0.093116
1023.687951	0.092323
1023.857285	0.093220
1024.026601	0.093197
1024.195899	0.092358
1024.365178	0.090818
1024.534439	0.089182
1024.703682	0.087914
1024.872907	0.088175
1025.042114	0.086892
1025.211302	0.087888
1025.380472	0.087626
1025.549624	0.087060
1025.718758	0.087767
1025.887873	0.087239
1026.056970	0.087239
1026.226049	0.088849
1026.395110	0.088395
1026.564153	0.089660
1026.733177	0.086751
1026.902183	0.086516
1027.071171	0.086202
1027.240141	0.085880
1027.409092	0.086831
1027.578026	0.086538
1027.746940	0.087628
1027.915837	0.088890
1028.084716	0.090374
1028.253576	0.092337
1028.422418	0.092495
1028.591242	0.094873
1028.760048	0.095129
1028.928835	0.095169
1029.097604	0.096640
1029.266355	0.095046
1029.435088	0.093907
1029.603803	0.091209
1029.772499	0.091871
1029.941177	0.092137
1030.109837	0.090325
1030.278478	0.089817
1030.447102	0.089813
1030.615707	0.088716
1030.784294	0.087113
1030.952863	0.086591
1031.121413	0.087506
1031.289945	0.087506
1031.458460	0.087088
1031.626955	0.087775
1031.795433	0.088701
1031.963892	0.087531
1032.132334	0.089586
1032.300756	0.090974
1032.469161	0.094134
1032.637548	0.093373
1032.805916	0.092655
1032.974266	0.092290
1033.142598	0.091835
1033.310911	0.091616
1033.479207	0.091130
1033.647484	0.089492
1033.815743	0.089788
1033.983983	0.087843
1034.152206	0.086408
1034.320410	0.087506
1034.488596	0.088889
1034.656764	0.089795
1034.824914	0.089122
1034.993045	0.092509
1035.161158	0.091674
1035.329253	0.092516
1035.497330	0.091454
1035.665388	0.093464
1035.833428	0.090819
1036.001450	0.089647
1036.169454	0.090633
1036.337440	0.091470
1036.505407	0.089695
1036.673356	0.090551
1036.841287	0.089883
1037.009200	0.092174
1037.177094	0.090646
1037.344970	0.092489
1037.512828	0.088986
1037.680668	0.089284
1037.848489	0.086977
1038.016293	0.086442
1038.184078	0.084592
1038.351845	0.085119
1038.519593	0.085076
1038.687324	0.087995
1038.855036	0.088500
1039.022730	0.093386
1039.190406	0.092715
1039.358063	0.094656
1039.525702	0.094557
1039.693323	0.096636
1039.860926	0.095051
1040.028511	0.093624
1040.196077	0.092572
1040.363625	0.089332
1040.531155	0.087082
1040.698667	0.086091
1040.866161	0.084882
1041.033636	0.084350
1041.201093	0.083754
1041.368532	0.083410
1041.535952	0.085434
1041.703355	0.085980
1041.870739	0.087340
1042.038105	0.088924
1042.205452	0.088420
1042.372782	0.090196
1042.540093	0.091220
1042.707386	0.091735
1042.874661	0.093267
1043.041918	0.091716
1043.209156	0.090350
1043.376376	0.091864
1043.543578	0.092075
1043.710762	0.091020
1043.877927	0.089966
1044.045074	0.090273
1044.212203	0.090299
1044.379314	0.089382
1044.546407	0.088112
1044.713481	0.088610
1044.880537	0.086825
1045.047575	0.086147
1045.214595	0.089587
1045.381596	0.090258
1045.548579	0.090270
1045.715544	0.090175
1045.882491	0.091121
1046.049420	0.093795
1046.216330	0.092841
1046.383222	0.094630
1046.550096	0.095729
1046.716951	0.092683
1046.883789	0.094512
1047.050608	0.092981
1047.217409	0.091466
1047.384192	0.092635
1047.550956	0.092336
1047.717703	0.093089
1047.884431	0.093220
1048.051140	0.092634
1048.217832	0.092665
1048.384505	0.091459
1048.551161	0.093879
1048.717798	0.096520
1048.884416	0.095542
1049.051017	0.094468
1049.217599	0.093785
1049.384163	0.091197
1049.550709	0.089276
1049.717237	0.091352
1049.883746	0.090898
1050.050237	0.088642
1050.216710	0.088446
1050.383165	0.089025
1050.549601	0.088076
1050.716019	0.087761
1050.882420	0.091357
1051.048801	0.091831
1051.215165	0.091392
1051.381510	0.090560
1051.547837	0.093269
1051.714146	0.092270
1051.880437	0.090778
1052.046709	0.092937
1052.212964	0.095247
1052.379200	0.094320
1052.545417	0.096632
1052.711617	0.098142
1052.877798	0.101095
1053.043961	0.099160
1053.210106	0.098446
1053.376233	0.097529
1053.542341	0.096284
1053.708432	0.095921
1053.874504	0.096303
1054.040557	0.095862
1054.206593	0.093194
1054.372610	0.090448
1054.538609	0.088666
1054.704590	0.091051
1054.870553	0.094045
1055.036497	0.093882
1055.202424	0.093558
1055.368331	0.092920
1055.534221	0.092887
1055.700093	0.094004
1055.865946	0.095090
1056.031781	0.099379
1056.197598	0.099869
1056.363397	0.098730
1056.529177	0.098611
1056.694939	0.099397
1056.860683	0.099246
1057.026409	0.098460
1057.192116	0.098070
1057.357806	0.097572
1057.523477	0.094552
1057.689130	0.092185
1057.854764	0.090969
1058.020381	0.091445
1058.185979	0.089599
1058.351559	0.089247
1058.517120	0.089725
1058.682664	0.089353
1058.848189	0.089235
1059.013696	0.090407
1059.179185	0.091874
1059.344656	0.093000
1059.510108	0.093033
1059.675542	0.093417
1059.840958	0.095008
1060.006356	0.096563
1060.171735	0.099777
1060.337096	0.101191
1060.502439	0.101027
1060.667764	0.099314
1060.833071	0.099873
1060.998359	0.101231
1061.163629	0.102257
1061.328881	0.102786
1061.494115	0.100751
1061.659330	0.099951
1061.824527	0.097715
1061.989706	0.095459
1062.154867	0.094881
1062.320010	0.094030
1062.485134	0.094710
1062.650240	0.092786
1062.815328	0.091085
1062.980398	0.092977
1063.145449	0.090665
1063.310482	0.093754
1063.475497	0.095657
1063.640494	0.099516
1063.805473	0.099017
1063.970433	0.097946
1064.135375	0.098311
1064.300299	0.098746
1064.465204	0.097327
1064.630092	0.098321
1064.794961	0.094949
1064.959812	0.093822
1065.124645	0.094417
1065.289459	0.095926
1065.454256	0.095879
1065.619034	0.098339
1065.783793	0.097793
1065.948535	0.098031
1066.113258	0.099249
1066.277964	0.100443
1066.442651	0.101779
1066.607319	0.097189
1066.771970	0.097363
1066.936602	0.095862
1067.101216	0.094835
1067.265812	0.095505
1067.430389	0.094863
1067.594949	0.094557
1067.759490	0.092857
1067.924013	0.093958
1068.088518	0.096926
1068.253004	0.098219
1068.417472	0.099463
1068.581922	0.099461
1068.746354	0.101051
1068.910768	0.103793
1069.075163	0.103123
1069.239540	0.107062
1069.403899	0.107672
1069.568240	0.106950
1069.732562	0.104924
1069.896866	0.106066
1070.061152	0.105685
1070.225420	0.103516
1070.389670	0.101353
1070.553901	0.099919
1070.718114	0.097269
1070.882309	0.096448
1071.046486	0.096911
1071.210644	0.097213
1071.374784	0.095131
1071.538906	0.095581
1071.703010	0.095496
1071.867096	0.094844
1072.031163	0.097300
1072.195212	0.096767
1072.359243	0.095899
1072.523256	0.097741
1072.687250	0.097376
1072.851226	0.097908
1073.015184	0.098673
1073.179124	0.100773
1073.343045	0.100159
1073.506949	0.099014
1073.670834	0.100672
1073.834701	0.100939
1073.998549	0.097779
1074.162380	0.097428
1074.326192	0.098010
1074.489986	0.097529
1074.653761	0.094957
1074.817519	0.095350
1074.981258	0.095845
1075.144979	0.096187
1075.308682	0.096282
1075.472367	0.096662
1075.636033	0.098023
1075.799681	0.097898
1075.963311	0.096152
1076.126923	0.097605
1076.290516	0.100363
1076.454092	0.101880
1076.617649	0.102726
1076.781187	0.103392
1076.944708	0.104778
1077.108210	0.102564
1077.271695	0.104532
1077.435160	0.107115
1077.598608	0.106197
1077.762038	0.103651
1077.925449	0.102776
1078.088842	0.100626
1078.252217	0.099279
1078.415573	0.098982
1078.578912	0.100933
1078.742232	0.096351
1078.905534	0.095310
1079.068817	0.097529
1079.232083	0.097455
1079.395330	0.096347
1079.558559	0.099219
1079.721770	0.099785
1079.884962	0.099250
1080.048136	0.097853
1080.211293	0.100029
1080.374430	0.100565
1080.537550	0.098982
1080.700651	0.099612
1080.863735	0.100108
1081.026800	0.096637
1081.189846	0.099678
1081.352875	0.100000
1081.515885	0.102277
1081.678877	0.104623
1081.841851	0.103964
1082.004807	0.103728
1082.167744	0.103099
1082.330663	0.104627
1082.493564	0.105803
1082.656447	0.101866
1082.819312	0.102299
1082.982158	0.103723
1083.144986	0.102120
1083.307796	0.099697
1083.470587	0.100676
1083.633361	0.101228
1083.796116	0.099066
1083.958853	0.100482
1084.121571	0.103011
1084.284272	0.103660
1084.446954	0.099854
1084.609618	0.101654
1084.772264	0.105462
1084.934892	0.105064
1085.097501	0.107158
1085.260092	0.110910
1085.422665	0.110786
1085.585220	0.110679
1085.747756	0.106538
1085.910274	0.108532
1086.072774	0.107712
1086.235256	0.105993
1086.397720	0.106781
1086.560165	0.104330
1086.722592	0.102012
1086.885001	0.102226
1087.047392	0.101424
1087.209764	0.102249
1087.372119	0.104026
1087.534455	0.107623
1087.696772	0.112178
1087.859072	0.109552
1088.021353	0.111390
1088.183616	0.110408
1088.345861	0.113654
1088.508088	0.112280
1088.670296	0.117939
1088.832486	0.116358
1088.994658	0.114176
1089.156812	0.111942
1089.318948	0.114141
1089.481065	0.112917
1089.643164	0.111962
1089.805245	0.110978
1089.967308	0.111686
1090.129352	0.108753
1090.291378	0.107445
1090.453386	0.107462
1090.615376	0.104787
1090.777347	0.101749
1090.939301	0.101501
1091.101236	0.102923
1091.263153	0.102181
1091.425051	0.100670
1091.586932	0.102171
1091.748794	0.103958
1091.910638	0.102888
1092.072463	0.102252
1092.234271	0.106838
1092.396060	0.108062
1092.557831	0.107009
1092.719584	0.105283
1092.881319	0.108920
1093.043035	0.105809
1093.204733	0.104197
1093.366413	0.103293
1093.528075	0.103619
1093.689718	0.100533
1093.851343	0.100670
1094.012950	0.103623
1094.174539	0.104438
1094.336110	0.102886
1094.497662	0.103376
1094.659196	0.104996
1094.820712	0.106410
1094.982210	0.106952
1095.143689	0.106301
1095.305151	0.107550
1095.466594	0.105383
1095.628018	0.106068
1095.789425	0.106471
1095.950813	0.108921
1096.112183	0.109669
1096.273535	0.107813
1096.434869	0.106513
1096.596184	0.109176
1096.757482	0.106253
1096.918761	0.107512
1097.080021	0.104853
1097.241264	0.103179
1097.402488	0.100678
1097.563694	0.096239
1097.724882	0.097148
1097.886052	0.099655
1098.047203	0.101807
1098.208336	0.104753
1098.369451	0.102699
1098.530548	0.105574
1098.691627	0.105650
1098.852687	0.106627
1099.013729	0.113423
1099.174753	0.112915
1099.335758	0.116680
1099.496746	0.113960
1099.657715	0.112811
1099.818666	0.117967
1099.979599	0.116927
1100.140513	0.122495
1100.301409	0.119909
1100.462287	0.118368
1100.623147	0.120288
1100.783989	0.115220
1100.944812	0.117012
1101.105617	0.118827
1101.266404	0.110247
1101.427173	0.111321
1101.587923	0.106794
1101.748656	0.109161
1101.909370	0.106639
1102.070066	0.100205
1102.230743	0.100471
1102.391403	0.097297
1102.552044	0.093130
1102.712667	0.099934
1102.873271	0.097900
1103.033858	0.096934
1103.194426	0.098642
1103.354976	0.100483
1103.515508	0.106716
1103.676021	0.110386
1103.836517	0.110584
1103.996994	0.114177
1104.157453	0.114872
1104.317893	0.112941
1104.478316	0.114758
1104.638720	0.113102
1104.799106	0.115730
1104.959474	0.112428
1105.119823	0.110160
1105.280155	0.113286
1105.440468	0.113700
1105.600763	0.110504
1105.761039	0.115794
1105.921298	0.118070
1106.081538	0.118583
1106.241760	0.111426
1106.401964	0.113145
1106.562149	0.117467
1106.722316	0.118665
1106.882465	0.119708
1107.042596	0.117269
1107.202709	0.119333
1107.362803	0.118450
1107.522879	0.119460
1107.682937	0.123071
1107.842977	0.122213
1108.002999	0.116611
1108.163002	0.116747
1108.322987	0.113250
1108.482954	0.111949
1108.642902	0.105957
1108.802833	0.102804
1108.962745	0.106270
1109.122639	0.110355
1109.282515	0.108763
1109.442372	0.110083
1109.602211	0.103338
1109.762032	0.104461
1109.921835	0.110481
1110.081620	0.114313
1110.241386	0.114496
1110.401134	0.111003
1110.560864	0.107441
1110.720576	0.109937
1110.880269	0.109647
1111.039945	0.109638
1111.199602	0.107160
1111.359240	0.103955
1111.518861	0.103125
1111.678463	0.103068
1111.838047	0.101699
1111.997613	0.103525
1112.157161	0.105200
1112.316690	0.103983
1112.476202	0.109033
1112.635695	0.114311
1112.795169	0.115732
1112.954626	0.113952
1113.114064	0.115356
1113.273484	0.121463
1113.432886	0.114944
1113.592270	0.111013
1113.751635	0.112649
1113.910983	0.112409
1114.070312	0.108149
1114.229622	0.109798
1114.388915	0.108595
1114.548189	0.112768
1114.707445	0.107238
1114.866683	0.109811
1115.025903	0.112248
1115.185104	0.111062
1115.344287	0.113679
1115.503452	0.114768
1115.662599	0.112818
1115.821727	0.105739
1115.980838	0.105808
1116.139930	0.105525
1116.299004	0.106249
1116.458059	0.108014
1116.617097	0.106901
1116.776116	0.102836
1116.935117	0.101905
1117.094099	0.103576
1117.253064	0.112035
1117.412010	0.112205
1117.570938	0.110593
1117.729848	0.115126
1117.888740	0.107735
1118.047613	0.109665
1118.206468	0.112389
1118.365305	0.112459
1118.524124	0.110967
1118.682924	0.112817
1118.841707	0.108017
1119.000471	0.106794
1119.159216	0.105993
1119.317944	0.109043
1119.476653	0.113517
1119.635344	0.114571
1119.794017	0.120338
1119.952672	0.117604
1120.111308	0.116978
1120.269927	0.120553
1120.428527	0.126285
1120.587108	0.127088
1120.745672	0.131523
1120.904217	0.132312
1121.062744	0.127330
1121.221253	0.117590
1121.379744	0.118687
1121.538216	0.120509
1121.696671	0.119867
1121.855107	0.115880
1122.013524	0.109801
1122.171924	0.110391
1122.330305	0.105070
1122.488668	0.106819
1122.647013	0.116139
1122.805340	0.114076
1122.963648	0.118267
1123.121938	0.118183
1123.280210	0.124927
1123.438464	0.129412
1123.596700	0.128540
1123.754917	0.130819
1123.913116	0.138169
1124.071297	0.135184
1124.229459	0.143995
1124.387604	0.134724
1124.545730	0.136441
1124.703838	0.132660
1124.861928	0.131203
1125.019999	0.128026
1125.178052	0.124652
1125.336088	0.116771
1125.494104	0.116175
1125.652103	0.113876
1125.810083	0.117523
1125.968045	0.114892
1126.125989	0.112670
1126.283915	0.115799
1126.441823	0.120606
1126.599712	0.119899
1126.757583	0.117825
1126.915436	0.118766
1127.073270	0.116542
1127.231087	0.115527
1127.388885	0.121871
1127.546665	0.125199
1127.704426	0.121476
1127.862170	0.120477
1128.019895	0.129760
1128.177602	0.127701
1128.335291	0.122881
1128.492961	0.121079
1128.650614	0.124654
1128.808248	0.128346
1128.965864	0.126428
1129.123461	0.122094
1129.281041	0.123364
1129.438602	0.115527
1129.596145	0.127051
1129.753670	0.134045
1129.911176	0.137481
1130.068665	0.134970
1130.226135	0.122388
1130.383587	0.122915
1130.541020	0.129538
1130.698436	0.120230
1130.855833	0.119611
1131.013212	0.115888
1131.170573	0.112807
1131.327915	0.114938
1131.485239	0.111848
1131.642545	0.119164
1131.799833	0.119548
1131.957103	0.117672
1132.114354	0.125061
1132.271588	0.130032
1132.428803	0.127985
1132.585999	0.131345
1132.743178	0.131405
1132.900338	0.135595
1133.057480	0.135021
1133.214604	0.137066
1133.371710	0.143152
1133.528797	0.145447
1133.685866	0.147321
1133.842917	0.148587
1133.999950	0.143489
1134.156964	0.146185
1134.313960	0.146398
1134.470938	0.147262
1134.627898	0.145470
1134.784840	0.143274
1134.941763	0.145073
1135.098668	0.140878
1135.255555	0.131692
1135.412424	0.143377
1135.569274	0.140499
1135.726107	0.129258
1135.882921	0.120672
1136.039716	0.118954
1136.196494	0.119523
1136.353253	0.120223
1136.509995	0.117169
1136.666717	0.126341
1136.823422	0.110088
1136.980109	0.108135
1137.136777	0.118569
1137.293427	0.121433
1137.450059	0.120955
1137.606672	0.117708
1137.763267	0.110774
1137.919844	0.111092
1138.076403	0.109863
1138.232944	0.109662
1138.389466	0.112564
1138.545971	0.118832
1138.702457	0.119951
1138.858924	0.122491
1139.015374	0.124745
1139.171805	0.130434
1139.328218	0.129563
1139.484613	0.126285
1139.640990	0.135151
1139.797348	0.127671
1139.953688	0.113569
1140.110010	0.116526
1140.266314	0.107875
1140.422600	0.111199
1140.578867	0.115373
1140.735116	0.109167
1140.891347	0.114615
1141.047559	0.115164
1141.203754	0.120796
1141.359930	0.128136
1141.516088	0.129028
1141.672228	0.137678
1141.828349	0.128475
1141.984452	0.127483
1142.140537	0.131288
1142.296604	0.130427
1142.452653	0.134606
1142.608683	0.130331
1142.764695	0.131034
1142.920689	0.132288
1143.076665	0.130531
1143.232622	0.133652
1143.388562	0.130270
1143.544483	0.143500
1143.700385	0.147848
1143.856270	0.146239
1144.012136	0.145529
1144.167985	0.155138
1144.323814	0.156586
1144.479626	0.161580
1144.635420	0.155424
1144.791195	0.157448
1144.946952	0.152204
1145.102691	0.145452
1145.258411	0.146830
1145.414113	0.149320
1145.569798	0.137354
1145.725463	0.127348
1145.881111	0.122840
1146.036741	0.135572
1146.192352	0.139222
1146.347945	0.126588
1146.503519	0.132432
1146.659076	0.134850
1146.814614	0.136035
1146.970134	0.141162
1147.125636	0.134157
1147.281120	0.130233
1147.436585	0.126890
1147.592032	0.118376
1147.747461	0.131465
1147.902872	0.125375
1148.058265	0.122099
1148.213639	0.121426
1148.368995	0.125677
1148.524333	0.135913
1148.679653	0.146289
1148.834954	0.146374
1148.990237	0.143078
1149.145502	0.148013
1149.300749	0.160894
1149.455977	0.165487
1149.611188	0.150414
1149.766380	0.138616
1149.921553	0.132714
1150.076709	0.137147
1150.231846	0.126707
1150.386966	0.138216
1150.542066	0.128624
1150.697149	0.115287
1150.852214	0.110553
1151.007260	0.125703
1151.162288	0.132694
1151.317298	0.149056
1151.472289	0.137474
1151.627263	0.138558
1151.782218	0.127283
1151.937155	0.126813
1152.092073	0.128074
1152.246974	0.123858
1152.401856	0.124923
1152.556720	0.122110
1152.711566	0.112404
1152.866393	0.114306
1153.021203	0.121377
1153.175994	0.126776
1153.330767	0.129367
1153.485521	0.140704
1153.640258	0.138017
1153.794976	0.151459
1153.949676	0.150023
1154.104358	0.148499
1154.259021	0.149565
1154.413667	0.142276
1154.568294	0.148550
1154.722903	0.156532
1154.877493	0.154388
1155.032066	0.157977
1155.186620	0.144676
1155.341156	0.154126
1155.495674	0.160605
1155.650173	0.154831
1155.804654	0.168565
1155.959118	0.156424
1156.113562	0.147745
1156.267989	0.147439
1156.422397	0.148778
1156.576788	0.140710
1156.731160	0.140280
1156.885513	0.122245
1157.039849	0.128600
1157.194166	0.130363
1157.348465	0.141023
1157.502746	0.144852
1157.657009	0.130297
1157.811253	0.122487
1157.965479	0.136719
1158.119687	0.113768
1158.273877	0.132327
1158.428048	0.142255
1158.582201	0.127947
1158.736337	0.122896
1158.890453	0.120594
1159.044552	0.123385
1159.198632	0.126236
1159.352694	0.115587
1159.506738	0.136125
1159.660764	0.128739
1159.814771	0.120388
1159.968761	0.123316
1160.122732	0.120507
1160.276685	0.117242
1160.430619	0.128933
1160.584535	0.144406
1160.738434	0.146162
1160.892313	0.150574
1161.046175	0.144057
1161.200019	0.141926
1161.353844	0.141449
1161.507651	0.135265
1161.661440	0.134287
1161.815210	0.111992
1161.968962	0.093123
1162.122697	0.095516
1162.276412	0.091883
1162.430110	0.092184
1162.583789	0.097178
1162.737451	0.107244
1162.891094	0.105562
1163.044718	0.094988
1163.198325	0.115245
1163.351913	0.120524
1163.505483	0.109560
1163.659035	0.092470
1163.812569	0.100826
1163.966084	0.094781
1164.119581	0.083213
1164.273060	0.094437
1164.426521	0.103070
1164.579964	0.092636
1164.733388	0.104270
1164.886794	0.127039
1165.040182	0.140472
1165.193551	0.135180
1165.346903	0.138095
1165.500236	0.132667
1165.653551	0.124069
1165.806848	0.129542
1165.960126	0.131689
1166.113386	0.116397
1166.266628	0.120170
1166.419852	0.106832
1166.573058	0.103426
1166.726245	0.115004
1166.879414	0.120053
1167.032565	0.115405
1167.185698	0.115733
1167.338812	0.126498
1167.491909	0.148363
1167.644987	0.117827
1167.798046	0.128909
1167.951088	0.146535
1168.104111	0.146713
1168.257117	0.147172
1168.410103	0.159833
1168.563072	0.159414
1168.716023	0.140518
1168.868955	0.130789
1169.021869	0.156696
1169.174765	0.158747
1169.327642	0.153455
1169.480501	0.139888
1169.633343	0.155111
1169.786165	0.140947
1169.938970	0.129021
1170.091757	0.129453
1170.244525	0.101037
1170.397275	0.089333
1170.550007	0.073865
1170.702720	0.084145
1170.855415	0.086995
1171.008092	0.059892
1171.160751	0.053431
1171.313392	0.049930
1171.466014	0.229201
1171.618619	-0.024586
1171.771205	-0.024586
1171.923772	-0.024586
