sample name	sample
index	490
start time	 03-11-2021  02:09:01 PM
880	0.228806
Peak Time (s)	91.535
Peak Height 	0.2288
calc peak height	90,93
Baseline Time (s)	8.549
Baseline Value 	-0.002893
subtract baseline	10,4
Abs	0.152010
Peak Time (s)	92.035
Peak Height 	0.152
calc peak height	90,93
Baseline Time (s)	9.038
Baseline Value 	8.9934E-4
subtract baseline	10,3
PK_550	0.076658
Peak Time (s)	90.535
Peak Height 	0.07666
calc peak height	90,93
Baseline Time (s)	9.038
Baseline Value 	-2.4393E-5
subtract baseline	10,2
PK_880	0.143725
Peak Time (s)	90.535
Peak Height 	0.1437
calc peak height	90,93
Baseline Time (s)	9.535
Baseline Value 	0.001762
subtract baseline	10,1


Time (s)	A880-A510	A880-A775	A880-A975	A880	I510	I775	I975	I880	
0.073500	-0.006397	-0.000596	0.000526	0.006614	6976.040262	45021.831553	3964.986518	23955.240696
0.552000	-0.003385	-0.000747	-0.009563	0.004354	7025.968985	45226.701604	3945.123274	24065.178321
1.044500	-0.003105	-0.000446	0.002866	0.002982	7041.734925	45389.835100	3980.379760	24132.151365
1.544000	-0.002659	0.000172	0.001004	0.001570	7059.545931	45588.769616	3979.215128	24201.371284
2.055500	-0.003388	-0.000244	-0.001943	0.005943	7010.822775	45121.078872	3960.391647	23987.805290
2.545000	-0.001676	-0.000282	-0.004075	0.001214	7072.426221	45579.118095	3967.033511	24218.824121
3.091500	-0.001381	0.000259	0.001249	0.000860	7078.685185	45667.040296	3981.695632	24236.248027
3.553000	-0.000959	0.000151	0.003161	-0.000149	7092.511844	45755.753866	3989.309420	24285.888732
4.037000	-0.003176	-0.001000	-0.002682	0.004630	7025.331715	45175.231038	3961.858226	24051.712306
4.535000	-0.000870	-0.000111	-0.000115	0.000449	7087.583795	45671.118505	3979.219706	24256.441330
5.042000	-0.001960	0.000245	-0.000160	0.002517	7057.161677	45503.038928	3973.755471	24154.947129
5.540500	-0.000669	-0.000114	-0.000654	0.000252	7091.442990	45690.206637	3978.333748	24266.154427
6.040500	0.000128	0.000391	0.005074	0.000593	7095.855758	45706.344533	3992.377757	24249.363178
6.541000	-0.001123	0.000032	-0.002052	0.000109	7088.421318	45718.627300	3975.084942	24273.164926
7.036500	-0.000706	0.000180	0.002916	0.000027	7093.255688	45741.303591	3988.208117	24277.212787
7.536500	-0.001089	0.000428	0.003640	0.000278	7087.122419	45740.911890	3989.444428	24264.839930
8.043500	0.000623	0.000597	0.001365	0.000497	7101.577850	45736.058699	3982.939223	24254.060177
8.548500	-0.000241	-0.000132	-0.001279	0.000000	7098.025728	45713.198495	3977.367247	24278.550083
9.038000	0.001327	0.000000	0.000000	-0.000371	7116.861514	45762.733348	3981.646039	24296.812363
9.535000	0.000000	0.001406	0.004670	0.001158	7089.140260	45750.636837	3989.838503	24221.567505
10.041500	0.000269	0.000557	0.002039	0.000365	7099.427248	45745.158612	3985.037083	24260.575221
10.535500	-0.001153	-0.000166	-0.000204	-0.000280	7091.904712	45737.476221	3980.882023	24292.348665
11.116000	0.000771	0.000628	0.002391	0.000181	7106.088150	45770.335465	3986.436872	24269.660200
11.643000	-0.001174	-0.000133	-0.002727	-0.000618	7094.967493	45773.925017	3975.218831	24308.987704
12.041500	-0.001001	0.000667	0.005255	0.000162	7089.093915	45775.999141	3993.983182	24270.564756
12.554000	0.000203	0.000206	-0.001775	0.000038	7101.961902	45742.755702	3975.986307	24276.695788
13.093500	-0.000678	0.000170	0.000110	0.001286	7081.352203	45616.413870	3977.634938	24215.291694
13.545500	-0.001341	-0.000174	0.003352	0.000280	7084.668795	45681.473285	3988.687246	24264.750952
14.034500	-0.001235	0.000008	0.000818	0.000133	7087.113130	45713.851673	3982.463039	24271.989044
14.538000	-0.002423	-0.000187	-0.000397	0.001171	7065.650198	45592.629196	3976.619601	24220.940326
15.035500	-0.003165	0.000107	-0.003908	0.003479	7036.414821	45395.320484	3961.666189	24107.866222
15.540500	-0.000991	0.000495	0.001010	0.000801	7083.014205	45696.059791	3981.225300	24239.117355
16.042000	-0.003436	-0.000163	-0.000977	0.005004	7019.289209	45220.184925	3965.261130	24033.477940
16.535500	-0.001590	-0.000150	-0.000756	0.000787	7077.370870	45634.032222	3976.684669	24239.810532
17.101500	-0.000663	0.000097	-0.003310	0.001996	7074.653702	45539.534033	3966.990683	24180.473486
17.617000	-0.002344	0.000734	-0.001574	0.000505	7072.818919	45748.802089	3975.298995	24253.695419
18.034500	-0.002306	-0.000288	-0.000367	0.003540	7044.041065	45350.737151	3970.582853	24104.874914
18.544500	0.001189	0.001040	0.002642	-0.002410	7135.416513	46067.423622	3993.877783	24397.591545
19.043000	-0.001468	0.000397	-0.001837	0.001858	7068.223143	45582.552464	3971.129889	24187.237357
19.559500	-0.002679	0.000157	0.004971	0.001678	7058.320305	45576.692753	3989.266816	24196.065421
20.073000	-0.002839	0.000571	0.003619	0.002095	7052.780037	45576.415182	3984.648568	24175.627286
20.574500	-0.000599	0.000639	0.002877	0.002281	7072.525384	45564.784788	3982.233579	24166.508343
21.036000	0.000854	0.000136	-0.001796	0.001907	7090.166276	45552.146007	3971.110506	24184.848925
21.539000	-0.000732	0.000541	0.000008	0.001980	7074.136741	45584.690180	3975.575035	24181.249447
22.036500	-0.001335	0.000220	0.001451	0.001510	7072.853604	45599.306166	3980.529950	24204.300774
22.543000	-0.001356	-0.000777	0.000996	0.001080	7076.802179	45543.723443	3980.466913	24225.438433
23.037000	-0.002187	0.000240	-0.000199	0.001933	7060.590574	45559.761327	3975.159925	24183.528684
23.571000	-0.000936	0.001092	-0.001040	0.002211	7069.949029	45616.036157	3972.274157	24169.904959
24.039500	-0.001013	0.000027	-0.003357	0.001351	7077.496170	45595.918361	3968.525721	24212.097674
24.559500	-0.002337	0.000561	0.003396	0.001634	7062.027669	45620.659622	3985.267730	24198.233058
25.037500	0.000100	0.001266	0.005658	0.002433	7077.790991	45611.429264	3989.088223	24159.035623
25.539500	-0.003073	-0.000434	0.002894	0.000949	7061.539859	45590.236595	3985.745206	24231.872015
26.038500	-0.000175	0.000691	0.000279	0.002058	7078.751491	45591.750723	3976.073684	24177.403907
26.576500	-0.000447	0.000805	0.002647	0.002072	7076.003936	45601.608240	3982.177531	24176.758679
27.048000	-0.000304	0.000405	0.003813	0.001707	7080.904464	45598.183923	3986.165342	24194.660746
27.546500	-0.000465	0.000336	-0.000615	0.001264	7083.619755	45634.820130	3975.814634	24216.365964
28.041500	0.000389	0.000737	0.005199	0.002225	7082.592356	45579.870187	3988.431191	24169.229891
28.554500	0.001147	0.000443	0.001007	-0.001123	7122.430143	45880.750907	3986.226348	24333.913292
29.038000	0.001291	0.000561	0.000430	0.000798	7105.137086	45702.827839	3979.727530	24239.264303
29.535500	-0.000106	0.000305	-0.002352	0.000800	7091.580939	45677.473922	3972.528783	24239.162113
30.204500	0.000375	0.001178	0.003829	0.000925	7095.026783	45751.116138	3988.249516	24233.040558
30.584500	-0.000457	0.000572	0.004413	0.000504	7091.051577	45732.965257	3990.879763	24253.752242
31.073000	-0.000594	0.000792	0.001291	0.000700	7087.834197	45735.339547	3982.219465	24244.108815
31.549000	0.000763	0.000339	0.003667	0.000565	7102.285033	45703.931881	3988.765379	24250.738524
32.036500	-0.001301	0.000858	-0.005941	0.004101	7048.293008	45407.883734	3954.909887	24077.492460
32.536500	-0.000878	0.000614	-0.000291	0.002441	7068.290338	45546.557478	3973.610996	24158.643912
33.040000	-0.001661	0.000956	-0.005158	0.004320	7042.750269	45396.110334	3956.342900	24066.820755
33.534500	-0.000806	0.000182	0.008260	0.000823	7084.597499	45663.172183	4000.158708	24238.066578
34.108500	-0.001166	0.000645	0.005990	0.001060	7078.829902	45685.351615	3993.556883	24226.407656
34.535000	-0.000755	0.001007	0.000293	0.000940	7083.949458	45732.734634	3979.004156	24232.275847
35.035500	-0.000439	0.000614	-0.001940	0.003133	7065.858998	45478.776437	3967.589120	24124.800350
35.535500	-0.001081	-0.000489	-0.000222	0.000839	7081.782008	45595.578350	3977.931274	24237.263427
36.042500	-0.001744	-0.000809	0.005262	0.002163	7062.638900	45434.471444	3988.757650	24172.268034
36.542000	-0.000330	0.000217	-0.000813	0.002489	7073.116753	45503.031036	3972.143573	24156.323462
37.034000	-0.000677	0.000609	-0.002492	0.002557	7069.107999	45534.733980	3967.648697	24152.954495
37.540500	-0.003412	0.000395	0.005062	0.002674	7041.744659	45502.315876	3986.902178	24147.256019
38.046000	-0.001013	0.000399	0.002687	0.002204	7069.275641	45548.792077	3981.939896	24170.283763
38.544000	-0.000927	-0.000032	-0.004290	0.001636	7075.576504	45562.249693	3965.402162	24198.144652
39.038000	-0.002122	0.000140	0.003231	0.002192	7058.725109	45524.608047	3983.384613	24170.863359
39.555000	-0.000677	0.000869	0.004502	0.002730	7067.448369	45543.253316	3985.294480	24144.506350
40.124000	-0.001306	0.000555	0.003111	0.002308	7065.458443	45553.935894	3982.771682	24165.192708
40.564000	-0.001160	-0.000117	0.000870	0.001695	7072.767584	45548.084662	3978.543223	24195.231583
41.058500	-0.002622	0.000590	0.000300	0.002852	7047.602723	45503.946076	3974.077265	24138.518049
41.582500	-0.003239	0.000750	0.001949	0.002321	7046.782394	45571.794317	3979.719578	24164.553315
42.064500	-0.001435	0.000410	-0.000180	0.002191	7065.335663	45551.139964	3974.545566	24170.905595
42.537000	-0.001964	0.000157	-0.003522	0.002115	7060.984458	45533.788929	3966.141993	24174.639290
43.050000	-0.000566	0.001041	0.001584	0.002910	7066.778489	45542.479086	3977.246131	24135.681898
43.617000	-0.001131	0.000771	-0.000245	0.002745	7062.935302	45532.219375	3972.947491	24143.775000
44.040500	-0.001984	0.000098	-0.000638	0.002279	7059.219588	45511.974668	3973.137359	24166.611673
44.535000	-0.000934	0.000684	-0.002462	0.002343	7068.704331	45563.121995	3968.276276	24163.472095
45.053000	-0.001159	-0.000431	-0.003612	0.002005	7069.793689	45486.976710	3966.194133	24180.044626
45.539000	0.001767	-0.000311	0.005004	-0.003249	7149.297126	46016.700059	4002.316971	24439.204426
46.036000	-0.000432	0.000555	-0.003491	0.000059	7095.605998	45775.147896	3971.503153	24275.651662
46.537000	-0.001660	0.000019	0.002299	0.000212	7082.246249	45707.238351	3986.115078	24268.133552
47.075500	-0.000832	0.000088	0.005438	0.002649	7066.741284	45474.716081	3987.948396	24148.484005
47.585000	0.000052	0.000406	0.003783	0.000744	7093.663406	45692.938205	3988.603621	24241.957149
48.045500	-0.003438	0.001074	0.005097	0.001484	7052.891601	45685.829707	3990.103044	24205.588945
48.541000	-0.001163	-0.000051	0.004449	0.000155	7087.599803	45705.890355	3991.887217	24270.910175
49.042500	-0.003158	0.001030	0.001786	0.003948	7032.003289	45439.709048	3975.082911	24084.973841
49.547000	-0.000327	0.000390	-0.002335	0.002394	7074.056798	45529.245574	3968.471549	24160.970953
50.036500	-0.000474	0.000624	0.002171	0.001722	7079.108368	45618.160452	3981.848903	24193.880364
50.605500	-0.001444	0.001006	-0.001010	0.001158	7075.208262	45711.309803	3975.068709	24221.606939
51.047500	-0.005400	-0.000733	0.001219	0.005279	6998.054148	45138.054282	3970.191635	24020.099039
51.635000	0.000278	-0.000091	-0.000345	0.000800	7095.294676	45638.541684	3977.715102	24239.170689
52.128000	0.000078	0.000117	0.002671	0.000302	7098.190851	45708.030105	3986.852138	24263.679331
52.551500	0.000326	0.000711	0.006338	0.001852	7085.584877	45613.932828	3992.390977	24187.518759
53.034500	-0.003397	-0.002891	0.003808	-0.003049	7096.980838	45741.778259	3998.627440	24429.239195
53.541500	-0.023944	-0.002631	-0.014738	0.295728	4905.858534	24467.751538	3404.775711	13714.331562
54.035500	-0.051587	-0.020936	-0.014580	-0.043715	7024.699583	48029.949263	4058.922163	26543.827286
54.535500	-0.043322	-0.054506	-0.011454	-0.206301	9018.472622	63625.311562	4619.118011	37285.601344
55.036500	-0.016321	-0.045496	0.011726	-0.195511	9251.627599	63377.097920	4670.228671	36441.530054
55.536500	-0.015506	-0.016228	0.014225	-0.104852	8062.464383	55410.773948	4336.387955	30119.820957
56.036500	-0.007861	-0.009171	0.016813	-0.100695	8104.182014	55762.303432	4331.038071	29860.380596
56.601500	0.012104	0.003427	0.031659	-0.072030	8000.744728	53844.075315	4284.751673	28137.584766
57.045500	0.036293	0.015413	0.048919	-0.045895	7977.879485	52212.527418	4255.791140	26662.867854
57.534500	0.054177	0.024863	0.056758	-0.033991	8048.440881	51934.846420	4242.723634	26020.034939
58.037500	0.069359	0.033689	0.069101	-0.003220	7866.502804	49520.903486	4184.991388	24437.723649
58.562500	0.079633	0.039768	0.080102	0.016399	7760.535608	48091.304245	4158.825339	23485.880507
59.065500	0.086372	0.049303	0.081276	0.083729	7126.071843	42465.907381	3974.332407	20527.647727
59.538500	0.081669	0.048586	0.084126	0.134641	6616.707166	38036.221713	3856.868415	18576.316410
60.036000	0.086188	0.051272	0.089658	0.106595	6907.022139	40609.409760	3937.556377	19622.916866
60.547000	0.095669	0.054850	0.097712	0.077562	7279.681139	43546.454957	4034.231937	20779.934437
61.047500	0.097636	0.058789	0.103980	0.152443	6600.984952	37427.601496	3861.623185	17946.205255
61.548500	0.100875	0.061715	0.107771	0.175625	6434.354354	35856.218479	3817.583098	17163.463974
62.068000	0.105935	0.064929	0.115319	0.179213	6446.390451	35827.930494	3826.419132	17046.014042
62.570000	0.112005	0.067718	0.118579	0.176062	6522.740788	36280.740407	3840.892900	17149.106792
63.041000	0.110018	0.068749	0.121818	0.171342	6545.682318	36725.047443	3859.159964	17304.939964
63.535000	0.118194	0.074410	0.120620	0.199048	6384.862056	35053.202193	3794.384411	16413.891815
64.035500	0.127031	0.076979	0.119836	0.201917	6433.239502	35031.050173	3786.499540	16324.829487
64.558500	0.126698	0.075524	0.126714	0.185624	6565.939833	36146.282183	3837.652580	16838.549759
65.168000	0.130044	0.076474	0.127793	0.187891	6575.088154	36045.696445	3834.962912	16765.893998
65.536500	0.132663	0.077328	0.134035	0.190241	6577.375617	35931.874832	3843.802561	16691.011492
66.042500	0.131191	0.078413	0.130997	0.195508	6520.570572	35615.718923	3825.036608	16524.614458
66.551000	0.132446	0.078522	0.131961	0.200087	6492.877875	35281.225200	3816.980754	16381.591061
67.034500	0.133082	0.078575	0.132265	0.206700	6443.604901	34796.475917	3803.078896	16177.663080
67.541500	0.135701	0.079658	0.134393	0.209467	6442.395481	34673.119714	3801.681052	16093.243966
68.038000	0.136715	0.079996	0.137853	0.213597	6416.987778	34397.328982	3800.220033	15968.257364
68.535000	0.136258	0.080410	0.135951	0.216140	6392.700262	34243.587783	3790.575864	15891.896518
69.042000	0.133687	0.079613	0.136750	0.220718	6335.487251	33858.624593	3782.453202	15755.535734
69.536000	0.138366	0.081461	0.132064	0.221440	6367.033214	33938.839317	3770.953940	15734.162126
70.036500	0.136409	0.080046	0.135918	0.221745	6348.968002	33816.357907	3778.484774	15725.138989
70.534000	0.136906	0.080279	0.130276	0.221613	6353.977475	33842.247247	3766.816765	15729.027635
71.037500	0.137594	0.081950	0.137040	0.226265	6322.493619	33630.982888	3771.271895	15592.227045
71.540500	0.138345	0.081490	0.136317	0.225513	6334.397400	33651.565592	3771.332832	15614.229429
72.035500	0.141438	0.083269	0.142042	0.227174	6345.775969	33659.888455	3779.965038	15565.644550
72.541500	0.141000	0.082712	0.139655	0.226967	6343.933429	33635.121266	3775.324326	15571.687299
73.035500	0.139693	0.081755	0.139636	0.229214	6315.770957	33409.577434	3770.525162	15506.229898
73.535500	0.140463	0.082078	0.142403	0.228407	6328.236709	33488.928151	3778.105503	15529.694865
74.036000	0.144763	0.082263	0.138590	0.228533	6361.464585	33493.063471	3769.754363	15526.032185
74.536000	0.142188	0.082583	0.137035	0.229036	6336.932053	33480.258850	3765.421778	15511.408251
75.036500	0.140092	0.082102	0.147270	0.230234	6310.876852	33362.364961	3784.602290	15476.622350
75.539500	0.140269	0.081179	0.146798	0.229092	6321.287064	33377.757540	3786.043564	15509.786904
76.040000	0.142774	0.082001	0.144884	0.228217	6348.106269	33496.881467	3783.813331	15535.235959
76.534500	0.143598	0.082922	0.142462	0.227285	6362.134366	33627.585891	3780.625909	15562.421714
77.035000	0.143073	0.082192	0.139999	0.226663	6362.905434	33619.958981	3776.702633	15580.587615
77.535500	0.142107	0.081322	0.137729	0.226849	6353.702715	33545.442338	3771.495123	15575.151446
78.036000	0.142020	0.081387	0.144999	0.224311	6373.311496	33729.357777	3792.471685	15649.510187
78.536000	0.143288	0.081983	0.141183	0.224950	6378.361436	33726.302311	3782.883117	15630.748206
79.036500	0.141507	0.081612	0.142836	0.224629	6366.653658	33722.804367	3787.119614	15640.166270
79.536500	0.143851	0.082600	0.138922	0.225387	6379.372382	33739.069816	3777.126229	15617.928143
80.037000	0.143870	0.082487	0.142748	0.222591	6402.083372	33929.899513	3791.322528	15700.159739
80.540000	0.143310	0.081097	0.142304	0.220719	6412.713650	33964.344060	3794.413261	15755.505473
81.037500	0.144548	0.082261	0.144409	0.221016	6420.355112	34026.270811	3798.338482	15746.700513
81.534500	0.140191	0.081437	0.141164	0.222371	6374.203319	33870.734690	3788.380265	15706.636519
82.035000	0.143522	0.080764	0.143035	0.219127	6427.380895	34054.409544	3799.461044	15802.766834
82.535500	0.143376	0.081090	0.143093	0.218148	6434.173124	34148.026587	3801.724482	15831.909365
83.035500	0.141826	0.079749	0.143752	0.216660	6433.661747	34158.554879	3806.424926	15876.319835
83.536500	0.143587	0.080168	0.148647	0.220882	6413.631017	33886.417163	3807.901506	15750.661472
84.036500	0.143543	0.079624	0.141891	0.216369	6450.102014	34170.519461	3802.984306	15885.041171
84.536500	0.145570	0.078938	0.143036	0.215535	6473.634420	34181.121966	3807.323812	15910.020153
85.042500	0.141903	0.079374	0.141926	0.216333	6436.971322	34155.139662	3803.140970	15886.128044
85.537500	0.140136	0.078567	0.136370	0.218896	6401.766367	33913.869686	3785.545209	15809.641551
86.035000	0.144641	0.077971	0.145244	0.215794	6463.842208	34093.094771	3811.615686	15902.257967
86.535000	0.143130	0.077215	0.150190	0.215321	6455.311344	34072.784768	3823.651176	15916.448205
87.035000	0.141911	0.077554	0.142508	0.216375	6436.692659	34021.605891	3804.322040	15884.867636
87.535500	0.139486	0.076969	0.144372	0.220385	6384.494210	33694.489503	3799.631977	15765.391173
88.036000	0.142150	0.077237	0.145481	0.216828	6434.938016	33966.488460	3809.857593	15871.300941
88.536500	0.143840	0.077394	0.142135	0.218678	6433.634275	33845.838008	3798.478981	15816.118782
89.036500	0.141661	0.075693	0.140847	0.219071	6412.703027	33697.203255	3794.828216	15804.435046
89.536500	0.142585	0.077240	0.147561	0.219392	6417.593377	33784.106742	3808.790855	15794.867117
90.036500	0.141975	0.075042	0.148235	0.219776	6409.534167	33601.340811	3809.431207	15783.480638
90.534500	0.143725	0.076658	0.148919	0.222006	6405.638113	33558.014377	3806.031764	15717.416511
91.034500	0.142309	0.075357	0.146103	0.223603	6381.320162	33354.412505	3796.398404	15670.330792
91.535000	0.141528	0.076138	0.144148	0.228806	6333.526329	33046.426839	3780.979256	15518.111205
92.035500	0.143156	0.074950	0.152010	0.224428	6381.492696	33268.257559	3807.501044	15646.059848
92.536000	0.142989	0.074279	0.141180	0.224903	6376.331440	33188.368252	3782.977259	15632.110286
93.036000	0.141324	0.074137	0.141046	0.229098	6329.596430	32887.871031	3773.755636	15509.617639
93.536500	0.140580	0.074211	0.149144	0.232678	6295.500942	32647.146364	3783.382815	15405.994960
94.036500	0.141997	0.072370	0.148180	0.227929	6344.218071	32846.708187	3791.526133	15543.642739
94.540000	0.143944	0.073634	0.152172	0.230056	6342.783595	32787.287911	3795.564518	15481.795105
95.034500	0.142314	0.073302	0.149294	0.231776	6316.241770	32646.684441	3785.639351	15432.022162
95.534500	0.140325	0.072875	0.146420	0.236884	6260.679792	32270.469672	3768.655110	15285.335007
96.154500	0.141678	0.072836	0.145047	0.233686	6296.202789	32484.556787	3772.510305	15376.959394
96.535000	0.142117	0.072760	0.153670	0.234884	6290.250651	32398.065913	3788.366735	15342.564480
97.035000	0.142303	0.072546	0.149800	0.236730	6277.269865	32258.663441	3776.135301	15289.721751
97.536000	0.138926	0.072657	0.148699	0.241970	6210.696818	31914.520008	3762.757655	15140.993654
98.036500	0.142689	0.072028	0.146016	0.238134	6269.337141	32129.262426	3765.175794	15249.700437
98.536500	0.143033	0.072434	0.148029	0.239733	6259.577539	32049.187943	3766.043953	15204.256312
