sample name	sample
index	1430
start time	 05-10-2021  12:32:38 PM


Wavelength (nm)	Absorbance
494.344910	-0.006303
494.563924	-0.006303
494.782919	-0.006303
495.001897	-0.040258
495.220856	-0.000781
495.439797	-0.001448
495.658719	0.001203
495.877624	-0.000626
496.096510	0.001830
496.315378	0.009814
496.534227	0.013511
496.753059	0.018236
496.971872	0.017129
497.190667	0.083305
497.409444	0.122006
497.628203	0.134646
497.846943	0.138890
498.065665	0.142179
498.284369	0.145513
498.503055	0.147264
498.721723	0.148413
498.940372	0.150225
499.159003	0.150889
499.377616	0.149749
499.596210	0.149038
499.814787	0.150080
500.033345	0.150062
500.251885	0.148392
500.470406	0.148857
500.688910	0.149464
500.907395	0.150025
501.125862	0.150967
501.344311	0.150639
501.562742	0.151407
501.781154	0.151809
501.999548	0.153128
502.217924	0.155118
502.436282	0.154714
502.654621	0.155615
502.872942	0.154986
503.091245	0.154180
503.309530	0.155227
503.527797	0.154626
503.746045	0.153945
503.964275	0.154213
504.182487	0.152857
504.400681	0.154062
504.618856	0.153584
504.837013	0.153971
505.055152	0.154240
505.273273	0.154476
505.491376	0.154423
505.709460	0.154961
505.927526	0.154563
506.145574	0.155068
506.363604	0.154137
506.581615	0.154517
506.799608	0.154564
507.017583	0.155531
507.235540	0.155096
507.453478	0.156048
507.671399	0.156440
507.889301	0.156057
508.107185	0.156002
508.325050	0.156141
508.542898	0.155345
508.760727	0.156032
508.978538	0.156012
509.196330	0.157007
509.414105	0.158600
509.631861	0.158631
509.849599	0.159458
510.067319	0.160143
510.285021	0.160852
510.502704	0.161491
510.720369	0.161199
510.938016	0.159862
511.155645	0.159467
511.373255	0.158208
511.590848	0.159635
511.808422	0.159638
512.025977	0.160369
512.243515	0.160114
512.461034	0.160305
512.678536	0.160990
512.896018	0.161821
513.113483	0.162777
513.330930	0.162585
513.548358	0.162041
513.765768	0.162387
513.983160	0.163098
514.200533	0.164314
514.417889	0.165507
514.635226	0.165690
514.852545	0.165508
515.069845	0.165468
515.287128	0.166465
515.504392	0.165998
515.721638	0.166050
515.938866	0.165429
516.156075	0.164627
516.373267	0.163901
516.590440	0.163826
516.807594	0.164402
517.024731	0.163854
517.241850	0.163691
517.458950	0.164229
517.676032	0.164928
517.893095	0.165112
518.110141	0.165255
518.327168	0.165373
518.544177	0.166253
518.761168	0.166844
518.978141	0.166700
519.195095	0.166720
519.412031	0.167377
519.628949	0.167387
519.845849	0.168271
520.062731	0.169068
520.279594	0.169611
520.496439	0.169719
520.713266	0.170206
520.930074	0.171305
521.146865	0.172137
521.363637	0.172107
521.580391	0.172051
521.797127	0.172039
522.013844	0.171928
522.230543	0.171985
522.447224	0.172043
522.663887	0.171509
522.880532	0.172533
523.097158	0.172484
523.313766	0.173120
523.530356	0.173815
523.746928	0.173895
523.963481	0.173910
524.180017	0.174314
524.396534	0.175395
524.613032	0.176361
524.829513	0.176068
525.045975	0.176446
525.262420	0.176158
525.478845	0.176848
525.695253	0.177394
525.911643	0.177942
526.128014	0.178134
526.344367	0.177419
526.560702	0.176992
526.777018	0.177085
526.993316	0.177099
527.209597	0.177680
527.425858	0.177671
527.642102	0.177523
527.858328	0.178253
528.074535	0.178518
528.290724	0.179252
528.506894	0.180213
528.723047	0.181314
528.939181	0.182055
529.155297	0.182867
529.371395	0.183399
529.587475	0.183361
529.803536	0.183274
530.019579	0.183573
530.235604	0.182970
530.451611	0.183286
530.667600	0.182473
530.883570	0.182605
531.099522	0.182843
531.315456	0.182378
531.531372	0.183496
531.747269	0.183670
531.963148	0.184444
532.179009	0.185060
532.394852	0.185245
532.610676	0.186081
532.826482	0.185802
533.042271	0.186092
533.258040	0.186598
533.473792	0.186784
533.689525	0.187588
533.905240	0.187603
534.120937	0.188144
534.336616	0.188535
534.552277	0.188648
534.767919	0.189507
534.983543	0.189936
535.199149	0.190622
535.414736	0.190468
535.630306	0.190658
535.845857	0.190510
536.061390	0.190692
536.276904	0.190912
536.492401	0.191397
536.707879	0.191665
536.923339	0.191168
537.138781	0.191749
537.354204	0.192205
537.569610	0.192042
537.784997	0.193331
538.000366	0.194079
538.215716	0.194584
538.431049	0.195227
538.646363	0.195885
538.861659	0.196373
539.076937	0.195723
539.292196	0.196134
539.507438	0.196820
539.722661	0.196015
539.937866	0.195876
540.153052	0.195858
540.368221	0.195497
540.583371	0.195673
540.798503	0.195894
541.013617	0.197044
541.228712	0.197610
541.443789	0.197991
541.658848	0.199196
541.873889	0.199415
542.088912	0.200222
542.303916	0.200820
542.518902	0.200757
542.733870	0.201437
542.948820	0.201149
543.163752	0.200826
543.378665	0.201414
543.593560	0.201525
543.808437	0.201864
544.023295	0.201573
544.238136	0.201697
544.452958	0.202474
544.667762	0.202609
544.882548	0.203091
545.097315	0.203482
545.312064	0.203407
545.526795	0.202942
545.741508	0.203245
545.956203	0.203411
546.170879	0.203716
546.385537	0.203478
546.600177	0.203322
546.814799	0.203527
547.029402	0.203964
547.243988	0.203790
547.458555	0.204358
547.673103	0.204623
547.887634	0.204873
548.102146	0.204745
548.316640	0.204979
548.531116	0.205501
548.745574	0.205550
548.960013	0.205950
549.174435	0.206748
549.388838	0.206927
549.603222	0.207112
549.817589	0.207847
550.031937	0.208305
550.246267	0.208699
550.460579	0.208797
550.674873	0.209528
550.889148	0.209689
551.103405	0.209783
551.317644	0.210241
551.531865	0.210617
551.746068	0.210254
551.960252	0.210414
552.174418	0.210651
552.388566	0.211060
552.602696	0.211086
552.816807	0.211353
553.030900	0.211602
553.244975	0.211402
553.459032	0.211449
553.673070	0.212318
553.887091	0.212746
554.101093	0.213299
554.315077	0.213413
554.529042	0.213625
554.742990	0.213290
554.956919	0.213420
555.170830	0.213931
555.384722	0.213976
555.598597	0.213977
555.812453	0.213690
556.026291	0.213649
556.240111	0.213877
556.453913	0.213552
556.667696	0.213890
556.881461	0.213780
557.095208	0.213771
557.308937	0.213712
557.522647	0.213013
557.736339	0.213301
557.950013	0.213278
558.163669	0.213412
558.377307	0.213800
558.590926	0.214035
558.804527	0.214576
559.018110	0.214456
559.231675	0.214544
559.445221	0.215228
559.658749	0.215649
559.872259	0.215558
560.085751	0.215426
560.299225	0.215325
560.512680	0.215174
560.726117	0.214718
560.939536	0.215361
561.152937	0.215769
561.366319	0.215798
561.579683	0.215960
561.793029	0.216470
562.006357	0.216270
562.219667	0.217034
562.432958	0.217527
562.646231	0.218363
562.859486	0.218212
563.072723	0.218686
563.285941	0.218823
563.499141	0.218655
563.712323	0.218412
563.925487	0.219172
564.138632	0.218844
564.351760	0.219063
564.564869	0.218634
564.777960	0.219084
564.991032	0.219123
565.204087	0.219595
565.417123	0.220063
565.630141	0.220576
565.843140	0.220652
566.056122	0.221251
566.269085	0.221400
566.482030	0.221857
566.694957	0.222068
566.907866	0.222203
567.120756	0.221928
567.333628	0.221924
567.546482	0.221790
567.759318	0.221775
567.972135	0.221556
568.184935	0.221320
568.397716	0.221323
568.610478	0.221639
568.823223	0.221545
569.035949	0.222073
569.248657	0.222254
569.461347	0.222404
569.674019	0.222577
569.886672	0.222702
570.099308	0.223041
570.311925	0.223442
570.524523	0.223202
570.737104	0.223374
570.949666	0.223334
571.162210	0.223261
571.374736	0.223213
571.587244	0.223772
571.799733	0.223984
572.012205	0.223766
572.224658	0.223841
572.437092	0.223866
572.649509	0.224254
572.861907	0.224427
573.074287	0.224422
573.286649	0.224830
573.498993	0.224411
573.711318	0.224316
573.923625	0.224787
574.135914	0.224621
574.348185	0.225168
574.560438	0.225422
574.772672	0.225844
574.984888	0.226246
575.197086	0.226425
575.409266	0.227323
575.621427	0.227663
575.833570	0.228084
576.045695	0.228303
576.257802	0.228482
576.469890	0.228676
576.681961	0.228739
576.894013	0.229341
577.106046	0.229344
577.318062	0.229398
577.530059	0.229692
577.742039	0.229862
577.954000	0.229849
578.165942	0.230052
578.377867	0.230005
578.589773	0.230127
578.801661	0.230061
579.013531	0.230655
579.225382	0.230636
579.437216	0.230952
579.649031	0.231104
579.860828	0.231575
580.072606	0.231581
580.284367	0.231700
580.496109	0.231902
580.707833	0.231986
580.919539	0.231629
581.131227	0.231411
581.342896	0.231166
581.554547	0.230891
581.766180	0.231318
581.977795	0.231747
582.189391	0.232217
582.400969	0.232099
582.612529	0.232080
582.824071	0.232788
583.035595	0.233334
583.247100	0.233847
583.458587	0.234110
583.670056	0.234160
583.881506	0.233863
584.092939	0.233754
584.304353	0.234305
584.515749	0.234729
584.727127	0.234933
584.938486	0.234970
585.149828	0.235299
585.361151	0.236177
585.572456	0.236336
585.783742	0.236659
585.995011	0.237105
586.206261	0.237249
586.417493	0.237251
586.628706	0.237247
586.839902	0.238057
587.051079	0.238005
587.262238	0.237951
587.473379	0.238181
587.684502	0.238253
587.895606	0.238490
588.106692	0.238869
588.317760	0.239234
588.528810	0.239441
588.739841	0.239425
588.950855	0.239912
589.161850	0.240080
589.372827	0.240254
589.583785	0.240628
589.794726	0.240375
590.005648	0.240623
590.216552	0.240981
590.427437	0.241239
590.638305	0.241380
590.849154	0.241501
591.059985	0.241659
591.270798	0.242185
591.481592	0.242627
591.692369	0.242878
591.903127	0.242849
592.113867	0.243162
592.324588	0.243262
592.535292	0.243212
592.745977	0.242927
592.956644	0.243314
593.167293	0.243065
593.377923	0.243120
593.588536	0.243732
593.799130	0.243963
594.009706	0.243611
594.220263	0.243671
594.430803	0.244383
594.641324	0.245082
594.851827	0.244632
595.062312	0.244600
595.272778	0.244610
595.483227	0.244593
595.693657	0.244675
595.904069	0.245304
596.114462	0.245727
596.324838	0.245504
596.535195	0.245388
596.745534	0.245324
596.955855	0.245649
597.166157	0.245812
597.376441	0.246126
597.586707	0.246460
597.796955	0.246709
598.007185	0.246900
598.217396	0.246897
598.427589	0.247219
598.637764	0.247876
598.847921	0.247818
599.058060	0.248064
599.268180	0.247903
599.478282	0.247701
599.688366	0.247571
599.898431	0.247484
600.108479	0.247621
600.318508	0.247818
600.528519	0.248009
600.738511	0.248571
600.948486	0.248752
601.158442	0.249123
601.368380	0.249651
601.578300	0.249958
601.788202	0.249891
601.998085	0.249867
602.207950	0.249828
602.417797	0.250049
602.627626	0.250187
602.837436	0.250312
603.047228	0.250239
603.257002	0.249955
603.466758	0.249943
603.676496	0.250425
603.886215	0.250874
604.095916	0.250890
604.305599	0.251193
604.515264	0.251459
604.724910	0.251297
604.934538	0.251411
605.144148	0.251794
605.353740	0.252262
605.563314	0.252350
605.772869	0.252532
605.982406	0.253183
606.191925	0.253395
606.401425	0.253371
606.610908	0.253632
606.820372	0.254037
607.029818	0.254286
607.239246	0.254414
607.448655	0.255008
607.658047	0.255238
607.867420	0.255170
608.076775	0.254628
608.286111	0.254676
608.495430	0.255382
608.704730	0.255386
608.914012	0.255397
609.123275	0.255361
609.332521	0.255343
609.541748	0.255516
609.750957	0.255823
609.960148	0.256615
610.169321	0.256967
610.378475	0.257090
610.587611	0.257617
610.796729	0.257775
611.005829	0.258016
611.214910	0.257979
611.423974	0.257906
611.633019	0.258011
611.842045	0.258222
612.051054	0.258421
612.260044	0.258242
612.469017	0.258105
612.677970	0.258150
612.886906	0.258405
613.095824	0.258501
613.304723	0.259058
613.513604	0.259162
613.722467	0.258977
613.931311	0.259443
614.140138	0.259726
614.348946	0.259846
614.557736	0.260062
614.766507	0.260069
614.975261	0.260819
615.183996	0.260542
615.392713	0.260510
615.601412	0.260796
615.810092	0.260546
616.018754	0.260707
616.227399	0.261159
616.436024	0.261524
616.644632	0.261654
616.853222	0.261596
617.061793	0.262179
617.270346	0.262343
617.478880	0.262778
617.687397	0.262971
617.895895	0.263255
618.104375	0.263595
618.312837	0.263996
618.521281	0.264410
618.729706	0.264440
618.938113	0.264590
619.146502	0.264987
619.354873	0.264871
619.563226	0.265256
619.771560	0.265533
619.979876	0.265334
620.188174	0.265175
620.396453	0.265188
620.604715	0.265265
620.812958	0.264857
621.021183	0.265012
621.229390	0.265217
621.437578	0.265453
621.645748	0.265324
621.853900	0.265622
622.062034	0.265496
622.270150	0.265488
622.478247	0.265618
622.686326	0.266104
622.894387	0.266297
623.102430	0.266547
623.310454	0.266566
623.518461	0.266906
623.726449	0.267021
623.934418	0.267299
624.142370	0.267440
624.350303	0.267575
624.558218	0.267581
624.766115	0.267600
624.973994	0.267369
625.181855	0.267462
625.389697	0.267346
625.597521	0.267364
625.805327	0.267555
626.013114	0.267547
626.220883	0.267609
626.428634	0.267676
626.636367	0.267747
626.844082	0.267830
627.051778	0.267545
627.259457	0.267700
627.467117	0.267869
627.674758	0.267941
627.882382	0.268252
628.089987	0.268423
628.297574	0.268621
628.505143	0.268873
628.712694	0.269365
628.920226	0.269619
629.127740	0.269785
629.335236	0.269892
629.542714	0.270025
629.750174	0.270349
629.957615	0.270574
630.165038	0.270817
630.372443	0.270768
630.579829	0.270885
630.787198	0.271286
630.994548	0.271262
631.201880	0.271263
631.409194	0.271642
631.616489	0.271385
631.823766	0.271564
632.031025	0.271671
632.238266	0.272134
632.445489	0.272639
632.652693	0.272680
632.859879	0.272870
633.067047	0.273011
633.274197	0.273408
633.481329	0.273968
633.688442	0.273936
633.895537	0.273905
634.102614	0.273787
634.309672	0.273545
634.516713	0.273730
634.723735	0.274196
634.930739	0.274668
635.137724	0.274698
635.344692	0.274861
635.551641	0.275382
635.758572	0.275807
635.965485	0.276252
636.172379	0.276570
636.379256	0.276631
636.586114	0.276566
636.792954	0.276692
636.999775	0.276895
637.206579	0.276583
637.413364	0.276632
637.620131	0.277071
637.826880	0.277136
638.033610	0.277310
638.240323	0.277652
638.447017	0.278073
638.653692	0.278363
638.860350	0.278370
639.066990	0.278846
639.273611	0.279090
639.480214	0.279012
639.686798	0.279284
639.893365	0.279620
640.099913	0.280077
640.306443	0.280013
640.512955	0.279849
640.719449	0.280188
640.925924	0.280323
641.132381	0.280558
641.338820	0.280948
641.545241	0.281153
641.751644	0.281289
641.958028	0.281324
642.164394	0.281697
642.370742	0.281967
642.577071	0.281980
642.783383	0.282326
642.989676	0.282372
643.195951	0.282543
643.402207	0.282496
643.608446	0.282702
643.814666	0.282787
644.020868	0.283045
644.227052	0.283188
644.433218	0.283480
644.639365	0.283651
644.845494	0.283746
645.051605	0.283492
645.257698	0.283885
645.463772	0.283901
645.669828	0.283941
645.875866	0.284015
646.081886	0.284234
646.287888	0.284305
646.493871	0.284401
646.699836	0.284502
646.905783	0.284875
647.111712	0.284778
647.317622	0.284922
647.523514	0.285304
647.729388	0.285539
647.935244	0.285943
648.141082	0.286196
648.346901	0.286435
648.552702	0.286345
648.758485	0.286458
648.964250	0.286882
649.169996	0.286873
649.375724	0.286860
649.581434	0.286779
649.787126	0.286650
649.992800	0.286745
650.198455	0.286668
650.404092	0.287065
650.609711	0.287130
650.815311	0.287228
651.020894	0.287625
651.226458	0.287788
651.432004	0.288155
651.637532	0.288163
651.843041	0.288220
652.048532	0.288660
652.254006	0.288868
652.459460	0.289010
652.664897	0.289181
652.870315	0.289204
653.075716	0.289396
653.281097	0.289461
653.486461	0.290014
653.691807	0.290278
653.897134	0.290606
654.102443	0.290732
654.307734	0.291028
654.513006	0.290984
654.718261	0.291211
654.923497	0.291673
655.128715	0.292028
655.333915	0.292222
655.539096	0.292344
655.744259	0.292363
655.949404	0.292557
656.154531	0.292833
656.359640	0.293115
656.564730	0.293473
656.769802	0.293603
656.974856	0.293799
657.179892	0.293863
657.384909	0.293844
657.589908	0.293943
657.794889	0.294313
657.999852	0.294480
658.204797	0.294742
658.409723	0.294829
658.614631	0.295028
658.819521	0.295204
659.024393	0.295603
659.229246	0.295949
659.434081	0.296251
659.638898	0.296519
659.843697	0.296613
660.048478	0.296838
660.253240	0.297045
660.457984	0.297248
660.662710	0.297264
660.867417	0.297567
661.072107	0.297936
661.276778	0.298302
661.481431	0.298390
661.686066	0.298794
661.890682	0.298778
662.095281	0.298899
662.299861	0.299030
662.504422	0.299393
662.708966	0.299130
662.913491	0.299257
663.117999	0.299232
663.322488	0.299378
663.526958	0.299641
663.731411	0.300011
663.935845	0.300148
664.140261	0.300275
664.344659	0.300572
664.549038	0.301159
664.753400	0.301366
664.957743	0.301544
665.162068	0.302020
665.366375	0.302023
665.570663	0.301937
665.774933	0.302094
665.979185	0.302365
666.183419	0.302386
666.387635	0.302372
666.591832	0.302647
666.796011	0.302873
667.000172	0.302974
667.204315	0.303179
667.408439	0.303584
667.612545	0.304070
667.816634	0.304229
668.020703	0.304320
668.224755	0.304520
668.428788	0.304580
668.632803	0.304751
668.836800	0.304978
669.040779	0.305352
669.244739	0.305544
669.448681	0.305638
669.652605	0.305946
669.856511	0.306072
670.060399	0.306232
670.264268	0.306654
670.468119	0.307001
670.671952	0.307032
670.875767	0.307272
671.079563	0.307595
671.283341	0.307771
671.487101	0.307726
671.690843	0.308079
671.894567	0.308390
672.098272	0.308360
672.301959	0.308487
672.505628	0.308541
672.709278	0.308526
672.912911	0.308739
673.116525	0.309039
673.320121	0.309313
673.523699	0.309523
673.727258	0.309804
673.930799	0.310022
674.134322	0.310273
674.337827	0.310560
674.541314	0.310975
674.744782	0.311339
674.948232	0.311620
675.151664	0.312047
675.355078	0.311840
675.558474	0.311848
675.761851	0.312247
675.965210	0.312312
676.168551	0.312655
676.371873	0.312671
676.575178	0.312736
676.778464	0.312706
676.981732	0.312493
677.184981	0.312971
677.388213	0.313196
677.591426	0.313153
677.794621	0.313452
677.997798	0.313649
678.200956	0.313904
678.404097	0.314303
678.607219	0.314499
678.810323	0.314764
679.013408	0.315052
679.216476	0.315334
679.419525	0.315588
679.622556	0.316041
679.825569	0.316145
680.028563	0.316440
680.231540	0.316447
680.434498	0.316621
680.637438	0.316967
680.840359	0.317268
681.043263	0.317394
681.246148	0.317517
681.449015	0.317451
681.651864	0.317787
681.854694	0.317785
682.057506	0.317961
682.260301	0.318418
682.463076	0.318435
682.665834	0.318635
682.868573	0.318963
683.071295	0.319309
683.273998	0.319403
683.476682	0.319514
683.679349	0.319715
683.881997	0.319806
684.084627	0.319729
684.287239	0.320094
684.489833	0.320158
684.692408	0.320063
684.894965	0.320143
685.097504	0.320425
685.300025	0.320463
685.502527	0.320760
685.705012	0.321016
685.907478	0.321293
686.109925	0.321329
686.312355	0.321704
686.514766	0.322045
686.717159	0.322268
686.919534	0.322319
687.121891	0.322467
687.324230	0.322702
687.526550	0.322911
687.728852	0.323091
687.931136	0.323269
688.133401	0.323198
688.335649	0.323353
688.537878	0.323615
688.740089	0.323673
688.942281	0.323983
689.144456	0.323821
689.346612	0.323769
689.548750	0.323757
689.750870	0.324151
689.952971	0.324210
690.155055	0.324382
690.357120	0.324499
690.559167	0.324720
690.761195	0.324680
690.963206	0.325090
691.165198	0.325324
691.367172	0.325738
691.569128	0.325520
691.771065	0.325968
691.972984	0.326095
692.174885	0.326198
692.376768	0.326521
692.578633	0.326971
692.780479	0.327380
692.982308	0.327650
693.184118	0.327784
693.385909	0.328126
693.587683	0.328160
693.789438	0.328456
693.991175	0.328789
694.192894	0.328939
694.394595	0.329069
694.596277	0.329054
694.797941	0.328994
694.999587	0.329377
695.201215	0.329520
695.402824	0.329873
695.604416	0.329937
695.805989	0.330076
696.007543	0.330223
696.209080	0.330309
696.410598	0.330452
696.612099	0.330789
696.813580	0.330417
697.015044	0.330599
697.216490	0.330477
697.417917	0.330544
697.619326	0.330775
697.820717	0.331138
698.022089	0.331140
698.223444	0.331534
698.424780	0.331844
698.626098	0.332098
698.827397	0.332418
699.028679	0.332642
699.229942	0.332898
699.431187	0.332785
699.632414	0.332859
699.833622	0.333180
700.034813	0.332985
700.235985	0.333236
700.437139	0.333592
700.638274	0.333501
700.839392	0.333751
701.040491	0.333872
701.241572	0.334219
701.442635	0.334276
701.643679	0.334481
701.844706	0.334481
702.045714	0.334239
702.246704	0.334359
702.447675	0.334731
702.648629	0.334716
702.849564	0.334700
703.050481	0.334811
703.251380	0.334626
703.452260	0.334770
703.653122	0.334967
703.853966	0.335245
704.054792	0.335305
704.255600	0.335432
704.456389	0.335538
704.657160	0.335585
704.857913	0.335250
705.058648	0.335574
705.259365	0.335510
705.460063	0.335495
705.660743	0.335513
705.861405	0.335506
706.062048	0.335106
706.262674	0.335212
706.463281	0.335487
706.663870	0.335695
706.864441	0.335772
707.064993	0.335587
707.265527	0.335355
707.466043	0.335004
707.666541	0.334878
707.867021	0.335094
708.067482	0.334831
708.267925	0.334681
708.468350	0.334814
708.668757	0.334515
708.869145	0.334812
709.069516	0.335357
709.269868	0.335695
709.470201	0.335857
709.670517	0.335951
709.870814	0.336116
710.071093	0.336165
710.271354	0.335696
710.471597	0.335962
710.671821	0.335990
710.872028	0.335752
711.072216	0.335817
711.272385	0.335725
711.472537	0.335963
711.672670	0.336007
711.872785	0.336178
712.072882	0.337056
712.272961	0.337355
712.473021	0.337392
712.673063	0.337370
712.873087	0.337352
713.073093	0.337473
713.273081	0.337258
713.473050	0.337480
713.673001	0.337282
713.872934	0.337335
714.072849	0.337288
714.272745	0.337203
714.472623	0.337640
714.672483	0.337685
714.872325	0.337977
715.072148	0.338297
715.271954	0.338209
715.471741	0.338233
715.671509	0.337818
715.871260	0.337724
716.070992	0.337715
716.270707	0.337423
716.470403	0.337406
716.670080	0.337020
716.869740	0.336855
717.069381	0.336768
717.269004	0.336716
717.468609	0.336697
717.668195	0.336636
717.867764	0.336882
718.067314	0.336957
718.266846	0.336928
718.466360	0.337080
718.665855	0.337030
718.865332	0.337173
719.064791	0.336910
719.264232	0.336878
719.463655	0.336700
719.663059	0.336238
719.862445	0.335992
720.061813	0.335930
720.261163	0.335473
720.460494	0.335304
720.659807	0.335220
720.859102	0.335508
721.058379	0.335557
721.257638	0.335543
721.456878	0.335902
721.656100	0.335821
721.855304	0.335741
722.054490	0.336248
722.253657	0.336379
722.452806	0.336254
722.651937	0.336338
722.851050	0.336124
723.050145	0.336182
723.249221	0.335711
723.448279	0.335959
723.647319	0.335960
723.846340	0.335728
724.045344	0.335446
724.244329	0.335243
724.443296	0.334917
724.642245	0.334739
724.841175	0.334269
725.040088	0.334223
725.238982	0.333743
725.437857	0.333310
725.636715	0.333168
725.835554	0.333180
726.034376	0.332730
726.233179	0.332501
726.431963	0.332377
726.630730	0.332531
726.829478	0.332085
727.028208	0.331908
727.226920	0.331956
727.425614	0.331713
727.624289	0.331152
727.822946	0.331470
728.021585	0.331491
728.220206	0.331401
728.418808	0.331210
728.617392	0.331581
728.815958	0.331750
729.014506	0.331726
729.213036	0.331518
729.411547	0.331659
729.610040	0.331405
729.808515	0.331326
730.006972	0.331371
730.205410	0.330928
730.403831	0.330524
730.602233	0.330328
730.800616	0.330059
730.998982	0.330017
731.197329	0.329972
731.395658	0.329962
731.593969	0.329701
731.792262	0.329177
731.990536	0.329392
732.188793	0.329241
732.387031	0.328902
732.585250	0.328689
732.783452	0.328501
732.981635	0.328318
733.179800	0.328196
733.377947	0.328191
733.576076	0.327962
733.774186	0.327644
733.972278	0.327611
734.170352	0.327478
734.368408	0.327678
734.566446	0.327496
734.764465	0.327463
734.962466	0.327038
735.160449	0.326809
735.358413	0.326851
735.556360	0.326610
735.754288	0.326357
735.952198	0.326304
736.150090	0.325962
736.347963	0.325800
736.545818	0.325482
736.743655	0.325254
736.941474	0.324908
737.139275	0.324691
737.337057	0.324485
737.534821	0.324167
737.732567	0.323894
737.930295	0.323774
738.128005	0.323243
738.325696	0.322839
738.523369	0.322670
738.721024	0.322611
738.918660	0.322646
739.116279	0.322882
739.313879	0.323247
739.511461	0.323019
739.709024	0.322962
739.906570	0.323173
740.104097	0.323229
740.301606	0.323125
740.499097	0.322792
740.696569	0.322336
740.894024	0.322042
741.091460	0.321513
741.288878	0.321351
741.486277	0.320724
741.683659	0.320573
741.881022	0.319997
742.078367	0.320158
742.275694	0.319996
742.473002	0.320012
742.670293	0.319536
742.867565	0.319135
743.064819	0.319059
743.262054	0.318998
743.459272	0.318927
743.656471	0.319063
743.853652	0.318383
744.050815	0.318082
744.247959	0.317941
744.445085	0.317938
744.642194	0.317806
744.839283	0.317499
745.036355	0.317453
745.233408	0.317252
745.430444	0.316828
745.627461	0.316679
745.824459	0.316561
746.021440	0.316142
746.218402	0.315967
746.415346	0.315885
746.612272	0.315715
746.809180	0.315596
747.006069	0.315273
747.202940	0.315376
747.399793	0.315567
747.596628	0.315798
747.793444	0.315867
747.990243	0.315675
748.187023	0.315650
748.383784	0.315463
748.580528	0.315497
748.777253	0.315413
748.973960	0.315093
749.170649	0.314795
749.367320	0.314377
749.563973	0.314175
749.760607	0.314167
749.957223	0.314092
750.153821	0.314003
750.350400	0.313763
750.546962	0.313650
750.743505	0.313398
750.940030	0.313214
751.136536	0.313187
751.333025	0.313186
751.529495	0.312705
751.725947	0.312216
751.922381	0.312007
752.118796	0.311351
752.315194	0.311004
752.511573	0.311144
752.707934	0.311139
752.904276	0.310769
753.100601	0.310320
753.296907	0.310161
753.493195	0.310215
753.689465	0.310106
753.885716	0.310306
754.081949	0.310309
754.278164	0.310048
754.474361	0.309919
754.670540	0.309886
754.866700	0.309664
755.062843	0.309923
755.258967	0.309981
755.455072	0.309906
755.651160	0.309727
755.847229	0.309609
756.043280	0.309543
756.239313	0.309185
756.435328	0.309180
756.631324	0.309379
756.827302	0.308926
757.023262	0.308434
757.219204	0.308242
757.415127	0.307899
757.611033	0.307418
757.806920	0.307190
758.002788	0.307040
758.198639	0.306878
758.394471	0.306617
758.590286	0.306751
758.786081	0.306436
758.981859	0.306098
759.177619	0.305983
759.373360	0.306028
759.569083	0.305845
759.764788	0.305995
759.960474	0.305610
760.156143	0.305609
760.351793	0.305003
760.547425	0.305339
760.743038	0.305297
760.938634	0.305473
761.134211	0.305412
761.329770	0.305440
761.525311	0.305177
761.720833	0.305028
761.916338	0.304710
762.111824	0.304581
762.307292	0.304315
762.502741	0.304365
762.698173	0.304091
762.893586	0.303915
763.088981	0.303575
763.284358	0.303452
763.479716	0.303436
763.675057	0.303198
763.870379	0.303349
764.065683	0.303141
764.260968	0.303133
764.456236	0.303039
764.651485	0.302840
764.846716	0.303063
765.041929	0.302952
765.237123	0.303080
765.432299	0.302906
765.627457	0.302785
765.822597	0.302752
766.017719	0.302652
766.212822	0.302427
766.407907	0.302527
766.602974	0.301979
766.798023	0.301669
766.993054	0.301352
767.188066	0.301560
767.383060	0.301255
767.578036	0.301088
767.772993	0.300660
767.967933	0.300620
768.162854	0.300175
768.357757	0.300352
768.552642	0.300460
768.747508	0.300430
768.942356	0.299993
769.137186	0.299951
769.331998	0.299834
769.526792	0.300003
769.721567	0.299651
769.916324	0.299933
770.111063	0.299670
770.305784	0.299442
770.500486	0.299109
770.695171	0.299286
770.889837	0.299377
771.084484	0.299263
771.279114	0.299014
771.473725	0.299306
771.668318	0.299136
771.862893	0.299511
772.057450	0.299522
772.251988	0.299647
772.446509	0.299568
772.641011	0.299393
772.835494	0.299387
773.029960	0.299429
773.224407	0.299098
773.418836	0.298971
773.613247	0.298677
773.807640	0.298466
774.002014	0.298177
774.196370	0.298169
774.390708	0.298082
774.585028	0.298142
774.779330	0.298230
774.973613	0.298262
775.167878	0.298126
775.362125	0.297940
775.556354	0.298066
775.750564	0.298292
775.944756	0.298118
776.138930	0.298335
776.333086	0.298152
776.527223	0.297910
776.721343	0.297883
776.915444	0.298025
777.109526	0.298248
777.303591	0.298322
777.497637	0.298007
777.691666	0.298006
777.885676	0.298003
778.079667	0.298018
778.273641	0.297971
778.467596	0.298202
778.661533	0.297981
778.855452	0.297948
779.049352	0.297833
779.243235	0.298053
779.437099	0.298149
779.630945	0.297931
779.824773	0.297958
780.018582	0.298049
780.212373	0.297620
780.406146	0.297731
780.599901	0.297587
780.793638	0.297762
780.987356	0.297723
781.181056	0.297735
781.374738	0.298007
781.568402	0.298172
781.762047	0.298320
781.955674	0.298647
782.149283	0.298862
782.342874	0.298819
782.536447	0.298592
782.730001	0.298613
782.923537	0.298829
783.117055	0.298822
783.310555	0.298674
783.504036	0.298591
783.697499	0.298678
783.890944	0.298633
784.084371	0.298954
784.277780	0.299344
784.471170	0.299644
784.664542	0.299635
784.857896	0.299633
785.051231	0.300151
785.244549	0.300286
785.437848	0.300393
785.631129	0.300685
785.824392	0.300904
786.017636	0.300747
786.210863	0.300881
786.404071	0.301083
786.597260	0.301138
786.790432	0.300810
786.983585	0.301196
787.176721	0.301161
787.369838	0.301055
787.562936	0.300904
787.756017	0.301036
787.949079	0.301015
788.142123	0.300843
788.335149	0.300968
788.528156	0.301183
788.721146	0.301047
788.914117	0.301411
789.107070	0.301522
789.300005	0.301747
789.492921	0.301933
789.685819	0.302131
789.878699	0.302313
790.071561	0.302580
790.264405	0.302710
790.457230	0.302707
790.650037	0.302699
790.842826	0.302744
791.035597	0.302904
791.228349	0.302736
791.421084	0.302771
791.613800	0.302926
791.806497	0.302937
791.999177	0.302930
792.191838	0.303257
792.384481	0.303200
792.577106	0.303376
792.769713	0.303270
792.962301	0.303721
793.154871	0.303834
793.347423	0.303912
793.539957	0.304029
793.732473	0.304243
793.924970	0.304411
794.117449	0.304627
794.309910	0.304901
794.502353	0.305366
794.694777	0.305398
794.887183	0.305721
795.079571	0.306090
795.271941	0.306415
795.464293	0.306717
795.656626	0.306875
795.848941	0.307193
796.041238	0.307496
796.233516	0.307555
796.425777	0.308101
796.618019	0.308274
796.810243	0.308461
797.002449	0.308485
797.194636	0.308848
797.386805	0.308983
797.578956	0.309035
797.771089	0.308956
797.963204	0.309273
798.155300	0.309068
798.347378	0.309300
798.539438	0.309733
798.731480	0.310114
798.923503	0.310122
799.115509	0.310822
799.307496	0.311335
799.499465	0.311679
799.691415	0.311552
799.883348	0.311979
800.075262	0.312169
800.267158	0.312051
800.459035	0.312282
800.650895	0.312517
800.842736	0.312286
801.034559	0.312495
801.226364	0.312917
801.418150	0.313235
801.609919	0.313438
801.801669	0.313622
801.993401	0.314328
802.185114	0.314454
802.376810	0.314768
802.568487	0.314820
802.760146	0.314804
802.951787	0.314882
803.143409	0.315272
803.335014	0.315505
803.526600	0.315733
803.718168	0.315329
803.909717	0.315511
804.101249	0.315618
804.292762	0.316052
804.484257	0.316505
804.675734	0.316844
804.867192	0.317144
805.058632	0.317332
805.250054	0.317768
805.441458	0.318210
805.632844	0.318712
805.824211	0.318816
806.015561	0.319312
806.206891	0.319403
806.398204	0.319889
806.589499	0.320099
806.780775	0.320467
806.972033	0.320422
807.163273	0.320838
807.354495	0.320854
807.545698	0.321426
807.736883	0.321332
807.928050	0.322100
808.119199	0.322224
808.310329	0.322672
808.501441	0.323168
808.692535	0.323598
808.883611	0.323892
809.074669	0.324236
809.265708	0.324648
809.456729	0.325173
809.647732	0.325171
809.838717	0.325458
810.029683	0.325729
810.220632	0.326025
810.411562	0.326671
810.602474	0.327203
810.793367	0.327887
810.984242	0.328229
811.175100	0.328711
811.365938	0.328966
811.556759	0.329092
811.747562	0.329327
811.938346	0.329533
812.129112	0.329964
812.319860	0.330150
812.510589	0.330488
812.701300	0.330800
812.891994	0.330954
813.082668	0.331432
813.273325	0.332045
813.463964	0.332279
813.654584	0.332778
813.845186	0.333035
814.035769	0.333431
814.226335	0.334064
814.416882	0.334295
814.607411	0.334844
814.797922	0.335062
814.988415	0.335427
815.178889	0.335944
815.369345	0.336509
815.559783	0.336769
815.750203	0.336834
815.940605	0.336856
816.130988	0.337660
816.321353	0.337574
816.511700	0.338338
816.702028	0.338758
816.892339	0.339253
817.082631	0.339299
817.272905	0.339627
817.463161	0.340450
817.653398	0.340713
817.843617	0.340767
818.033819	0.341456
818.224001	0.341492
818.414166	0.341734
818.604312	0.342193
818.794440	0.342644
818.984550	0.342752
819.174642	0.342673
819.364716	0.342875
819.554771	0.343044
819.744808	0.343078
819.934827	0.343385
820.124827	0.343534
820.314810	0.343683
820.504774	0.343554
820.694720	0.344133
820.884647	0.344718
821.074557	0.345217
821.264448	0.345517
821.454321	0.346379
821.644176	0.346769
821.834012	0.347387
822.023831	0.347884
822.213631	0.348433
822.403413	0.348712
822.593176	0.348859
822.782922	0.349505
822.972649	0.350000
823.162358	0.350299
823.352049	0.350830
823.541721	0.351389
823.731376	0.351723
823.921012	0.352381
824.110629	0.352875
824.300229	0.353485
824.489811	0.353885
824.679374	0.354509
824.868919	0.354664
825.058445	0.354920
825.247954	0.355241
825.437444	0.355487
825.626916	0.356288
825.816370	0.356624
826.005806	0.357105
826.195223	0.357445
826.384622	0.357696
826.574003	0.358068
826.763366	0.358532
826.952711	0.358851
827.142037	0.359291
827.331345	0.359307
827.520635	0.359572
827.709906	0.359923
827.899160	0.360061
828.088395	0.360566
828.277612	0.361020
828.466810	0.361466
828.655991	0.361672
828.845153	0.361867
829.034297	0.362149
829.223423	0.362741
829.412531	0.363091
829.601620	0.363476
829.790691	0.363879
829.979744	0.364319
830.168779	0.364832
830.357795	0.365441
830.546793	0.366322
830.735773	0.366806
830.924735	0.367180
831.113679	0.367575
831.302604	0.367805
831.491511	0.368013
831.680400	0.368668
831.869271	0.368930
832.058123	0.369403
832.246957	0.369613
832.435773	0.369788
832.624571	0.370228
832.813351	0.370587
833.002112	0.370984
833.190855	0.371540
833.379580	0.371797
833.568287	0.372349
833.756975	0.372618
833.945645	0.372945
834.134297	0.373451
834.322931	0.373802
834.511547	0.374234
834.700144	0.375106
834.888723	0.375510
835.077284	0.376310
835.265826	0.376581
835.454351	0.377041
835.642857	0.377751
835.831345	0.378894
836.019815	0.379644
836.208266	0.380246
836.396699	0.380664
836.585114	0.381580
836.773511	0.381544
836.961890	0.382384
837.150250	0.383146
837.338592	0.383652
837.526916	0.383775
837.715222	0.384390
837.903510	0.384867
838.091779	0.385299
838.280030	0.385597
838.468263	0.386417
838.656477	0.387002
838.844674	0.387711
839.032852	0.388115
839.221012	0.388587
839.409153	0.388941
839.597277	0.389539
839.785382	0.390480
839.973469	0.390852
840.161538	0.391270
840.349589	0.391711
840.537621	0.391871
840.725635	0.392374
840.913631	0.392425
841.101609	0.392959
841.289568	0.393696
841.477509	0.394479
841.665432	0.394826
841.853337	0.395169
842.041224	0.395577
842.229092	0.396112
842.416942	0.396524
842.604774	0.397319
842.792588	0.397829
842.980383	0.398153
843.168160	0.398028
843.355919	0.398758
843.543660	0.399541
843.731382	0.400220
843.919087	0.400689
844.106773	0.401310
844.294441	0.401795
844.482090	0.402546
844.669722	0.403117
844.857335	0.403963
845.044930	0.404736
845.232507	0.405450
845.420065	0.405760
845.607605	0.406502
845.795127	0.407192
845.982631	0.408250
846.170117	0.408761
846.357584	0.408989
846.545033	0.409049
846.732464	0.409367
846.919877	0.410320
847.107272	0.410537
847.294648	0.411050
847.482006	0.411534
847.669346	0.411472
847.856667	0.411495
848.043971	0.412143
848.231256	0.412334
848.418523	0.412505
848.605771	0.412395
848.793002	0.413216
848.980214	0.413893
849.167408	0.414044
849.354584	0.414719
849.541742	0.415209
849.728881	0.416004
849.916002	0.416867
850.103105	0.417463
850.290190	0.417771
850.477256	0.418195
850.664304	0.418133
850.851334	0.418560
851.038346	0.418754
851.225340	0.419411
851.412315	0.419624
851.599272	0.419866
851.786211	0.420659
851.973132	0.421304
852.160034	0.421658
852.346918	0.422270
852.533784	0.423469
852.720632	0.424027
852.907462	0.424464
853.094273	0.425150
853.281066	0.426038
853.467841	0.426072
853.654598	0.426313
853.841336	0.426902
854.028056	0.427235
854.214758	0.426787
854.401442	0.427549
854.588107	0.427924
854.774755	0.427640
854.961384	0.428030
855.147995	0.428716
855.334587	0.429163
855.521162	0.429721
855.707718	0.430204
855.894256	0.431232
856.080775	0.431054
856.267277	0.431521
856.453760	0.432665
856.640225	0.432790
856.826672	0.432915
857.013101	0.433281
857.199511	0.433772
857.385903	0.434437
857.572277	0.434840
857.758633	0.435505
857.944970	0.435819
858.131290	0.435983
858.317591	0.436544
858.503873	0.437477
858.690138	0.438080
858.876384	0.437964
859.062612	0.438129
859.248822	0.438535
859.435014	0.438981
859.621188	0.439834
859.807343	0.440425
859.993480	0.441004
860.179599	0.441417
860.365699	0.441584
860.551781	0.442104
860.737846	0.442615
860.923891	0.442997
861.109919	0.443298
861.295929	0.443235
861.481920	0.443731
861.667893	0.444103
861.853848	0.444077
862.039784	0.444606
862.225702	0.445232
862.411603	0.445399
862.597484	0.445931
862.783348	0.447002
862.969193	0.447717
863.155021	0.447979
863.340830	0.448395
863.526620	0.448687
863.712393	0.449500
863.898147	0.449853
864.083883	0.450620
864.269601	0.451143
864.455301	0.451251
864.640982	0.451512
864.826645	0.451853
865.012290	0.452520
865.197917	0.453680
865.383526	0.453841
865.569116	0.454184
865.754688	0.454350
865.940242	0.454072
866.125777	0.454421
866.311295	0.454796
866.496794	0.455149
866.682275	0.455021
866.867737	0.454719
867.053182	0.455366
867.238608	0.455560
867.424016	0.456117
867.609406	0.457286
867.794778	0.457743
867.980131	0.458195
868.165466	0.458253
868.350783	0.458824
868.536082	0.459454
868.721362	0.459635
868.906625	0.460051
869.091869	0.460226
869.277094	0.460271
869.462302	0.460353
869.647491	0.460733
869.832662	0.461207
870.017815	0.461294
870.202950	0.461456
870.388066	0.461423
870.573165	0.461657
870.758245	0.462547
870.943306	0.462273
871.128350	0.462985
871.313375	0.463489
871.498382	0.463375
871.683371	0.463802
871.868342	0.464522
872.053294	0.465567
872.238229	0.466510
872.423144	0.466341
872.608042	0.467220
872.792922	0.467294
872.977783	0.467195
873.162626	0.468028
873.347451	0.468552
873.532258	0.468685
873.717046	0.468447
873.901816	0.468160
874.086568	0.468676
874.271302	0.469070
874.456017	0.469692
874.640715	0.470206
874.825394	0.470561
875.010055	0.470562
875.194697	0.470761
875.379322	0.471338
875.563928	0.471973
875.748516	0.471845
875.933085	0.471328
876.117637	0.471389
876.302170	0.471846
876.486685	0.471750
876.671182	0.472269
876.855661	0.472180
877.040121	0.471896
877.224563	0.472459
877.408987	0.473012
877.593393	0.473550
877.777780	0.473233
877.962150	0.473165
878.146501	0.473719
878.330833	0.473794
878.515148	0.474174
878.699444	0.474887
878.883722	0.474677
879.067982	0.474665
879.252224	0.474581
879.436447	0.474978
879.620653	0.474951
879.804840	0.474984
879.989008	0.474723
880.173159	0.474611
880.357291	0.474182
880.541405	0.473853
880.725501	0.474148
880.909579	0.474464
881.093638	0.474200
881.277680	0.474507
881.461703	0.474947
881.645707	0.475701
881.829694	0.476055
882.013662	0.476608
882.197612	0.477034
882.381544	0.476832
882.565458	0.477295
882.749353	0.478189
882.933230	0.478026
883.117089	0.477880
883.300930	0.477663
883.484753	0.478163
883.668557	0.478635
883.852343	0.478928
884.036111	0.479515
884.219861	0.478973
884.403592	0.478844
884.587305	0.479419
884.771000	0.479600
884.954677	0.480001
885.138335	0.479610
885.321976	0.479041
885.505598	0.478663
885.689201	0.478370
885.872787	0.478895
886.056354	0.479002
886.239904	0.478418
886.423434	0.478610
886.606947	0.478000
886.790442	0.478109
886.973918	0.478264
887.157376	0.478887
887.340816	0.478930
887.524237	0.479367
887.707641	0.478929
887.891026	0.479077
888.074393	0.478897
888.257741	0.479433
888.441072	0.479620
888.624384	0.479892
888.807678	0.479874
888.990954	0.479578
889.174211	0.479025
889.357451	0.479424
889.540672	0.479647
889.723875	0.479587
889.907059	0.479524
890.090226	0.479619
890.273374	0.479301
890.456504	0.478759
890.639616	0.479121
890.822709	0.479126
891.005785	0.478969
891.188842	0.478702
891.371881	0.478852
891.554901	0.479026
891.737904	0.478616
891.920888	0.478825
892.103854	0.478489
892.286802	0.477964
892.469731	0.478217
892.652643	0.478382
892.835536	0.478312
893.018410	0.478185
893.201267	0.477621
893.384106	0.477871
893.566926	0.477227
893.749728	0.477842
893.932511	0.478592
894.115277	0.478332
894.298024	0.478261
894.480753	0.478922
894.663464	0.478422
894.846157	0.479266
895.028831	0.478781
895.211487	0.479065
895.394125	0.478773
895.576745	0.478181
895.759346	0.477946
895.941930	0.476813
896.124495	0.476246
896.307041	0.476290
896.489570	0.475503
896.672080	0.476143
896.854573	0.475866
897.037046	0.475510
897.219502	0.475231
897.401940	0.475085
897.584359	0.475502
897.766760	0.475201
897.949143	0.474477
898.131507	0.474269
898.313854	0.472779
898.496182	0.472792
898.678492	0.472864
898.860783	0.472684
899.043057	0.472010
899.225312	0.472292
899.407549	0.472397
899.589768	0.472684
899.771968	0.472110
899.954151	0.472560
900.136315	0.471968
900.318461	0.471432
900.500588	0.470815
900.682698	0.471054
900.864789	0.470002
901.046862	0.469344
901.228917	0.468848
901.410953	0.468295
901.592971	0.467053
901.774972	0.466559
901.956953	0.466178
902.138917	0.465829
902.320862	0.464912
902.502790	0.464731
902.684699	0.463986
902.866589	0.463586
903.048462	0.463825
903.230316	0.463881
903.412152	0.463607
903.593970	0.463347
903.775770	0.462966
903.957551	0.462743
904.139314	0.462412
904.321059	0.462249
904.502786	0.461493
904.684494	0.460806
904.866185	0.460494
905.047857	0.459897
905.229510	0.459144
905.411146	0.458824
905.592763	0.458209
905.774363	0.457419
905.955943	0.456674
906.137506	0.456250
906.319051	0.455847
906.500577	0.455108
906.682085	0.454758
906.863575	0.454810
907.045046	0.454009
907.226500	0.453727
907.407935	0.453591
907.589352	0.453258
907.770750	0.452769
907.952131	0.452485
908.133493	0.452645
908.314837	0.451798
908.496163	0.450805
908.677470	0.450578
908.858760	0.449821
909.040031	0.449866
909.221284	0.449558
909.402518	0.449432
909.583735	0.448548
909.764933	0.447579
909.946113	0.447773
910.127275	0.447384
910.308418	0.446534
910.489544	0.446219
910.670651	0.445165
910.851740	0.444355
911.032810	0.443441
911.213863	0.442242
911.394897	0.441363
911.575913	0.439931
911.756911	0.439458
911.937890	0.439129
912.118851	0.438001
912.299794	0.436141
912.480719	0.435328
912.661626	0.434546
912.842514	0.433780
913.023384	0.433342
913.204236	0.432527
913.385070	0.431718
913.565886	0.430785
913.746683	0.430441
913.927462	0.430797
914.108223	0.429884
914.288965	0.428745
914.469690	0.428097
914.650396	0.427224
914.831084	0.426772
915.011754	0.425448
915.192405	0.424999
915.373038	0.424064
915.553653	0.422973
915.734250	0.422233
915.914829	0.422406
916.095389	0.422024
916.275931	0.422000
916.456455	0.421844
916.636961	0.421513
916.817448	0.421258
916.997917	0.420620
917.178368	0.420091
917.358801	0.419988
917.539216	0.418575
917.719612	0.418014
917.899990	0.416810
918.080350	0.415069
918.260692	0.413832
918.441015	0.413055
918.621320	0.412076
918.801607	0.411486
918.981876	0.410158
919.162127	0.410539
919.342359	0.409820
919.522573	0.408403
919.702769	0.407711
919.882947	0.407279
920.063106	0.405935
920.243247	0.405577
920.423370	0.404584
920.603475	0.403831
920.783562	0.402667
920.963630	0.401599
921.143680	0.401225
921.323712	0.401390
921.503725	0.401063
921.683721	0.400328
921.863698	0.400255
922.043657	0.399174
922.223598	0.399028
922.403520	0.397651
922.583424	0.396094
922.763311	0.396291
922.943178	0.394376
923.123028	0.393225
923.302859	0.392415
923.482673	0.390500
923.662467	0.389849
923.842244	0.388498
924.022003	0.387935
924.201743	0.387344
924.381465	0.385661
924.561169	0.384966
924.740854	0.383865
924.920522	0.382001
925.100171	0.381387
925.279802	0.380495
925.459414	0.379217
925.639009	0.378094
925.818585	0.377525
925.998143	0.376756
926.177683	0.376581
926.357205	0.376035
926.536708	0.375511
926.716193	0.373909
926.895660	0.372605
927.075109	0.371533
927.254539	0.370697
927.433951	0.369745
927.613345	0.368429
927.792721	0.366689
927.972079	0.365183
928.151418	0.364660
928.330739	0.364009
928.510042	0.363113
928.689327	0.361135
928.868593	0.359532
929.047841	0.358340
929.227071	0.358012
929.406283	0.357049
929.585476	0.355016
929.764652	0.353710
929.943809	0.353105
930.122948	0.351369
930.302068	0.350902
930.481171	0.349874
930.660255	0.348900
930.839321	0.346107
931.018369	0.344672
931.197398	0.344088
931.376409	0.343002
931.555402	0.341636
931.734377	0.341299
931.913334	0.339796
932.092272	0.338544
932.271192	0.336170
932.450094	0.335346
932.628978	0.333453
932.807844	0.332183
932.986691	0.330223
933.165520	0.328090
933.344331	0.326681
933.523123	0.325875
933.701898	0.324737
933.880654	0.324814
934.059392	0.323743
934.238111	0.323647
934.416813	0.321820
934.595496	0.321387
934.774161	0.320734
934.952808	0.319955
935.131437	0.319137
935.310047	0.317690
935.488639	0.316592
935.667213	0.315620
935.845769	0.313825
936.024306	0.313251
936.202825	0.310791
936.381326	0.308971
936.559809	0.306750
936.738274	0.306162
936.916720	0.305340
937.095148	0.303370
937.273558	0.301403
937.451950	0.300029
937.630323	0.299185
937.808678	0.299592
937.987015	0.298761
938.165334	0.297722
938.343635	0.295817
938.521917	0.294337
938.700181	0.294227
938.878427	0.294386
939.056655	0.293829
939.234864	0.293428
939.413055	0.290767
939.591228	0.289173
939.769383	0.288336
939.947519	0.286613
940.125638	0.285558
940.303738	0.282258
940.481820	0.279573
940.659883	0.277706
940.837929	0.274860
941.015956	0.273477
941.193965	0.272572
941.371955	0.271080
941.549928	0.269183
941.727882	0.267906
941.905818	0.267037
942.083736	0.266741
942.261636	0.266030
942.439517	0.264992
942.617380	0.264341
942.795225	0.262933
942.973052	0.261987
943.150860	0.260996
943.328651	0.258944
943.506423	0.257857
943.684176	0.256921
943.861912	0.254383
944.039629	0.253919
944.217328	0.251187
944.395009	0.249206
944.572672	0.247792
944.750317	0.247776
944.927943	0.247592
945.105551	0.247593
945.283141	0.244669
945.460712	0.244701
945.638265	0.241959
945.815801	0.242522
945.993317	0.242769
946.170816	0.241609
946.348297	0.238827
946.525759	0.237364
946.703203	0.233556
946.880629	0.232906
947.058036	0.230949
947.235425	0.229056
947.412797	0.228330
947.590149	0.225801
947.767484	0.223919
947.944800	0.223190
948.122099	0.221165
948.299379	0.220740
948.476640	0.219173
948.653884	0.217428
948.831109	0.217983
949.008316	0.215048
949.185505	0.213174
949.362676	0.213556
949.539828	0.213591
949.716962	0.211425
949.894078	0.212382
950.071176	0.211220
950.248256	0.208775
950.425317	0.207395
950.602360	0.207175
950.779385	0.205653
950.956391	0.203570
951.133380	0.201394
951.310350	0.201431
951.487302	0.198663
951.664235	0.197974
951.841151	0.198348
952.018048	0.196499
952.194927	0.194131
952.371788	0.194029
952.548631	0.189905
952.725455	0.187946
952.902261	0.186798
953.079049	0.184374
953.255819	0.183023
953.432570	0.182395
953.609303	0.182094
953.786018	0.181295
953.962715	0.179864
954.139394	0.182269
954.316054	0.180410
954.492696	0.179765
954.669320	0.180514
954.845926	0.179353
955.022513	0.178737
955.199083	0.177294
955.375634	0.177428
955.552166	0.177501
955.728681	0.175656
955.905177	0.176950
956.081655	0.174919
956.258115	0.174119
956.434557	0.170872
956.610980	0.166613
956.787385	0.165006
956.963772	0.162955
957.140141	0.161298
957.316492	0.159686
957.492824	0.157771
957.669138	0.157574
957.845434	0.155466
958.021712	0.157045
958.197971	0.159006
958.374212	0.158273
958.550435	0.157363
958.726640	0.157675
958.902826	0.157313
959.078995	0.156655
959.255145	0.155439
959.431277	0.156150
959.607390	0.154790
959.783486	0.153981
959.959563	0.152346
960.135622	0.149165
960.311662	0.147814
960.487685	0.147501
960.663689	0.147478
960.839675	0.147662
961.015643	0.145970
961.191593	0.144228
961.367524	0.143122
961.543437	0.143063
961.719332	0.145358
961.895209	0.143280
962.071067	0.143610
962.246907	0.142311
962.422730	0.140887
962.598533	0.142278
962.774319	0.142643
962.950086	0.141933
963.125835	0.142852
963.301566	0.141591
963.477279	0.143022
963.652973	0.139353
963.828650	0.140041
964.004308	0.139408
964.179947	0.136608
964.355569	0.136822
964.531172	0.136109
964.706757	0.134904
964.882324	0.134057
965.057873	0.134390
965.233403	0.133793
965.408916	0.133419
965.584410	0.133405
965.759885	0.133512
965.935343	0.133313
966.110782	0.135884
966.286203	0.134689
966.461606	0.134175
966.636991	0.132366
966.812357	0.136023
966.987705	0.135106
967.163035	0.135726
967.338347	0.137369
967.513641	0.135953
967.688916	0.132886
967.864173	0.136500
968.039412	0.139932
968.214632	0.141024
968.389835	0.138334
968.565019	0.137355
968.740185	0.138418
968.915333	0.136884
969.090462	0.136642
969.265573	0.137229
969.440667	0.135222
969.615741	0.133257
969.790798	0.133917
969.965836	0.134820
970.140856	0.136824
970.315858	0.135108
970.490842	0.135119
970.665808	0.137752
970.840755	0.137463
971.015684	0.136248
971.190595	0.136976
971.365487	0.136531
971.540362	0.137601
971.715218	0.138128
971.890056	0.135983
972.064875	0.133764
972.239677	0.133372
972.414460	0.135384
972.589225	0.136175
972.763972	0.135669
972.938700	0.135020
973.113411	0.132372
973.288103	0.128636
973.462777	0.131689
973.637432	0.132955
973.812070	0.131342
973.986689	0.128784
974.161290	0.129182
974.335873	0.129739
974.510437	0.129776
974.684984	0.130586
974.859512	0.131557
975.034022	0.130351
975.208513	0.131393
975.382987	0.131656
975.557442	0.133929
975.731879	0.134235
975.906298	0.132028
976.080698	0.132610
976.255080	0.132720
976.429445	0.134902
976.603790	0.135793
976.778118	0.135529
976.952427	0.135811
977.126719	0.137066
977.300992	0.136230
977.475246	0.138108
977.649483	0.136804
977.823701	0.137067
977.997901	0.134765
978.172083	0.136172
978.346247	0.136951
978.520392	0.136972
978.694519	0.134199
978.868628	0.136191
979.042719	0.135092
979.216791	0.136897
979.390845	0.137988
979.564882	0.140086
979.738899	0.137995
979.912899	0.139585
980.086880	0.140221
980.260843	0.141056
980.434788	0.142250
980.608715	0.141849
980.782623	0.140350
980.956514	0.139090
981.130386	0.137213
981.304240	0.138463
981.478075	0.137070
981.651892	0.136132
981.825692	0.135202
981.999472	0.132943
982.173235	0.134587
982.346980	0.133751
982.520706	0.132396
982.694414	0.133605
982.868104	0.132642
983.041775	0.131185
983.215428	0.132445
983.389064	0.132302
983.562680	0.131167
983.736279	0.131419
983.909860	0.134182
984.083422	0.135566
984.256966	0.137001
984.430491	0.136493
984.603999	0.139070
984.777488	0.138090
984.950959	0.139273
985.124412	0.140426
985.297847	0.138159
985.471263	0.137527
985.644661	0.137835
985.818041	0.136343
985.991403	0.138157
986.164747	0.136066
986.338072	0.136491
986.511379	0.134803
986.684668	0.136392
986.857938	0.138038
987.031191	0.136699
987.204425	0.136907
987.377641	0.138030
987.550839	0.137734
987.724018	0.140260
987.897179	0.139880
988.070322	0.141133
988.243447	0.138039
988.416554	0.137299
988.589642	0.137508
988.762712	0.135931
988.935764	0.135101
989.108798	0.134000
989.281813	0.132062
989.454811	0.132810
989.627790	0.132229
989.800751	0.133290
989.973693	0.136222
990.146617	0.135583
990.319524	0.137654
990.492412	0.138346
990.665281	0.139899
990.838133	0.139353
991.010966	0.139745
991.183781	0.139586
991.356578	0.140487
991.529356	0.137449
991.702117	0.138006
991.874859	0.139277
992.047583	0.138229
992.220288	0.137784
992.392976	0.137115
992.565645	0.136150
992.738296	0.137286
992.910929	0.136943
993.083543	0.138817
993.256139	0.141044
993.428718	0.140284
993.601277	0.141399
993.773819	0.141500
993.946342	0.142237
994.118848	0.141650
994.291335	0.141043
994.463803	0.140255
994.636254	0.138153
994.808686	0.136041
994.981100	0.135338
995.153496	0.134409
995.325874	0.132557
995.498233	0.132461
995.670574	0.133066
995.842897	0.132111
996.015202	0.131948
996.187488	0.133117
996.359757	0.132790
996.532007	0.132575
996.704239	0.134065
996.876452	0.135894
997.048648	0.134733
997.220825	0.136620
997.392984	0.138455
997.565124	0.138902
997.737247	0.139896
997.909351	0.141266
998.081437	0.142297
998.253505	0.141424
998.425554	0.140789
998.597586	0.143350
998.769599	0.141131
998.941594	0.140646
999.113571	0.140031
999.285529	0.139894
999.457469	0.139456
999.629391	0.138774
999.801295	0.137330
999.973181	0.137011
1000.145048	0.138102
1000.316897	0.136932
1000.488728	0.136321
1000.660541	0.135699
1000.832335	0.135943
1001.004111	0.136067
1001.175869	0.135449
1001.347609	0.137332
1001.519331	0.137974
1001.691034	0.137108
1001.862719	0.138030
1002.034386	0.139350
1002.206035	0.141807
1002.377665	0.141362
1002.549277	0.141502
1002.720871	0.142006
1002.892447	0.141118
1003.064004	0.141456
1003.235544	0.140451
1003.407065	0.140715
1003.578568	0.140471
1003.750052	0.139098
1003.921519	0.138561
1004.092967	0.137579
1004.264397	0.137687
1004.435809	0.137071
1004.607202	0.137299
1004.778577	0.137087
1004.949934	0.138409
1005.121273	0.138383
1005.292594	0.137998
1005.463896	0.137040
1005.635180	0.137261
1005.806446	0.135709
1005.977694	0.135236
1006.148923	0.134180
1006.320135	0.134742
1006.491328	0.133246
1006.662503	0.132432
1006.833659	0.132119
1007.004798	0.132065
1007.175918	0.132080
1007.347020	0.132860
1007.518103	0.133134
1007.689169	0.133156
1007.860216	0.134419
1008.031245	0.134493
1008.202256	0.134566
1008.373248	0.135191
1008.544223	0.135937
1008.715179	0.136032
1008.886117	0.135572
1009.057036	0.135866
1009.227938	0.136635
1009.398821	0.134442
1009.569686	0.133694
1009.740533	0.133514
1009.911361	0.134153
1010.082172	0.133365
1010.252964	0.132695
1010.423738	0.132721
1010.594493	0.133541
1010.765231	0.133890
1010.935950	0.135018
1011.106651	0.135865
1011.277334	0.135423
1011.447998	0.135536
1011.618645	0.136857
1011.789273	0.137385
1011.959882	0.134996
1012.130474	0.133991
1012.301048	0.133475
1012.471603	0.134374
1012.642140	0.134154
1012.812658	0.133910
1012.983159	0.134738
1013.153641	0.134365
1013.324105	0.134531
1013.494551	0.135976
1013.664979	0.134767
1013.835388	0.134304
1014.005779	0.133132
1014.176152	0.134565
1014.346507	0.134592
1014.516843	0.132610
1014.687162	0.131485
1014.857462	0.132665
1015.027744	0.133921
1015.198007	0.135070
1015.368252	0.134754
1015.538480	0.134016
1015.708689	0.133742
1015.878879	0.134596
1016.049052	0.134894
1016.219206	0.134592
1016.389342	0.132557
1016.559460	0.133757
1016.729559	0.134798
1016.899641	0.135551
1017.069704	0.135876
1017.239749	0.136201
1017.409775	0.134910
1017.579784	0.134119
1017.749774	0.134504
1017.919746	0.135606
1018.089700	0.134584
1018.259635	0.134585
1018.429553	0.134600
1018.599452	0.133684
1018.769333	0.132925
1018.939195	0.133986
1019.109040	0.134604
1019.278866	0.136209
1019.448674	0.136603
1019.618464	0.135156
1019.788235	0.135260
1019.957989	0.133630
1020.127724	0.134354
1020.297441	0.133277
1020.467139	0.133035
1020.636820	0.133994
1020.806482	0.134292
1020.976126	0.133236
1021.145752	0.132743
1021.315359	0.132169
1021.484948	0.134387
1021.654519	0.133621
1021.824072	0.134572
1021.993607	0.134719
1022.163123	0.132907
1022.332621	0.132939
1022.502101	0.132082
1022.671563	0.135250
1022.841007	0.135077
1023.010432	0.133690
1023.179839	0.134041
1023.349228	0.133756
1023.518598	0.133270
1023.687951	0.136371
1023.857285	0.134865
1024.026601	0.135994
1024.195899	0.134849
1024.365178	0.135491
1024.534439	0.133645
1024.703682	0.133683
1024.872907	0.134510
1025.042114	0.134932
1025.211302	0.133668
1025.380472	0.132004
1025.549624	0.130454
1025.718758	0.129822
1025.887873	0.128644
1026.056970	0.129885
1026.226049	0.129012
1026.395110	0.126750
1026.564153	0.126202
1026.733177	0.125025
1026.902183	0.126750
1027.071171	0.126624
1027.240141	0.125300
1027.409092	0.125490
1027.578026	0.125697
1027.746940	0.127271
1027.915837	0.129627
1028.084716	0.130045
1028.253576	0.131704
1028.422418	0.129641
1028.591242	0.131863
1028.760048	0.133512
1028.928835	0.134173
1029.097604	0.134424
1029.266355	0.133631
1029.435088	0.132708
1029.603803	0.133260
1029.772499	0.130691
1029.941177	0.131343
1030.109837	0.131409
1030.278478	0.130547
1030.447102	0.128449
1030.615707	0.128378
1030.784294	0.127124
1030.952863	0.127673
1031.121413	0.125834
1031.289945	0.126882
1031.458460	0.127514
1031.626955	0.127312
1031.795433	0.127752
1031.963892	0.129343
1032.132334	0.128541
1032.300756	0.128494
1032.469161	0.127415
1032.637548	0.127146
1032.805916	0.125723
1032.974266	0.126466
1033.142598	0.125725
1033.310911	0.124069
1033.479207	0.123524
1033.647484	0.124359
1033.815743	0.125714
1033.983983	0.127106
1034.152206	0.127385
1034.320410	0.128937
1034.488596	0.130621
1034.656764	0.129669
1034.824914	0.131399
1034.993045	0.133005
1035.161158	0.133751
1035.329253	0.135212
1035.497330	0.134724
1035.665388	0.137398
1035.833428	0.137693
1036.001450	0.135112
1036.169454	0.136680
1036.337440	0.135362
1036.505407	0.134508
1036.673356	0.133968
1036.841287	0.132036
1037.009200	0.131083
1037.177094	0.129129
1037.344970	0.129988
1037.512828	0.131053
1037.680668	0.130376
1037.848489	0.131413
1038.016293	0.130280
1038.184078	0.130265
1038.351845	0.132289
1038.519593	0.133157
1038.687324	0.135941
1038.855036	0.134707
1039.022730	0.133762
1039.190406	0.135239
1039.358063	0.135232
1039.525702	0.135997
1039.693323	0.136119
1039.860926	0.135388
1040.028511	0.134858
1040.196077	0.134087
1040.363625	0.133222
1040.531155	0.134990
1040.698667	0.134095
1040.866161	0.133439
1041.033636	0.132683
1041.201093	0.133589
1041.368532	0.133708
1041.535952	0.132767
1041.703355	0.130774
1041.870739	0.131917
1042.038105	0.129398
1042.205452	0.129188
1042.372782	0.130035
1042.540093	0.130510
1042.707386	0.128569
1042.874661	0.127237
1043.041918	0.128544
1043.209156	0.128838
1043.376376	0.129047
1043.543578	0.129997
1043.710762	0.128244
1043.877927	0.128604
1044.045074	0.128831
1044.212203	0.129410
1044.379314	0.129031
1044.546407	0.127098
1044.713481	0.128984
1044.880537	0.128182
1045.047575	0.128789
1045.214595	0.129007
1045.381596	0.128660
1045.548579	0.129973
1045.715544	0.130116
1045.882491	0.131245
1046.049420	0.131165
1046.216330	0.129673
1046.383222	0.129290
1046.550096	0.128293
1046.716951	0.129858
1046.883789	0.130231
1047.050608	0.130741
1047.217409	0.129235
1047.384192	0.129725
1047.550956	0.132856
1047.717703	0.132586
1047.884431	0.132989
1048.051140	0.131968
1048.217832	0.131132
1048.384505	0.130254
1048.551161	0.128093
1048.717798	0.127426
1048.884416	0.124973
1049.051017	0.121342
1049.217599	0.121665
1049.384163	0.121432
1049.550709	0.123358
1049.717237	0.123853
1049.883746	0.124548
1050.050237	0.125333
1050.216710	0.128149
1050.383165	0.129354
1050.549601	0.131061
1050.716019	0.130552
1050.882420	0.131107
1051.048801	0.132128
1051.215165	0.130338
1051.381510	0.131055
1051.547837	0.129622
1051.714146	0.128568
1051.880437	0.127819
1052.046709	0.128142
1052.212964	0.128700
1052.379200	0.127599
1052.545417	0.125377
1052.711617	0.126941
1052.877798	0.126118
1053.043961	0.125804
1053.210106	0.125424
1053.376233	0.125535
1053.542341	0.125026
1053.708432	0.123464
1053.874504	0.124468
1054.040557	0.123877
1054.206593	0.122889
1054.372610	0.121726
1054.538609	0.123152
1054.704590	0.124311
1054.870553	0.125860
1055.036497	0.125601
1055.202424	0.126771
1055.368331	0.126932
1055.534221	0.129475
1055.700093	0.129878
1055.865946	0.132145
1056.031781	0.131360
1056.197598	0.129877
1056.363397	0.127726
1056.529177	0.127017
1056.694939	0.128348
1056.860683	0.128198
1057.026409	0.128156
1057.192116	0.127699
1057.357806	0.126630
1057.523477	0.126863
1057.689130	0.128193
1057.854764	0.129681
1058.020381	0.131603
1058.185979	0.128077
1058.351559	0.126766
1058.517120	0.125074
1058.682664	0.127142
1058.848189	0.125772
1059.013696	0.124976
1059.179185	0.126169
1059.344656	0.125090
1059.510108	0.125300
1059.675542	0.125777
1059.840958	0.126720
1060.006356	0.125661
1060.171735	0.124523
1060.337096	0.125799
1060.502439	0.127523
1060.667764	0.126122
1060.833071	0.126134
1060.998359	0.124991
1061.163629	0.126702
1061.328881	0.128048
1061.494115	0.128774
1061.659330	0.127586
1061.824527	0.125506
1061.989706	0.124946
1062.154867	0.123829
1062.320010	0.124506
1062.485134	0.123578
1062.650240	0.123680
1062.815328	0.122657
1062.980398	0.123949
1063.145449	0.124054
1063.310482	0.125443
1063.475497	0.125271
1063.640494	0.124509
1063.805473	0.124782
1063.970433	0.125849
1064.135375	0.125088
1064.300299	0.125915
1064.465204	0.125961
1064.630092	0.126356
1064.794961	0.127912
1064.959812	0.127688
1065.124645	0.128723
1065.289459	0.128610
1065.454256	0.129598
1065.619034	0.130184
1065.783793	0.128087
1065.948535	0.127051
1066.113258	0.129580
1066.277964	0.127409
1066.442651	0.128563
1066.607319	0.130169
1066.771970	0.130933
1066.936602	0.130792
1067.101216	0.131805
1067.265812	0.134211
1067.430389	0.133975
1067.594949	0.131264
1067.759490	0.129682
1067.924013	0.128671
1068.088518	0.129514
1068.253004	0.127564
1068.417472	0.126911
1068.581922	0.126199
1068.746354	0.125149
1068.910768	0.126353
1069.075163	0.126855
1069.239540	0.130097
1069.403899	0.129235
1069.568240	0.128086
1069.732562	0.130327
1069.896866	0.130619
1070.061152	0.130488
1070.225420	0.129642
1070.389670	0.129401
1070.553901	0.129488
1070.718114	0.129016
1070.882309	0.129935
1071.046486	0.129920
1071.210644	0.128438
1071.374784	0.127589
1071.538906	0.130326
1071.703010	0.132125
1071.867096	0.129169
1072.031163	0.131420
1072.195212	0.130400
1072.359243	0.132587
1072.523256	0.132807
1072.687250	0.130774
1072.851226	0.131108
1073.015184	0.130244
1073.179124	0.130163
1073.343045	0.132580
1073.506949	0.130652
1073.670834	0.131768
1073.834701	0.130050
1073.998549	0.128669
1074.162380	0.131175
1074.326192	0.129712
1074.489986	0.127795
1074.653761	0.126118
1074.817519	0.127254
1074.981258	0.126925
1075.144979	0.125814
1075.308682	0.123567
1075.472367	0.125715
1075.636033	0.126978
1075.799681	0.128465
1075.963311	0.131177
1076.126923	0.131083
1076.290516	0.131018
1076.454092	0.132808
1076.617649	0.134447
1076.781187	0.135284
1076.944708	0.134489
1077.108210	0.133924
1077.271695	0.136272
1077.435160	0.135362
1077.598608	0.135258
1077.762038	0.136368
1077.925449	0.134847
1078.088842	0.133400
1078.252217	0.135159
1078.415573	0.133226
1078.578912	0.135374
1078.742232	0.132857
1078.905534	0.130578
1079.068817	0.131838
1079.232083	0.129880
1079.395330	0.129366
1079.558559	0.132178
1079.721770	0.132163
1079.884962	0.133829
1080.048136	0.129720
1080.211293	0.130736
1080.374430	0.131191
1080.537550	0.132936
1080.700651	0.132560
1080.863735	0.133531
1081.026800	0.131913
1081.189846	0.132394
1081.352875	0.131981
1081.515885	0.134224
1081.678877	0.133792
1081.841851	0.131439
1082.004807	0.131138
1082.167744	0.131330
1082.330663	0.130184
1082.493564	0.128546
1082.656447	0.127244
1082.819312	0.126494
1082.982158	0.125215
1083.144986	0.124448
1083.307796	0.125778
1083.470587	0.124815
1083.633361	0.126081
1083.796116	0.127515
1083.958853	0.128712
1084.121571	0.130698
1084.284272	0.129614
1084.446954	0.129675
1084.609618	0.132239
1084.772264	0.132642
1084.934892	0.132642
1085.097501	0.130418
1085.260092	0.130456
1085.422665	0.130626
1085.585220	0.128603
1085.747756	0.130784
1085.910274	0.134086
1086.072774	0.132888
1086.235256	0.134135
1086.397720	0.134756
1086.560165	0.135329
1086.722592	0.136027
1086.885001	0.136177
1087.047392	0.135068
1087.209764	0.132805
1087.372119	0.131049
1087.534455	0.130649
1087.696772	0.132798
1087.859072	0.131816
1088.021353	0.133037
1088.183616	0.130487
1088.345861	0.129848
1088.508088	0.132504
1088.670296	0.135067
1088.832486	0.132364
1088.994658	0.135992
1089.156812	0.134011
1089.318948	0.132167
1089.481065	0.133830
1089.643164	0.134878
1089.805245	0.135878
1089.967308	0.135197
1090.129352	0.134609
1090.291378	0.139713
1090.453386	0.136920
1090.615376	0.138657
1090.777347	0.138298
1090.939301	0.137502
1091.101236	0.135708
1091.263153	0.137285
1091.425051	0.137526
1091.586932	0.137622
1091.748794	0.136204
1091.910638	0.132118
1092.072463	0.131588
1092.234271	0.131350
1092.396060	0.131755
1092.557831	0.136406
1092.719584	0.135859
1092.881319	0.131669
1093.043035	0.130879
1093.204733	0.132588
1093.366413	0.136610
1093.528075	0.135506
1093.689718	0.138150
1093.851343	0.139431
1094.012950	0.137980
1094.174539	0.138741
1094.336110	0.142432
1094.497662	0.142439
1094.659196	0.138460
1094.820712	0.138094
1094.982210	0.136972
1095.143689	0.135980
1095.305151	0.133115
1095.466594	0.134335
1095.628018	0.132027
1095.789425	0.130982
1095.950813	0.132916
1096.112183	0.135233
1096.273535	0.136054
1096.434869	0.135745
1096.596184	0.137667
1096.757482	0.138723
1096.918761	0.133522
1097.080021	0.136483
1097.241264	0.139528
1097.402488	0.137993
1097.563694	0.136394
1097.724882	0.136660
1097.886052	0.140042
1098.047203	0.139375
1098.208336	0.135817
1098.369451	0.138238
1098.530548	0.136845
1098.691627	0.134758
1098.852687	0.134701
1099.013729	0.133703
1099.174753	0.133466
1099.335758	0.131084
1099.496746	0.127460
1099.657715	0.131754
1099.818666	0.131309
1099.979599	0.130170
1100.140513	0.129214
1100.301409	0.129108
1100.462287	0.130929
1100.623147	0.129175
1100.783989	0.127046
1100.944812	0.129700
1101.105617	0.131012
1101.266404	0.133184
1101.427173	0.132288
1101.587923	0.133102
1101.748656	0.129380
1101.909370	0.125018
1102.070066	0.127167
1102.230743	0.124590
1102.391403	0.125233
1102.552044	0.121272
1102.712667	0.120383
1102.873271	0.124572
1103.033858	0.127345
1103.194426	0.129676
1103.354976	0.132700
1103.515508	0.129183
1103.676021	0.132929
1103.836517	0.130728
1103.996994	0.131303
1104.157453	0.129522
1104.317893	0.123402
1104.478316	0.122873
1104.638720	0.122239
1104.799106	0.121966
1104.959474	0.125425
1105.119823	0.123620
1105.280155	0.123191
1105.440468	0.124448
1105.600763	0.129947
1105.761039	0.133427
1105.921298	0.131142
1106.081538	0.135426
1106.241760	0.131229
1106.401964	0.128192
1106.562149	0.131452
1106.722316	0.131964
1106.882465	0.126190
1107.042596	0.120862
1107.202709	0.120679
1107.362803	0.118596
1107.522879	0.116116
1107.682937	0.122263
1107.842977	0.125731
1108.002999	0.128006
1108.163002	0.130712
1108.322987	0.136280
1108.482954	0.134843
1108.642902	0.132295
1108.802833	0.132733
1108.962745	0.132589
1109.122639	0.132738
1109.282515	0.129545
1109.442372	0.122909
1109.602211	0.126413
1109.762032	0.126416
1109.921835	0.126872
1110.081620	0.125245
1110.241386	0.124169
1110.401134	0.119534
1110.560864	0.115268
1110.720576	0.114583
1110.880269	0.115940
1111.039945	0.111259
1111.199602	0.109951
1111.359240	0.109811
1111.518861	0.112439
1111.678463	0.114486
1111.838047	0.117747
1111.997613	0.122039
1112.157161	0.122707
1112.316690	0.127054
1112.476202	0.128903
1112.635695	0.130650
1112.795169	0.133331
1112.954626	0.130774
1113.114064	0.128486
1113.273484	0.129320
1113.432886	0.127402
1113.592270	0.127138
1113.751635	0.123609
1113.910983	0.119532
1114.070312	0.117933
1114.229622	0.115380
1114.388915	0.115089
1114.548189	0.117634
1114.707445	0.118259
1114.866683	0.118692
1115.025903	0.119289
1115.185104	0.118542
1115.344287	0.117855
1115.503452	0.116713
1115.662599	0.120375
1115.821727	0.122820
1115.980838	0.123668
1116.139930	0.126068
1116.299004	0.127949
1116.458059	0.126798
1116.617097	0.129327
1116.776116	0.132845
1116.935117	0.136854
1117.094099	0.138185
1117.253064	0.139100
1117.412010	0.137310
1117.570938	0.134406
1117.729848	0.133304
1117.888740	0.134264
1118.047613	0.131606
1118.206468	0.133745
1118.365305	0.129781
1118.524124	0.125770
1118.682924	0.122729
1118.841707	0.123066
1119.000471	0.124910
1119.159216	0.123900
1119.317944	0.123215
1119.476653	0.123710
1119.635344	0.116734
1119.794017	0.114857
1119.952672	0.112393
1120.111308	0.118177
1120.269927	0.116139
1120.428527	0.117468
1120.587108	0.117262
1120.745672	0.116777
1120.904217	0.117161
1121.062744	0.120860
1121.221253	0.129403
1121.379744	0.133645
1121.538216	0.128819
1121.696671	0.131823
1121.855107	0.126690
1122.013524	0.125485
1122.171924	0.128681
1122.330305	0.129223
1122.488668	0.126035
1122.647013	0.118166
1122.805340	0.119176
1122.963648	0.121864
1123.121938	0.119936
1123.280210	0.125194
1123.438464	0.127263
1123.596700	0.126891
1123.754917	0.128753
1123.913116	0.135017
1124.071297	0.137037
1124.229459	0.137526
1124.387604	0.132212
1124.545730	0.136047
1124.703838	0.133563
1124.861928	0.132723
1125.019999	0.131696
1125.178052	0.129036
1125.336088	0.125634
1125.494104	0.128628
1125.652103	0.129060
1125.810083	0.130697
1125.968045	0.126156
1126.125989	0.121505
1126.283915	0.119385
1126.441823	0.118774
1126.599712	0.119636
1126.757583	0.122862
1126.915436	0.118133
1127.073270	0.114668
1127.231087	0.115635
1127.388885	0.116716
1127.546665	0.123628
1127.704426	0.125749
1127.862170	0.123474
1128.019895	0.126188
1128.177602	0.126372
1128.335291	0.123173
1128.492961	0.124160
1128.650614	0.123946
1128.808248	0.122764
1128.965864	0.121798
1129.123461	0.116369
1129.281041	0.121254
1129.438602	0.120991
1129.596145	0.120157
1129.753670	0.123066
1129.911176	0.118934
1130.068665	0.122147
1130.226135	0.125672
1130.383587	0.122372
1130.541020	0.129470
1130.698436	0.122759
1130.855833	0.119708
1131.013212	0.118602
1131.170573	0.118087
1131.327915	0.124114
1131.485239	0.118755
1131.642545	0.116427
1131.799833	0.117411
1131.957103	0.115262
1132.114354	0.118512
1132.271588	0.118920
1132.428803	0.114780
1132.585999	0.121653
1132.743178	0.118691
1132.900338	0.122772
1133.057480	0.127840
1133.214604	0.124268
1133.371710	0.122660
1133.528797	0.121718
1133.685866	0.123564
1133.842917	0.127860
1133.999950	0.119570
1134.156964	0.119436
1134.313960	0.118338
1134.470938	0.105585
1134.627898	0.104384
1134.784840	0.105099
1134.941763	0.104116
1135.098668	0.096358
1135.255555	0.100384
1135.412424	0.105679
1135.569274	0.107974
1135.726107	0.108357
1135.882921	0.116074
1136.039716	0.119079
1136.196494	0.115291
1136.353253	0.115864
1136.509995	0.118008
1136.666717	0.109397
1136.823422	0.105623
1136.980109	0.101357
1137.136777	0.104125
1137.293427	0.101778
1137.450059	0.105034
1137.606672	0.104039
1137.763267	0.101561
1137.919844	0.099049
1138.076403	0.101806
1138.232944	0.101771
1138.389466	0.102904
1138.545971	0.099626
1138.702457	0.104776
1138.858924	0.096721
1139.015374	0.100057
1139.171805	0.105631
1139.328218	0.107403
1139.484613	0.111490
1139.640990	0.110013
1139.797348	0.113348
1139.953688	0.110684
1140.110010	0.104253
1140.266314	0.113811
1140.422600	0.112872
1140.578867	0.108915
1140.735116	0.114689
1140.891347	0.108912
1141.047559	0.109938
1141.203754	0.108376
1141.359930	0.113517
1141.516088	0.115574
1141.672228	0.113217
1141.828349	0.115213
1141.984452	0.119353
1142.140537	0.119033
1142.296604	0.115919
1142.452653	0.109475
1142.608683	0.109923
1142.764695	0.105577
1142.920689	0.107689
1143.076665	0.108367
1143.232622	0.107663
1143.388562	0.103435
1143.544483	0.097887
1143.700385	0.097861
1143.856270	0.102700
1144.012136	0.102878
1144.167985	0.100272
1144.323814	0.096584
1144.479626	0.096374
1144.635420	0.093960
1144.791195	0.097817
1144.946952	0.100234
1145.102691	0.102581
1145.258411	0.107756
1145.414113	0.109122
1145.569798	0.116069
1145.725463	0.117700
1145.881111	0.116471
1146.036741	0.118361
1146.192352	0.114807
1146.347945	0.117093
1146.503519	0.119017
1146.659076	0.118624
1146.814614	0.115117
1146.970134	0.111366
1147.125636	0.107683
1147.281120	0.105616
1147.436585	0.103968
1147.592032	0.104813
1147.747461	0.098968
1147.902872	0.096901
1148.058265	0.093537
1148.213639	0.091601
1148.368995	0.088933
1148.524333	0.086497
1148.679653	0.084753
1148.834954	0.090059
1148.990237	0.090731
1149.145502	0.096543
1149.300749	0.095071
1149.455977	0.093602
1149.611188	0.096667
1149.766380	0.104530
1149.921553	0.103555
1150.076709	0.105189
1150.231846	0.107749
1150.386966	0.110453
1150.542066	0.112144
1150.697149	0.118390
1150.852214	0.120509
1151.007260	0.121343
1151.162288	0.114120
1151.317298	0.118631
1151.472289	0.121468
1151.627263	0.113039
1151.782218	0.109576
1151.937155	0.101431
1152.092073	0.104286
1152.246974	0.101695
1152.401856	0.098790
1152.556720	0.098081
1152.711566	0.102159
1152.866393	0.102466
1153.021203	0.106168
1153.175994	0.107384
1153.330767	0.110248
1153.485521	0.099801
1153.640258	0.096882
1153.794976	0.102197
1153.949676	0.101718
1154.104358	0.096054
1154.259021	0.093079
1154.413667	0.086803
1154.568294	0.081113
1154.722903	0.081761
1154.877493	0.078566
1155.032066	0.077254
1155.186620	0.070476
1155.341156	0.077565
1155.495674	0.076915
1155.650173	0.077233
1155.804654	0.077161
1155.959118	0.077992
1156.113562	0.081981
1156.267989	0.087620
1156.422397	0.092353
1156.576788	0.087320
1156.731160	0.080244
1156.885513	0.083770
1157.039849	0.078765
1157.194166	0.082092
1157.348465	0.082539
1157.502746	0.084132
1157.657009	0.083617
1157.811253	0.079372
1157.965479	0.086583
1158.119687	0.088791
1158.273877	0.089346
1158.428048	0.088929
1158.582201	0.095842
1158.736337	0.092082
1158.890453	0.096587
1159.044552	0.092942
1159.198632	0.099780
1159.352694	0.101209
1159.506738	0.098237
1159.660764	0.092656
1159.814771	0.094030
1159.968761	0.088857
1160.122732	0.094799
1160.276685	0.079412
1160.430619	0.085627
1160.584535	0.087084
1160.738434	0.084903
1160.892313	0.088395
1161.046175	0.090776
1161.200019	0.097542
1161.353844	0.093377
1161.507651	0.095662
1161.661440	0.097333
1161.815210	0.092514
1161.968962	0.084483
1162.122697	0.083044
1162.276412	0.077591
1162.430110	0.078883
1162.583789	0.070500
1162.737451	0.067985
1162.891094	0.064433
1163.044718	0.065694
1163.198325	0.064928
1163.351913	0.068835
1163.505483	0.069418
1163.659035	0.070661
1163.812569	0.071791
1163.966084	0.075942
1164.119581	0.080043
1164.273060	0.079784
1164.426521	0.082086
1164.579964	0.085719
1164.733388	0.081544
1164.886794	0.075667
1165.040182	0.067505
1165.193551	0.073751
1165.346903	0.073242
1165.500236	0.068643
1165.653551	0.072075
1165.806848	0.071122
1165.960126	0.067332
1166.113386	0.073997
1166.266628	0.075242
1166.419852	0.084108
1166.573058	0.073873
1166.726245	0.069253
1166.879414	0.074024
1167.032565	0.066807
1167.185698	0.065433
1167.338812	0.061102
1167.491909	0.059654
1167.644987	0.060185
1167.798046	0.064930
1167.951088	0.061079
1168.104111	0.060960
1168.257117	0.062989
1168.410103	0.068598
1168.563072	0.071780
1168.716023	0.072971
1168.868955	0.070458
1169.021869	0.072953
1169.174765	0.070109
1169.327642	0.069343
1169.480501	0.067017
1169.633343	0.059539
1169.786165	0.052883
1169.938970	0.046281
1170.091757	0.053692
1170.244525	0.048042
1170.397275	0.045306
1170.550007	0.042094
1170.702720	0.045032
1170.855415	0.045558
1171.008092	0.049766
1171.160751	0.055009
1171.313392	0.059962
1171.466014	0.024994
1171.618619	0.087759
1171.771205	0.087759
1171.923772	0.087759
