sample name	sample
index	579
start time	 03-16-2021  03:39:21 PM


Wavelength (nm)	Absorbance
494.344910	0.106884
494.563924	0.106884
494.782919	0.106884
495.001897	-0.083456
495.220856	0.060569
495.439797	0.057095
495.658719	0.031663
495.877624	0.026648
496.096510	0.047787
496.315378	0.071611
496.534227	0.004665
496.753059	0.013267
496.971872	-0.038218
497.190667	0.085332
497.409444	0.113284
497.628203	0.121432
497.846943	0.125589
498.065665	0.125292
498.284369	0.127594
498.503055	0.130367
498.721723	0.132316
498.940372	0.133653
499.159003	0.133004
499.377616	0.132671
499.596210	0.132706
499.814787	0.132388
500.033345	0.132997
500.251885	0.131431
500.470406	0.131987
500.688910	0.131140
500.907395	0.131289
501.125862	0.132979
501.344311	0.133881
501.562742	0.133613
501.781154	0.133429
501.999548	0.133424
502.217924	0.134568
502.436282	0.134531
502.654621	0.134611
502.872942	0.135061
503.091245	0.134334
503.309530	0.133740
503.527797	0.133868
503.746045	0.133709
503.964275	0.134268
504.182487	0.135493
504.400681	0.135667
504.618856	0.136445
504.837013	0.134928
505.055152	0.136291
505.273273	0.136958
505.491376	0.136802
505.709460	0.137069
505.927526	0.136891
506.145574	0.136497
506.363604	0.135739
506.581615	0.135845
506.799608	0.137084
507.017583	0.136137
507.235540	0.135777
507.453478	0.136401
507.671399	0.137396
507.889301	0.137420
508.107185	0.137159
508.325050	0.137920
508.542898	0.137573
508.760727	0.137821
508.978538	0.137557
509.196330	0.138441
509.414105	0.139264
509.631861	0.139366
509.849599	0.139297
510.067319	0.139435
510.285021	0.139884
510.502704	0.139982
510.720369	0.139968
510.938016	0.141546
511.155645	0.141272
511.373255	0.140979
511.590848	0.140659
511.808422	0.142473
512.025977	0.143063
512.243515	0.142667
512.461034	0.143694
512.678536	0.143330
512.896018	0.142891
513.113483	0.143527
513.330930	0.143720
513.548358	0.142931
513.765768	0.141634
513.983160	0.142043
514.200533	0.142154
514.417889	0.141679
514.635226	0.142877
514.852545	0.142732
515.069845	0.142086
515.287128	0.141846
515.504392	0.143374
515.721638	0.143842
515.938866	0.143613
516.156075	0.143824
516.373267	0.143474
516.590440	0.143359
516.807594	0.143661
517.024731	0.144220
517.241850	0.144459
517.458950	0.144417
517.676032	0.144786
517.893095	0.144703
518.110141	0.145061
518.327168	0.146114
518.544177	0.146019
518.761168	0.145843
518.978141	0.146294
519.195095	0.146552
519.412031	0.147052
519.628949	0.148186
519.845849	0.148720
520.062731	0.149765
520.279594	0.150356
520.496439	0.150963
520.713266	0.151915
520.930074	0.151961
521.146865	0.152549
521.363637	0.152717
521.580391	0.153384
521.797127	0.153657
522.013844	0.153690
522.230543	0.153944
522.447224	0.153211
522.663887	0.153074
522.880532	0.153543
523.097158	0.154073
523.313766	0.154204
523.530356	0.153279
523.746928	0.154130
523.963481	0.154095
524.180017	0.153984
524.396534	0.154468
524.613032	0.154578
524.829513	0.155143
525.045975	0.156007
525.262420	0.156375
525.478845	0.156831
525.695253	0.156471
525.911643	0.156507
526.128014	0.157084
526.344367	0.158111
526.560702	0.158540
526.777018	0.158480
526.993316	0.157729
527.209597	0.159244
527.425858	0.159357
527.642102	0.159554
527.858328	0.159900
528.074535	0.159770
528.290724	0.159986
528.506894	0.160466
528.723047	0.160441
528.939181	0.161922
529.155297	0.160678
529.371395	0.161070
529.587475	0.161630
529.803536	0.162168
530.019579	0.162437
530.235604	0.162625
530.451611	0.162971
530.667600	0.163662
530.883570	0.162828
531.099522	0.164183
531.315456	0.164458
531.531372	0.164273
531.747269	0.164285
531.963148	0.165049
532.179009	0.165728
532.394852	0.165795
532.610676	0.166082
532.826482	0.166999
533.042271	0.167003
533.258040	0.167466
533.473792	0.168086
533.689525	0.169227
533.905240	0.169395
534.120937	0.169646
534.336616	0.170156
534.552277	0.170201
534.767919	0.170114
534.983543	0.169774
535.199149	0.169670
535.414736	0.169976
535.630306	0.169295
535.845857	0.169817
536.061390	0.169932
536.276904	0.170414
536.492401	0.170723
536.707879	0.170922
536.923339	0.172031
537.138781	0.172744
537.354204	0.172691
537.569610	0.173688
537.784997	0.173619
538.000366	0.173360
538.215716	0.173697
538.431049	0.174248
538.646363	0.174724
538.861659	0.174723
539.076937	0.175126
539.292196	0.176010
539.507438	0.175706
539.722661	0.176073
539.937866	0.176944
540.153052	0.176683
540.368221	0.177147
540.583371	0.176924
540.798503	0.177295
541.013617	0.177504
541.228712	0.178110
541.443789	0.178701
541.658848	0.178694
541.873889	0.178700
542.088912	0.179447
542.303916	0.179721
542.518902	0.180901
542.733870	0.181001
542.948820	0.181079
543.163752	0.180823
543.378665	0.181378
543.593560	0.181323
543.808437	0.181310
544.023295	0.180876
544.238136	0.181217
544.452958	0.181527
544.667762	0.181593
544.882548	0.181949
545.097315	0.182767
545.312064	0.182517
545.526795	0.183178
545.741508	0.184439
545.956203	0.184601
546.170879	0.185150
546.385537	0.185305
546.600177	0.185830
546.814799	0.185751
547.029402	0.185435
547.243988	0.185805
547.458555	0.185900
547.673103	0.185507
547.887634	0.186183
548.102146	0.185405
548.316640	0.184805
548.531116	0.184707
548.745574	0.185332
548.960013	0.185917
549.174435	0.185897
549.388838	0.186278
549.603222	0.186227
549.817589	0.186288
550.031937	0.187272
550.246267	0.187910
550.460579	0.188053
550.674873	0.188185
550.889148	0.188913
551.103405	0.189323
551.317644	0.189904
551.531865	0.190554
551.746068	0.191093
551.960252	0.190868
552.174418	0.191682
552.388566	0.192417
552.602696	0.192784
552.816807	0.192395
553.030900	0.193002
553.244975	0.192757
553.459032	0.193215
553.673070	0.193569
553.887091	0.193948
554.101093	0.193520
554.315077	0.193462
554.529042	0.193810
554.742990	0.193817
554.956919	0.193553
555.170830	0.193839
555.384722	0.193902
555.598597	0.193668
555.812453	0.193788
556.026291	0.194670
556.240111	0.194652
556.453913	0.194763
556.667696	0.195251
556.881461	0.195856
557.095208	0.196110
557.308937	0.196191
557.522647	0.196968
557.736339	0.197406
557.950013	0.197124
558.163669	0.197423
558.377307	0.197359
558.590926	0.197572
558.804527	0.197312
559.018110	0.197193
559.231675	0.197390
559.445221	0.197237
559.658749	0.196626
559.872259	0.197053
560.085751	0.197017
560.299225	0.197184
560.512680	0.196763
560.726117	0.197058
560.939536	0.197444
561.152937	0.197751
561.366319	0.197513
561.579683	0.198683
561.793029	0.198497
562.006357	0.199605
562.219667	0.199848
562.432958	0.200723
562.646231	0.200782
562.859486	0.200897
563.072723	0.200770
563.285941	0.201430
563.499141	0.200827
563.712323	0.201235
563.925487	0.201310
564.138632	0.201326
564.351760	0.201167
564.564869	0.201624
564.777960	0.202148
564.991032	0.202761
565.204087	0.202847
565.417123	0.203275
565.630141	0.203402
565.843140	0.202974
566.056122	0.203349
566.269085	0.203695
566.482030	0.203510
566.694957	0.203418
566.907866	0.202938
567.120756	0.203188
567.333628	0.203649
567.546482	0.203580
567.759318	0.204050
567.972135	0.203996
568.184935	0.204072
568.397716	0.204304
568.610478	0.204778
568.823223	0.204828
569.035949	0.204891
569.248657	0.204906
569.461347	0.205735
569.674019	0.205599
569.886672	0.206026
570.099308	0.205983
570.311925	0.206324
570.524523	0.206356
570.737104	0.206936
570.949666	0.207173
571.162210	0.207063
571.374736	0.206237
571.587244	0.206271
571.799733	0.206490
572.012205	0.206267
572.224658	0.206007
572.437092	0.205688
572.649509	0.205608
572.861907	0.205579
573.074287	0.206044
573.286649	0.206365
573.498993	0.206629
573.711318	0.206539
573.923625	0.206943
574.135914	0.207414
574.348185	0.207595
574.560438	0.207366
574.772672	0.207200
574.984888	0.206775
575.197086	0.206444
575.409266	0.206598
575.621427	0.206686
575.833570	0.206566
576.045695	0.207098
576.257802	0.207333
576.469890	0.207633
576.681961	0.208326
576.894013	0.209007
577.106046	0.209654
577.318062	0.209576
577.530059	0.209732
577.742039	0.210333
577.954000	0.209775
578.165942	0.209867
578.377867	0.210208
578.589773	0.210441
578.801661	0.210618
579.013531	0.210465
579.225382	0.210562
579.437216	0.210195
579.649031	0.209889
579.860828	0.210390
580.072606	0.210844
580.284367	0.211175
580.496109	0.210781
580.707833	0.210622
580.919539	0.211170
581.131227	0.211703
581.342896	0.212523
581.554547	0.213363
581.766180	0.213332
581.977795	0.213327
582.189391	0.213599
582.400969	0.213792
582.612529	0.213761
582.824071	0.213798
583.035595	0.213657
583.247100	0.213444
583.458587	0.212848
583.670056	0.212597
583.881506	0.212472
584.092939	0.212536
584.304353	0.212586
584.515749	0.212991
584.727127	0.213081
584.938486	0.213065
585.149828	0.213310
585.361151	0.214166
585.572456	0.214738
585.783742	0.215191
585.995011	0.215305
586.206261	0.215707
586.417493	0.215992
586.628706	0.216222
586.839902	0.216533
587.051079	0.216295
587.262238	0.216032
587.473379	0.215739
587.684502	0.215909
587.895606	0.215563
588.106692	0.215574
588.317760	0.215495
588.528810	0.215753
588.739841	0.215691
588.950855	0.216140
589.161850	0.216301
589.372827	0.216605
589.583785	0.216257
589.794726	0.216481
590.005648	0.217013
590.216552	0.217032
590.427437	0.217262
590.638305	0.217598
590.849154	0.217724
591.059985	0.217894
591.270798	0.218347
591.481592	0.218557
591.692369	0.218638
591.903127	0.218472
592.113867	0.218311
592.324588	0.217902
592.535292	0.217669
592.745977	0.217646
592.956644	0.217915
593.167293	0.217905
593.377923	0.218120
593.588536	0.218416
593.799130	0.218131
594.009706	0.218608
594.220263	0.219003
594.430803	0.219439
594.641324	0.219832
594.851827	0.219604
595.062312	0.219604
595.272778	0.220034
595.483227	0.220282
595.693657	0.221062
595.904069	0.221359
596.114462	0.221404
596.324838	0.221874
596.535195	0.222042
596.745534	0.222584
596.955855	0.223089
597.166157	0.223442
597.376441	0.223709
597.586707	0.223574
597.796955	0.223496
598.007185	0.223900
598.217396	0.223970
598.427589	0.223866
598.637764	0.223748
598.847921	0.223365
599.058060	0.223497
599.268180	0.223805
599.478282	0.224157
599.688366	0.224439
599.898431	0.224381
600.108479	0.224406
600.318508	0.224860
600.528519	0.225091
600.738511	0.225584
600.948486	0.225323
601.158442	0.225026
601.368380	0.224978
601.578300	0.224767
601.788202	0.225344
601.998085	0.225859
602.207950	0.225445
602.417797	0.225830
602.627626	0.225981
602.837436	0.225990
603.047228	0.226283
603.257002	0.226157
603.466758	0.226336
603.676496	0.226280
603.886215	0.225568
604.095916	0.225687
604.305599	0.225414
604.515264	0.225512
604.724910	0.225798
604.934538	0.225886
605.144148	0.226392
605.353740	0.226825
605.563314	0.226821
605.772869	0.227328
605.982406	0.228205
606.191925	0.228490
606.401425	0.228429
606.610908	0.228605
606.820372	0.229229
607.029818	0.229555
607.239246	0.229370
607.448655	0.229548
607.658047	0.229839
607.867420	0.229658
608.076775	0.229897
608.286111	0.230207
608.495430	0.230352
608.704730	0.230112
608.914012	0.229595
609.123275	0.230092
609.332521	0.230394
609.541748	0.230486
609.750957	0.230800
609.960148	0.230762
610.169321	0.230846
610.378475	0.231160
610.587611	0.231187
610.796729	0.231624
611.005829	0.231833
611.214910	0.231987
611.423974	0.231938
611.633019	0.232023
611.842045	0.232148
612.051054	0.232473
612.260044	0.232671
612.469017	0.232951
612.677970	0.233237
612.886906	0.233253
613.095824	0.233031
613.304723	0.233035
613.513604	0.232931
613.722467	0.233119
613.931311	0.233050
614.140138	0.232849
614.348946	0.232679
614.557736	0.232761
614.766507	0.232932
614.975261	0.233510
615.183996	0.233707
615.392713	0.234028
615.601412	0.233978
615.810092	0.234139
616.018754	0.234448
616.227399	0.234816
616.436024	0.234741
616.644632	0.234940
616.853222	0.234794
617.061793	0.235178
617.270346	0.235219
617.478880	0.235603
617.687397	0.235542
617.895895	0.235641
618.104375	0.235677
618.312837	0.236039
618.521281	0.235898
618.729706	0.235915
618.938113	0.235898
619.146502	0.236070
619.354873	0.236194
619.563226	0.236601
619.771560	0.236611
619.979876	0.236454
620.188174	0.236528
620.396453	0.236591
620.604715	0.236816
620.812958	0.236949
621.021183	0.236932
621.229390	0.237047
621.437578	0.237158
621.645748	0.237595
621.853900	0.238002
622.062034	0.238321
622.270150	0.238651
622.478247	0.238711
622.686326	0.238758
622.894387	0.239045
623.102430	0.239240
623.310454	0.239840
623.518461	0.239682
623.726449	0.239697
623.934418	0.239754
624.142370	0.239872
624.350303	0.240399
624.558218	0.240777
624.766115	0.241320
624.973994	0.241220
625.181855	0.241239
625.389697	0.241687
625.597521	0.241952
625.805327	0.241883
626.013114	0.241934
626.220883	0.241853
626.428634	0.242087
626.636367	0.241744
626.844082	0.242007
627.051778	0.241993
627.259457	0.241616
627.467117	0.241780
627.674758	0.242163
627.882382	0.242259
628.089987	0.242189
628.297574	0.241874
628.505143	0.242017
628.712694	0.242394
628.920226	0.242276
629.127740	0.242652
629.335236	0.243047
629.542714	0.243238
629.750174	0.243338
629.957615	0.243615
630.165038	0.243852
630.372443	0.244141
630.579829	0.243985
630.787198	0.244340
630.994548	0.244577
631.201880	0.244413
631.409194	0.244428
631.616489	0.244527
631.823766	0.244886
632.031025	0.245245
632.238266	0.245321
632.445489	0.245635
632.652693	0.245657
632.859879	0.246066
633.067047	0.246096
633.274197	0.246150
633.481329	0.246347
633.688442	0.246491
633.895537	0.246753
634.102614	0.246909
634.309672	0.246892
634.516713	0.247189
634.723735	0.247082
634.930739	0.247597
635.137724	0.247672
635.344692	0.247927
635.551641	0.247880
635.758572	0.248054
635.965485	0.248116
636.172379	0.248303
636.379256	0.248413
636.586114	0.248713
636.792954	0.248467
636.999775	0.248711
637.206579	0.249006
637.413364	0.249333
637.620131	0.249116
637.826880	0.249232
638.033610	0.249293
638.240323	0.249366
638.447017	0.249393
638.653692	0.249574
638.860350	0.249982
639.066990	0.250106
639.273611	0.250148
639.480214	0.250680
639.686798	0.251093
639.893365	0.251387
640.099913	0.251490
640.306443	0.251635
640.512955	0.252181
640.719449	0.252008
640.925924	0.252004
641.132381	0.252082
641.338820	0.251939
641.545241	0.252130
641.751644	0.252633
641.958028	0.252797
642.164394	0.253257
642.370742	0.253635
642.577071	0.254075
642.783383	0.254456
642.989676	0.254604
643.195951	0.255122
643.402207	0.255009
643.608446	0.254795
643.814666	0.255064
644.020868	0.254741
644.227052	0.254621
644.433218	0.254631
644.639365	0.254893
644.845494	0.255254
645.051605	0.255308
645.257698	0.255703
645.463772	0.256063
645.669828	0.256316
645.875866	0.256828
646.081886	0.256905
646.287888	0.257033
646.493871	0.256897
646.699836	0.256832
646.905783	0.256792
647.111712	0.256779
647.317622	0.256769
647.523514	0.256800
647.729388	0.256692
647.935244	0.256831
648.141082	0.257190
648.346901	0.257205
648.552702	0.257174
648.758485	0.257428
648.964250	0.257783
649.169996	0.258042
649.375724	0.258099
649.581434	0.258339
649.787126	0.258572
649.992800	0.258697
650.198455	0.259328
650.404092	0.259505
650.609711	0.259853
650.815311	0.259719
651.020894	0.259950
651.226458	0.260352
651.432004	0.260575
651.637532	0.260611
651.843041	0.260755
652.048532	0.260666
652.254006	0.260992
652.459460	0.261196
652.664897	0.261282
652.870315	0.261442
653.075716	0.261530
653.281097	0.261743
653.486461	0.262203
653.691807	0.262536
653.897134	0.263002
654.102443	0.263596
654.307734	0.263773
654.513006	0.264258
654.718261	0.264593
654.923497	0.264692
655.128715	0.264605
655.333915	0.265023
655.539096	0.265018
655.744259	0.264790
655.949404	0.264791
656.154531	0.264522
656.359640	0.264465
656.564730	0.264473
656.769802	0.264506
656.974856	0.264960
657.179892	0.264655
657.384909	0.264757
657.589908	0.265202
657.794889	0.265499
657.999852	0.265986
658.204797	0.266184
658.409723	0.266473
658.614631	0.266800
658.819521	0.266905
659.024393	0.267319
659.229246	0.267536
659.434081	0.267953
659.638898	0.268113
659.843697	0.268660
660.048478	0.268962
660.253240	0.269100
660.457984	0.269525
660.662710	0.269719
660.867417	0.269843
661.072107	0.270068
661.276778	0.270219
661.481431	0.270350
661.686066	0.270220
661.890682	0.270514
662.095281	0.270825
662.299861	0.270815
662.504422	0.270955
662.708966	0.271079
662.913491	0.271334
663.117999	0.271548
663.322488	0.271889
663.526958	0.272041
663.731411	0.272118
663.935845	0.272154
664.140261	0.272280
664.344659	0.272646
664.549038	0.272880
664.753400	0.272967
664.957743	0.272961
665.162068	0.272846
665.366375	0.273138
665.570663	0.273079
665.774933	0.273170
665.979185	0.273682
666.183419	0.273823
666.387635	0.274132
666.591832	0.274410
666.796011	0.274755
667.000172	0.274991
667.204315	0.275048
667.408439	0.275789
667.612545	0.276208
667.816634	0.276283
668.020703	0.276520
668.224755	0.276467
668.428788	0.276626
668.632803	0.276762
668.836800	0.277182
669.040779	0.277445
669.244739	0.277435
669.448681	0.277594
669.652605	0.277807
669.856511	0.278240
670.060399	0.278452
670.264268	0.278644
670.468119	0.279104
670.671952	0.279178
670.875767	0.279193
671.079563	0.279627
671.283341	0.279781
671.487101	0.280226
671.690843	0.280230
671.894567	0.280731
672.098272	0.280686
672.301959	0.280825
672.505628	0.281336
672.709278	0.281592
672.912911	0.281695
673.116525	0.282052
673.320121	0.281932
673.523699	0.282030
673.727258	0.282007
673.930799	0.282483
674.134322	0.282409
674.337827	0.282496
674.541314	0.282761
674.744782	0.282983
674.948232	0.282990
675.151664	0.283492
675.355078	0.283670
675.558474	0.284330
675.761851	0.284784
675.965210	0.285138
676.168551	0.284958
676.371873	0.285252
676.575178	0.285563
676.778464	0.285819
676.981732	0.285713
677.184981	0.286129
677.388213	0.286122
677.591426	0.286125
677.794621	0.286241
677.997798	0.286565
678.200956	0.286807
678.404097	0.286847
678.607219	0.286971
678.810323	0.287253
679.013408	0.287560
679.216476	0.287455
679.419525	0.287716
679.622556	0.287948
679.825569	0.288285
680.028563	0.288588
680.231540	0.288704
680.434498	0.288904
680.637438	0.289240
680.840359	0.289393
681.043263	0.289766
681.246148	0.289869
681.449015	0.289885
681.651864	0.290260
681.854694	0.290321
682.057506	0.290721
682.260301	0.291018
682.463076	0.291217
682.665834	0.291380
682.868573	0.291796
683.071295	0.292110
683.273998	0.292506
683.476682	0.292356
683.679349	0.292568
683.881997	0.292438
684.084627	0.292578
684.287239	0.292586
684.489833	0.292443
684.692408	0.292531
684.894965	0.292612
685.097504	0.292582
685.300025	0.292835
685.502527	0.292989
685.705012	0.293497
685.907478	0.293402
686.109925	0.293543
686.312355	0.293966
686.514766	0.294210
686.717159	0.294455
686.919534	0.294678
687.121891	0.294947
687.324230	0.295301
687.526550	0.295548
687.728852	0.296079
687.931136	0.296125
688.133401	0.296324
688.335649	0.296329
688.537878	0.296464
688.740089	0.296905
688.942281	0.297165
689.144456	0.296893
689.346612	0.297105
689.548750	0.297370
689.750870	0.297718
689.952971	0.297863
690.155055	0.298070
690.357120	0.298252
690.559167	0.298363
690.761195	0.298388
690.963206	0.298969
691.165198	0.299000
691.367172	0.299155
691.569128	0.299223
691.771065	0.299478
691.972984	0.299782
692.174885	0.300194
692.376768	0.300368
692.578633	0.300559
692.780479	0.300434
692.982308	0.300571
693.184118	0.300562
693.385909	0.300624
693.587683	0.300542
693.789438	0.300692
693.991175	0.300704
694.192894	0.300680
694.394595	0.300812
694.596277	0.301372
694.797941	0.301413
694.999587	0.301574
695.201215	0.302049
695.402824	0.302342
695.604416	0.302569
695.805989	0.302849
696.007543	0.303201
696.209080	0.303333
696.410598	0.303048
696.612099	0.303199
696.813580	0.303575
697.015044	0.303861
697.216490	0.303937
697.417917	0.303752
697.619326	0.303481
697.820717	0.303522
698.022089	0.303636
698.223444	0.303985
698.424780	0.304158
698.626098	0.304099
698.827397	0.303822
699.028679	0.303779
699.229942	0.303866
699.431187	0.304133
699.632414	0.303968
699.833622	0.303635
700.034813	0.303650
700.235985	0.303626
700.437139	0.303596
700.638274	0.303781
700.839392	0.303938
701.040491	0.304063
701.241572	0.303975
701.442635	0.304223
701.643679	0.304515
701.844706	0.304087
702.045714	0.304261
702.246704	0.304417
702.447675	0.304536
702.648629	0.304822
702.849564	0.304884
703.050481	0.305100
703.251380	0.305237
703.452260	0.305411
703.653122	0.305879
703.853966	0.305768
704.054792	0.305746
704.255600	0.305688
704.456389	0.305762
704.657160	0.305898
704.857913	0.305742
705.058648	0.305838
705.259365	0.305957
705.460063	0.306030
705.660743	0.306462
705.861405	0.306733
706.062048	0.306637
706.262674	0.306689
706.463281	0.306564
706.663870	0.306993
706.864441	0.306757
707.064993	0.306777
707.265527	0.306835
707.466043	0.306352
707.666541	0.306056
707.867021	0.306349
708.067482	0.306308
708.267925	0.306440
708.468350	0.306414
708.668757	0.306677
708.869145	0.306682
709.069516	0.307079
709.269868	0.307336
709.470201	0.307663
709.670517	0.307483
709.870814	0.307508
710.071093	0.307858
710.271354	0.307509
710.471597	0.307381
710.671821	0.307240
710.872028	0.306931
711.072216	0.306887
711.272385	0.306657
711.472537	0.306965
711.672670	0.306913
711.872785	0.306560
712.072882	0.306617
712.272961	0.306803
712.473021	0.307118
712.673063	0.307171
712.873087	0.307341
713.073093	0.307321
713.273081	0.307192
713.473050	0.307119
713.673001	0.307177
713.872934	0.307248
714.072849	0.307148
714.272745	0.306821
714.472623	0.306956
714.672483	0.306805
714.872325	0.306911
715.072148	0.306643
715.271954	0.306729
715.471741	0.306490
715.671509	0.306446
715.871260	0.306391
716.070992	0.306785
716.270707	0.306485
716.470403	0.306559
716.670080	0.306391
716.869740	0.306725
717.069381	0.306410
717.269004	0.306485
717.468609	0.306381
717.668195	0.306329
717.867764	0.305916
718.067314	0.305793
718.266846	0.305787
718.466360	0.305689
718.665855	0.305121
718.865332	0.305114
719.064791	0.305030
719.264232	0.304915
719.463655	0.304881
719.663059	0.304592
719.862445	0.304607
720.061813	0.304058
720.261163	0.304140
720.460494	0.304016
720.659807	0.303886
720.859102	0.303727
721.058379	0.303757
721.257638	0.303541
721.456878	0.303571
721.656100	0.303326
721.855304	0.303527
722.054490	0.303225
722.253657	0.303233
722.452806	0.303325
722.651937	0.302968
722.851050	0.302719
723.050145	0.302668
723.249221	0.302807
723.448279	0.302655
723.647319	0.302382
723.846340	0.302190
724.045344	0.302017
724.244329	0.301789
724.443296	0.301741
724.642245	0.301689
724.841175	0.301378
725.040088	0.301140
725.238982	0.301034
725.437857	0.300854
725.636715	0.300864
725.835554	0.300901
726.034376	0.300977
726.233179	0.300765
726.431963	0.300491
726.630730	0.300380
726.829478	0.300331
727.028208	0.300197
727.226920	0.300353
727.425614	0.300378
727.624289	0.300319
727.822946	0.299928
728.021585	0.299691
728.220206	0.299515
728.418808	0.299372
728.617392	0.299079
728.815958	0.298984
729.014506	0.298719
729.213036	0.298039
729.411547	0.297743
729.610040	0.297709
729.808515	0.297798
730.006972	0.297548
730.205410	0.297264
730.403831	0.296932
730.602233	0.296549
730.800616	0.296475
730.998982	0.296625
731.197329	0.296627
731.395658	0.296395
731.593969	0.296442
731.792262	0.296416
731.990536	0.296127
732.188793	0.296018
732.387031	0.296091
732.585250	0.295840
732.783452	0.295746
732.981635	0.295438
733.179800	0.295345
733.377947	0.294828
733.576076	0.294866
733.774186	0.294739
733.972278	0.294623
734.170352	0.294406
734.368408	0.294009
734.566446	0.293847
734.764465	0.293778
734.962466	0.293345
735.160449	0.293378
735.358413	0.292793
735.556360	0.292733
735.754288	0.292516
735.952198	0.292276
736.150090	0.292214
736.347963	0.291852
736.545818	0.291444
736.743655	0.290907
736.941474	0.290542
737.139275	0.290435
737.337057	0.290211
737.534821	0.290237
737.732567	0.290060
737.930295	0.289837
738.128005	0.289728
738.325696	0.289583
738.523369	0.289853
738.721024	0.289650
738.918660	0.289677
739.116279	0.289749
739.313879	0.289427
739.511461	0.289116
739.709024	0.288728
739.906570	0.288593
740.104097	0.288366
740.301606	0.288073
740.499097	0.287946
740.696569	0.287833
740.894024	0.287719
741.091460	0.287482
741.288878	0.287096
741.486277	0.286953
741.683659	0.286647
741.881022	0.286604
742.078367	0.285995
742.275694	0.285831
742.473002	0.285474
742.670293	0.285052
742.867565	0.284877
743.064819	0.285030
743.262054	0.285111
743.459272	0.284887
743.656471	0.284337
743.853652	0.284607
744.050815	0.284399
744.247959	0.284364
744.445085	0.283879
744.642194	0.283678
744.839283	0.283534
745.036355	0.283144
745.233408	0.283212
745.430444	0.283602
745.627461	0.283247
745.824459	0.283300
746.021440	0.283103
746.218402	0.283234
746.415346	0.283062
746.612272	0.282939
746.809180	0.283195
747.006069	0.282662
747.202940	0.282106
747.399793	0.282210
747.596628	0.281799
747.793444	0.281312
747.990243	0.281180
748.187023	0.281015
748.383784	0.280737
748.580528	0.280061
748.777253	0.279896
748.973960	0.279654
749.170649	0.279398
749.367320	0.279231
749.563973	0.279463
749.760607	0.279148
749.957223	0.278843
750.153821	0.278280
750.350400	0.278317
750.546962	0.278209
750.743505	0.277976
750.940030	0.277593
751.136536	0.277405
751.333025	0.276879
751.529495	0.276450
751.725947	0.276173
751.922381	0.276334
752.118796	0.275899
752.315194	0.275889
752.511573	0.275553
752.707934	0.275579
752.904276	0.275297
753.100601	0.275058
753.296907	0.275244
753.493195	0.275120
753.689465	0.274864
753.885716	0.274737
754.081949	0.274318
754.278164	0.274678
754.474361	0.274358
754.670540	0.274381
754.866700	0.274439
755.062843	0.274140
755.258967	0.273916
755.455072	0.273682
755.651160	0.273808
755.847229	0.273865
756.043280	0.273485
756.239313	0.273564
756.435328	0.273343
756.631324	0.273106
756.827302	0.273049
757.023262	0.273154
757.219204	0.272999
757.415127	0.272524
757.611033	0.272215
757.806920	0.272060
758.002788	0.271658
758.198639	0.271293
758.394471	0.271172
758.590286	0.270745
758.786081	0.270353
758.981859	0.270506
759.177619	0.270310
759.373360	0.270370
759.569083	0.270212
759.764788	0.270228
759.960474	0.270209
760.156143	0.270242
760.351793	0.270042
760.547425	0.270238
760.743038	0.269942
760.938634	0.269991
761.134211	0.269708
761.329770	0.269512
761.525311	0.269078
761.720833	0.269317
761.916338	0.268972
762.111824	0.269279
762.307292	0.268971
762.502741	0.268669
762.698173	0.268544
762.893586	0.268658
763.088981	0.268395
763.284358	0.268608
763.479716	0.268166
763.675057	0.267912
763.870379	0.267509
764.065683	0.267417
764.260968	0.267507
764.456236	0.267605
764.651485	0.267549
764.846716	0.267811
765.041929	0.267733
765.237123	0.267741
765.432299	0.267922
765.627457	0.267886
765.822597	0.267617
766.017719	0.267294
766.212822	0.267045
766.407907	0.266444
766.602974	0.266308
766.798023	0.266085
766.993054	0.265845
767.188066	0.265450
767.383060	0.265500
767.578036	0.265163
767.772993	0.265339
767.967933	0.265313
768.162854	0.265693
768.357757	0.265389
768.552642	0.265590
768.747508	0.265348
768.942356	0.265208
769.137186	0.265077
769.331998	0.265447
769.526792	0.265402
769.721567	0.265341
769.916324	0.264951
770.111063	0.264748
770.305784	0.264273
770.500486	0.264359
770.695171	0.264201
770.889837	0.263841
771.084484	0.263781
771.279114	0.263477
771.473725	0.262881
771.668318	0.263019
771.862893	0.263082
772.057450	0.263157
772.251988	0.262703
772.446509	0.263003
772.641011	0.262975
772.835494	0.262530
773.029960	0.262613
773.224407	0.263028
773.418836	0.262882
773.613247	0.263039
773.807640	0.262770
774.002014	0.263281
774.196370	0.263339
774.390708	0.263510
774.585028	0.263549
774.779330	0.263161
774.973613	0.263058
775.167878	0.262801
775.362125	0.262665
775.556354	0.262870
775.750564	0.262333
775.944756	0.262163
776.138930	0.262012
776.333086	0.262302
776.527223	0.262364
776.721343	0.262255
776.915444	0.262180
777.109526	0.261971
777.303591	0.261775
777.497637	0.262259
777.691666	0.261962
777.885676	0.262254
778.079667	0.262241
778.273641	0.262356
778.467596	0.262568
778.661533	0.262660
778.855452	0.262750
779.049352	0.263005
779.243235	0.262820
779.437099	0.263135
779.630945	0.263016
779.824773	0.263035
780.018582	0.263363
780.212373	0.263143
780.406146	0.263261
780.599901	0.263395
780.793638	0.263363
780.987356	0.263501
781.181056	0.263496
781.374738	0.263375
781.568402	0.263077
781.762047	0.262914
781.955674	0.263022
782.149283	0.262771
782.342874	0.262967
782.536447	0.262726
782.730001	0.262785
782.923537	0.262706
783.117055	0.262665
783.310555	0.262929
783.504036	0.263098
783.697499	0.262948
783.890944	0.263110
784.084371	0.262749
784.277780	0.262810
784.471170	0.262778
784.664542	0.262808
784.857896	0.263100
785.051231	0.262888
785.244549	0.262659
785.437848	0.262641
785.631129	0.262573
785.824392	0.262771
786.017636	0.262956
786.210863	0.262977
786.404071	0.263393
786.597260	0.263517
786.790432	0.263834
786.983585	0.263903
787.176721	0.264287
787.369838	0.264583
787.562936	0.264309
787.756017	0.264437
787.949079	0.264536
788.142123	0.264230
788.335149	0.263932
788.528156	0.263697
788.721146	0.264120
788.914117	0.264213
789.107070	0.264460
789.300005	0.264868
789.492921	0.264760
789.685819	0.264779
789.878699	0.265001
790.071561	0.265200
790.264405	0.265312
790.457230	0.265155
790.650037	0.265081
790.842826	0.264787
791.035597	0.264907
791.228349	0.265109
791.421084	0.265106
791.613800	0.265005
791.806497	0.265021
791.999177	0.265799
792.191838	0.265724
792.384481	0.265893
792.577106	0.266129
792.769713	0.266269
792.962301	0.266112
793.154871	0.266424
793.347423	0.266430
793.539957	0.266622
793.732473	0.266447
793.924970	0.266604
794.117449	0.266549
794.309910	0.266714
794.502353	0.266547
794.694777	0.266960
794.887183	0.266916
795.079571	0.267333
795.271941	0.267577
795.464293	0.267474
795.656626	0.267595
795.848941	0.267999
796.041238	0.268069
796.233516	0.268107
796.425777	0.268391
796.618019	0.268397
796.810243	0.268476
797.002449	0.268622
797.194636	0.268700
797.386805	0.268962
797.578956	0.269124
797.771089	0.269275
797.963204	0.269810
798.155300	0.269940
798.347378	0.270622
798.539438	0.270786
798.731480	0.270726
798.923503	0.271056
799.115509	0.271239
799.307496	0.271080
799.499465	0.271311
799.691415	0.271298
799.883348	0.271116
800.075262	0.270882
800.267158	0.271020
800.459035	0.271195
800.650895	0.271313
800.842736	0.271612
801.034559	0.272160
801.226364	0.272287
801.418150	0.272956
801.609919	0.273353
801.801669	0.273663
801.993401	0.273860
802.185114	0.274373
802.376810	0.274810
802.568487	0.274956
802.760146	0.275084
802.951787	0.275338
803.143409	0.275401
803.335014	0.275882
803.526600	0.276251
803.718168	0.276448
803.909717	0.276588
804.101249	0.276624
804.292762	0.276800
804.484257	0.277168
804.675734	0.277617
804.867192	0.277776
805.058632	0.277751
805.250054	0.277976
805.441458	0.278390
805.632844	0.278665
805.824211	0.278851
806.015561	0.279250
806.206891	0.279190
806.398204	0.279340
806.589499	0.279622
806.780775	0.279769
806.972033	0.280064
807.163273	0.280626
807.354495	0.281140
807.545698	0.281461
807.736883	0.281525
807.928050	0.281958
808.119199	0.282141
808.310329	0.282565
808.501441	0.283056
808.692535	0.283231
808.883611	0.283285
809.074669	0.283415
809.265708	0.283757
809.456729	0.284319
809.647732	0.284181
809.838717	0.284633
810.029683	0.284756
810.220632	0.284746
810.411562	0.285301
810.602474	0.285326
810.793367	0.285541
810.984242	0.285807
811.175100	0.285949
811.365938	0.286709
811.556759	0.287154
811.747562	0.287439
811.938346	0.288104
812.129112	0.288261
812.319860	0.288506
812.510589	0.288676
812.701300	0.289056
812.891994	0.289417
813.082668	0.289611
813.273325	0.289803
813.463964	0.290107
813.654584	0.290147
813.845186	0.290069
814.035769	0.290708
814.226335	0.291405
814.416882	0.291691
814.607411	0.291978
814.797922	0.292323
814.988415	0.292660
815.178889	0.292807
815.369345	0.293325
815.559783	0.293795
815.750203	0.293808
815.940605	0.293614
816.130988	0.294014
816.321353	0.294199
816.511700	0.294513
816.702028	0.294599
816.892339	0.295251
817.082631	0.295842
817.272905	0.296300
817.463161	0.296731
817.653398	0.297069
817.843617	0.297363
818.033819	0.297695
818.224001	0.297844
818.414166	0.298542
818.604312	0.298763
818.794440	0.299064
818.984550	0.299016
819.174642	0.299120
819.364716	0.299434
819.554771	0.299653
819.744808	0.300005
819.934827	0.300509
820.124827	0.300723
820.314810	0.301265
820.504774	0.301315
820.694720	0.301931
820.884647	0.302502
821.074557	0.302990
821.264448	0.303264
821.454321	0.303509
821.644176	0.303747
821.834012	0.303964
822.023831	0.303926
822.213631	0.304274
822.403413	0.304913
822.593176	0.305529
822.782922	0.305999
822.972649	0.306492
823.162358	0.306704
823.352049	0.307782
823.541721	0.307893
823.731376	0.308560
823.921012	0.308866
824.110629	0.309136
824.300229	0.309324
824.489811	0.309634
824.679374	0.309737
824.868919	0.310278
825.058445	0.310153
825.247954	0.310602
825.437444	0.310916
825.626916	0.311318
825.816370	0.311430
826.005806	0.312083
826.195223	0.312364
826.384622	0.312894
826.574003	0.313234
826.763366	0.313243
826.952711	0.313589
827.142037	0.313730
827.331345	0.314276
827.520635	0.315062
827.709906	0.315361
827.899160	0.316018
828.088395	0.316674
828.277612	0.317546
828.466810	0.318287
828.655991	0.318871
828.845153	0.319403
829.034297	0.319547
829.223423	0.319565
829.412531	0.319730
829.601620	0.320097
829.790691	0.320430
829.979744	0.320256
830.168779	0.320611
830.357795	0.321267
830.546793	0.321471
830.735773	0.322098
830.924735	0.322780
831.113679	0.323442
831.302604	0.323780
831.491511	0.324179
831.680400	0.324808
831.869271	0.325235
832.058123	0.325379
832.246957	0.325846
832.435773	0.326313
832.624571	0.326643
832.813351	0.326881
833.002112	0.326930
833.190855	0.327073
833.379580	0.327771
833.568287	0.328184
833.756975	0.328185
833.945645	0.328605
834.134297	0.328859
834.322931	0.329185
834.511547	0.329327
834.700144	0.330039
834.888723	0.331011
835.077284	0.331165
835.265826	0.331461
835.454351	0.332196
835.642857	0.333041
835.831345	0.333511
836.019815	0.333686
836.208266	0.334170
836.396699	0.334425
836.585114	0.334172
836.773511	0.334803
836.961890	0.335341
837.150250	0.335831
837.338592	0.335847
837.526916	0.336040
837.715222	0.336884
837.903510	0.337448
838.091779	0.338000
838.280030	0.338656
838.468263	0.339039
838.656477	0.339665
838.844674	0.340367
839.032852	0.340933
839.221012	0.341513
839.409153	0.341821
839.597277	0.342368
839.785382	0.342496
839.973469	0.343045
840.161538	0.343356
840.349589	0.343989
840.537621	0.343843
840.725635	0.343842
840.913631	0.344343
841.101609	0.344979
841.289568	0.345284
841.477509	0.345966
841.665432	0.346225
841.853337	0.346784
842.041224	0.346665
842.229092	0.347930
842.416942	0.348498
842.604774	0.348869
842.792588	0.348815
842.980383	0.349400
843.168160	0.349844
843.355919	0.350569
843.543660	0.351169
843.731382	0.351856
843.919087	0.351871
844.106773	0.352413
844.294441	0.352747
844.482090	0.353644
844.669722	0.354100
844.857335	0.354623
845.044930	0.355116
845.232507	0.354972
845.420065	0.355030
845.607605	0.355440
845.795127	0.355783
845.982631	0.356560
846.170117	0.356713
846.357584	0.357020
846.545033	0.357606
846.732464	0.358042
846.919877	0.358665
847.107272	0.359461
847.294648	0.360089
847.482006	0.360663
847.669346	0.361020
847.856667	0.361625
848.043971	0.362207
848.231256	0.362634
848.418523	0.363024
848.605771	0.363891
848.793002	0.364280
848.980214	0.364365
849.167408	0.364959
849.354584	0.365446
849.541742	0.365870
849.728881	0.366567
849.916002	0.367123
850.103105	0.367773
850.290190	0.368564
850.477256	0.369157
850.664304	0.369851
850.851334	0.370565
851.038346	0.370918
851.225340	0.371472
851.412315	0.371888
851.599272	0.372618
851.786211	0.372606
851.973132	0.372611
852.160034	0.372962
852.346918	0.373805
852.533784	0.374430
852.720632	0.374949
852.907462	0.375062
853.094273	0.375619
853.281066	0.375694
853.467841	0.376344
853.654598	0.376672
853.841336	0.377282
854.028056	0.377422
854.214758	0.378033
854.401442	0.378494
854.588107	0.379248
854.774755	0.378992
854.961384	0.379251
855.147995	0.379890
855.334587	0.380632
855.521162	0.380983
855.707718	0.381496
855.894256	0.381369
856.080775	0.381370
856.267277	0.381815
856.453760	0.382811
856.640225	0.383550
856.826672	0.383862
857.013101	0.384046
857.199511	0.384511
857.385903	0.384704
857.572277	0.385316
857.758633	0.386093
857.944970	0.386750
858.131290	0.386867
858.317591	0.387447
858.503873	0.387941
858.690138	0.388327
858.876384	0.388926
859.062612	0.389501
859.248822	0.390018
859.435014	0.390723
859.621188	0.390857
859.807343	0.391793
859.993480	0.392101
860.179599	0.392413
860.365699	0.393402
860.551781	0.393681
860.737846	0.393952
860.923891	0.394058
861.109919	0.394072
861.295929	0.394743
861.481920	0.395472
861.667893	0.396038
861.853848	0.396413
862.039784	0.396213
862.225702	0.396937
862.411603	0.397343
862.597484	0.397648
862.783348	0.398191
862.969193	0.398541
863.155021	0.398022
863.340830	0.397833
863.526620	0.398625
863.712393	0.399225
863.898147	0.399710
864.083883	0.400632
864.269601	0.400901
864.455301	0.401347
864.640982	0.401634
864.826645	0.402438
865.012290	0.403831
865.197917	0.404075
865.383526	0.403977
865.569116	0.403678
865.754688	0.403483
865.940242	0.404459
866.125777	0.405161
866.311295	0.405888
866.496794	0.406409
866.682275	0.405877
866.867737	0.405962
867.053182	0.406921
867.238608	0.407444
867.424016	0.407763
867.609406	0.407924
867.794778	0.407957
867.980131	0.407855
868.165466	0.408160
868.350783	0.408701
868.536082	0.408680
868.721362	0.408742
868.906625	0.408966
869.091869	0.409516
869.277094	0.409648
869.462302	0.409605
869.647491	0.410130
869.832662	0.410472
870.017815	0.410541
870.202950	0.411495
870.388066	0.411550
870.573165	0.411929
870.758245	0.412329
870.943306	0.412695
871.128350	0.413472
871.313375	0.413329
871.498382	0.413391
871.683371	0.414038
871.868342	0.413897
872.053294	0.414545
872.238229	0.414808
872.423144	0.414892
872.608042	0.415802
872.792922	0.416268
872.977783	0.416633
873.162626	0.417365
873.347451	0.417259
873.532258	0.417988
873.717046	0.417990
873.901816	0.418806
874.086568	0.419350
874.271302	0.419064
874.456017	0.419105
874.640715	0.419277
874.825394	0.418671
875.010055	0.419312
875.194697	0.419453
875.379322	0.419658
875.563928	0.419623
875.748516	0.420174
875.933085	0.420801
876.117637	0.421425
876.302170	0.422254
876.486685	0.423180
876.671182	0.423748
876.855661	0.424027
877.040121	0.425206
877.224563	0.425841
877.408987	0.425680
877.593393	0.425585
877.777780	0.425309
877.962150	0.425007
878.146501	0.424633
878.330833	0.424778
878.515148	0.425010
878.699444	0.424828
878.883722	0.424580
879.067982	0.425007
879.252224	0.425662
879.436447	0.426167
879.620653	0.426988
879.804840	0.427639
879.989008	0.427683
880.173159	0.428086
880.357291	0.427985
880.541405	0.428582
880.725501	0.428514
880.909579	0.427895
881.093638	0.427991
881.277680	0.427716
881.461703	0.428102
881.645707	0.427806
881.829694	0.427648
882.013662	0.428188
882.197612	0.428244
882.381544	0.428533
882.565458	0.428649
882.749353	0.428953
882.933230	0.429704
883.117089	0.429371
883.300930	0.429437
883.484753	0.429502
883.668557	0.429285
883.852343	0.429233
884.036111	0.429207
884.219861	0.429714
884.403592	0.429320
884.587305	0.428581
884.771000	0.428457
884.954677	0.428619
885.138335	0.429052
885.321976	0.429376
885.505598	0.429039
885.689201	0.429290
885.872787	0.429341
886.056354	0.429947
886.239904	0.430756
886.423434	0.430898
886.606947	0.431463
886.790442	0.431780
886.973918	0.431710
887.157376	0.432496
887.340816	0.433164
887.524237	0.433827
887.707641	0.433477
887.891026	0.433744
888.074393	0.434283
888.257741	0.433891
888.441072	0.433651
888.624384	0.433197
888.807678	0.432927
888.990954	0.431619
889.174211	0.431067
889.357451	0.431298
889.540672	0.430673
889.723875	0.430204
889.907059	0.430327
890.090226	0.429601
890.273374	0.429933
890.456504	0.429495
890.639616	0.429495
890.822709	0.429160
891.005785	0.428555
891.188842	0.429007
891.371881	0.429389
891.554901	0.429457
891.737904	0.429748
891.920888	0.430569
892.103854	0.430922
892.286802	0.431453
892.469731	0.430815
892.652643	0.430834
892.835536	0.429853
893.018410	0.429806
893.201267	0.429200
893.384106	0.429259
893.566926	0.428558
893.749728	0.428606
893.932511	0.427896
894.115277	0.428605
894.298024	0.428812
894.480753	0.429447
894.663464	0.429488
894.846157	0.429720
895.028831	0.429461
895.211487	0.429803
895.394125	0.429238
895.576745	0.430049
895.759346	0.430056
895.941930	0.429594
896.124495	0.429512
896.307041	0.429037
896.489570	0.428971
896.672080	0.429367
896.854573	0.428456
897.037046	0.429035
897.219502	0.428548
897.401940	0.428324
897.584359	0.428442
897.766760	0.427915
897.949143	0.427713
898.131507	0.427549
898.313854	0.427007
898.496182	0.426701
898.678492	0.425747
898.860783	0.425439
899.043057	0.425119
899.225312	0.425193
899.407549	0.424934
899.589768	0.424740
899.771968	0.424776
899.954151	0.424471
900.136315	0.424224
900.318461	0.424417
900.500588	0.425053
900.682698	0.425179
900.864789	0.425075
901.046862	0.424898
901.228917	0.424674
901.410953	0.424353
901.592971	0.424462
901.774972	0.424223
901.956953	0.424374
902.138917	0.422923
902.320862	0.421772
902.502790	0.421212
902.684699	0.421225
902.866589	0.421087
903.048462	0.420767
903.230316	0.419724
903.412152	0.419422
903.593970	0.418913
903.775770	0.418889
903.957551	0.419655
904.139314	0.419537
904.321059	0.419106
904.502786	0.418157
904.684494	0.417939
904.866185	0.417870
905.047857	0.417623
905.229510	0.416911
905.411146	0.416558
905.592763	0.415662
905.774363	0.415191
905.955943	0.414560
906.137506	0.414547
906.319051	0.413484
906.500577	0.413549
906.682085	0.413739
906.863575	0.412999
907.045046	0.412979
907.226500	0.412536
907.407935	0.412571
907.589352	0.412582
907.770750	0.412228
907.952131	0.412370
908.133493	0.411912
908.314837	0.411413
908.496163	0.411282
908.677470	0.410110
908.858760	0.409354
909.040031	0.408819
909.221284	0.408268
909.402518	0.407914
909.583735	0.407208
909.764933	0.406346
909.946113	0.405650
910.127275	0.405275
910.308418	0.405618
910.489544	0.406098
910.670651	0.405389
910.851740	0.404465
911.032810	0.403751
911.213863	0.403574
911.394897	0.403271
911.575913	0.402666
911.756911	0.402399
911.937890	0.401662
912.118851	0.400782
912.299794	0.400233
912.480719	0.399280
912.661626	0.398902
912.842514	0.398237
913.023384	0.397557
913.204236	0.396567
913.385070	0.396294
913.565886	0.395718
913.746683	0.394946
913.927462	0.393775
914.108223	0.393738
914.288965	0.393139
914.469690	0.393189
914.650396	0.392686
914.831084	0.391930
915.011754	0.391212
915.192405	0.390761
915.373038	0.390269
915.553653	0.390392
915.734250	0.390401
915.914829	0.389655
916.095389	0.388269
916.275931	0.388397
916.456455	0.388468
916.636961	0.387312
916.817448	0.386559
916.997917	0.385788
917.178368	0.384974
917.358801	0.384316
917.539216	0.383949
917.719612	0.383424
917.899990	0.381143
918.080350	0.380355
918.260692	0.379761
918.441015	0.379254
918.621320	0.378750
918.801607	0.378335
918.981876	0.377240
919.162127	0.375780
919.342359	0.375219
919.522573	0.374541
919.702769	0.374056
919.882947	0.372755
920.063106	0.371497
920.243247	0.370991
920.423370	0.369902
920.603475	0.368779
920.783562	0.368665
920.963630	0.367716
921.143680	0.367931
921.323712	0.366434
921.503725	0.366386
921.683721	0.365924
921.863698	0.364950
922.043657	0.364121
922.223598	0.363463
922.403520	0.361751
922.583424	0.360969
922.763311	0.360275
922.943178	0.360214
923.123028	0.358173
923.302859	0.357745
923.482673	0.357576
923.662467	0.356876
923.842244	0.356647
924.022003	0.357030
924.201743	0.356053
924.381465	0.355615
924.561169	0.353981
924.740854	0.354257
924.920522	0.352871
925.100171	0.351563
925.279802	0.350356
925.459414	0.348901
925.639009	0.347470
925.818585	0.346297
925.998143	0.345126
926.177683	0.344897
926.357205	0.344206
926.536708	0.343080
926.716193	0.341320
926.895660	0.340685
927.075109	0.340113
927.254539	0.338838
927.433951	0.338943
927.613345	0.337614
927.792721	0.336210
927.972079	0.335020
928.151418	0.334476
928.330739	0.334408
928.510042	0.333881
928.689327	0.332469
928.868593	0.332446
929.047841	0.330596
929.227071	0.329640
929.406283	0.329084
929.585476	0.328041
929.764652	0.326879
929.943809	0.325584
930.122948	0.323997
930.302068	0.324027
930.481171	0.322310
930.660255	0.322609
930.839321	0.321190
931.018369	0.320713
931.197398	0.319770
931.376409	0.318624
931.555402	0.317292
931.734377	0.316677
931.913334	0.315245
932.092272	0.314579
932.271192	0.312478
932.450094	0.312057
932.628978	0.310466
932.807844	0.309702
932.986691	0.309863
933.165520	0.308691
933.344331	0.307811
933.523123	0.306617
933.701898	0.306324
933.880654	0.306153
934.059392	0.305354
934.238111	0.303919
934.416813	0.302912
934.595496	0.302299
934.774161	0.302172
934.952808	0.301533
935.131437	0.300201
935.310047	0.299269
935.488639	0.297524
935.667213	0.295689
935.845769	0.296438
936.024306	0.294444
936.202825	0.291332
936.381326	0.290747
936.559809	0.289067
936.738274	0.289380
936.916720	0.286866
937.095148	0.285987
937.273558	0.285299
937.451950	0.281990
937.630323	0.281305
937.808678	0.280941
937.987015	0.278336
938.165334	0.277003
938.343635	0.274703
938.521917	0.274303
938.700181	0.273121
938.878427	0.272208
939.056655	0.273077
939.234864	0.272760
939.413055	0.272415
939.591228	0.272048
939.769383	0.271676
939.947519	0.271550
940.125638	0.271200
940.303738	0.270882
940.481820	0.270434
940.659883	0.268595
940.837929	0.266281
941.015956	0.264843
941.193965	0.263976
941.371955	0.261486
941.549928	0.258324
941.727882	0.256382
941.905818	0.255213
942.083736	0.253340
942.261636	0.253582
942.439517	0.252147
942.617380	0.250761
942.795225	0.247896
942.973052	0.247078
943.150860	0.246659
943.328651	0.245614
943.506423	0.243376
943.684176	0.242475
943.861912	0.240656
944.039629	0.240918
944.217328	0.238872
944.395009	0.239747
944.572672	0.238927
944.750317	0.237523
944.927943	0.235923
945.105551	0.235496
945.283141	0.233363
945.460712	0.229430
945.638265	0.228695
945.815801	0.228128
945.993317	0.225905
946.170816	0.224049
946.348297	0.224753
946.525759	0.222429
946.703203	0.221040
946.880629	0.219737
947.058036	0.222055
947.235425	0.220310
947.412797	0.219235
947.590149	0.218247
947.767484	0.218583
947.944800	0.216084
948.122099	0.215438
948.299379	0.213060
948.476640	0.211453
948.653884	0.209269
948.831109	0.207198
949.008316	0.206682
949.185505	0.205900
949.362676	0.203519
949.539828	0.201978
949.716962	0.200684
949.894078	0.199620
950.071176	0.199848
950.248256	0.195418
950.425317	0.193408
950.602360	0.190994
950.779385	0.188385
950.956391	0.188029
951.133380	0.185495
951.310350	0.186311
951.487302	0.185744
951.664235	0.183821
951.841151	0.185234
952.018048	0.185839
952.194927	0.185808
952.371788	0.188397
952.548631	0.186840
952.725455	0.186285
952.902261	0.184211
953.079049	0.181172
953.255819	0.179819
953.432570	0.177292
953.609303	0.176896
953.786018	0.176557
953.962715	0.171695
954.139394	0.169896
954.316054	0.170316
954.492696	0.169233
954.669320	0.170071
954.845926	0.169037
955.022513	0.169104
955.199083	0.167504
955.375634	0.166131
955.552166	0.166265
955.728681	0.166483
955.905177	0.166774
956.081655	0.166616
956.258115	0.165627
956.434557	0.165846
956.610980	0.164045
956.787385	0.161579
956.963772	0.160038
957.140141	0.161800
957.316492	0.160292
957.492824	0.157404
957.669138	0.158361
957.845434	0.159147
958.021712	0.156977
958.197971	0.157536
958.374212	0.159145
958.550435	0.156344
958.726640	0.153949
958.902826	0.152502
959.078995	0.151521
959.255145	0.148578
959.431277	0.143532
959.607390	0.143972
959.783486	0.143818
959.959563	0.142285
960.135622	0.143071
960.311662	0.141266
960.487685	0.142282
960.663689	0.142213
960.839675	0.142512
961.015643	0.143330
961.191593	0.142990
961.367524	0.140595
961.543437	0.138907
961.719332	0.138884
961.895209	0.137951
962.071067	0.138481
962.246907	0.137498
962.422730	0.135292
962.598533	0.134157
962.774319	0.133355
962.950086	0.131349
963.125835	0.131191
963.301566	0.129811
963.477279	0.129440
963.652973	0.126347
963.828650	0.128044
964.004308	0.130375
964.179947	0.130313
964.355569	0.127612
964.531172	0.128697
964.706757	0.127873
964.882324	0.127926
965.057873	0.126714
965.233403	0.126829
965.408916	0.124499
965.584410	0.123064
965.759885	0.121521
965.935343	0.123855
966.110782	0.124701
966.286203	0.124461
966.461606	0.122233
966.636991	0.123495
966.812357	0.124095
966.987705	0.124195
967.163035	0.122172
967.338347	0.124741
967.513641	0.123913
967.688916	0.121836
967.864173	0.123290
968.039412	0.124916
968.214632	0.125107
968.389835	0.125230
968.565019	0.125323
968.740185	0.125945
968.915333	0.125892
969.090462	0.126366
969.265573	0.127965
969.440667	0.128625
969.615741	0.130414
969.790798	0.131021
969.965836	0.130365
970.140856	0.131842
970.315858	0.133966
970.490842	0.135904
970.665808	0.134553
970.840755	0.134078
971.015684	0.132920
971.190595	0.134045
971.365487	0.133522
971.540362	0.136985
971.715218	0.132217
971.890056	0.131302
972.064875	0.129138
972.239677	0.128456
972.414460	0.127931
972.589225	0.125900
972.763972	0.121498
972.938700	0.118497
973.113411	0.114574
973.288103	0.116457
973.462777	0.115056
973.637432	0.115615
973.812070	0.116018
973.986689	0.115411
974.161290	0.118386
974.335873	0.118149
974.510437	0.119252
974.684984	0.118223
974.859512	0.119371
975.034022	0.118693
975.208513	0.119480
975.382987	0.122005
975.557442	0.123320
975.731879	0.120273
975.906298	0.123715
976.080698	0.123819
976.255080	0.124184
976.429445	0.121039
976.603790	0.122517
976.778118	0.121820
976.952427	0.118793
977.126719	0.119680
977.300992	0.121756
977.475246	0.120931
977.649483	0.121754
977.823701	0.123248
977.997901	0.126700
978.172083	0.125764
978.346247	0.128034
978.520392	0.128593
978.694519	0.126620
978.868628	0.125154
979.042719	0.122937
979.216791	0.121888
979.390845	0.121865
979.564882	0.119331
979.738899	0.117334
979.912899	0.115968
980.086880	0.114845
980.260843	0.119967
980.434788	0.118948
980.608715	0.119962
980.782623	0.121368
980.956514	0.119490
981.130386	0.121425
981.304240	0.122815
981.478075	0.122280
981.651892	0.123940
981.825692	0.119030
981.999472	0.119024
982.173235	0.118569
982.346980	0.119024
982.520706	0.120802
982.694414	0.119414
982.868104	0.121752
983.041775	0.122010
983.215428	0.121221
983.389064	0.120743
983.562680	0.123075
983.736279	0.124896
983.909860	0.126006
984.083422	0.126073
984.256966	0.126839
984.430491	0.126437
984.603999	0.124132
984.777488	0.125471
984.950959	0.127466
985.124412	0.126719
985.297847	0.126941
985.471263	0.124670
985.644661	0.125145
985.818041	0.125220
985.991403	0.124826
986.164747	0.126056
986.338072	0.125287
986.511379	0.125991
986.684668	0.126974
986.857938	0.125109
987.031191	0.129446
987.204425	0.129490
987.377641	0.127367
987.550839	0.124341
987.724018	0.123362
987.897179	0.124815
988.070322	0.124257
988.243447	0.124333
988.416554	0.125255
988.589642	0.121625
988.762712	0.119636
988.935764	0.121149
989.108798	0.124193
989.281813	0.124587
989.454811	0.125602
989.627790	0.125878
989.800751	0.124695
989.973693	0.123200
990.146617	0.121661
990.319524	0.122795
990.492412	0.123050
990.665281	0.122483
990.838133	0.124087
991.010966	0.120994
991.183781	0.119097
991.356578	0.118021
991.529356	0.120180
991.702117	0.123801
991.874859	0.123486
992.047583	0.124966
992.220288	0.125877
992.392976	0.125446
992.565645	0.128093
992.738296	0.130184
992.910929	0.134316
993.083543	0.134714
993.256139	0.134572
993.428718	0.137401
993.601277	0.135732
993.773819	0.134080
993.946342	0.136139
994.118848	0.136488
994.291335	0.134908
994.463803	0.130902
994.636254	0.129433
994.808686	0.129831
994.981100	0.127489
995.153496	0.129029
995.325874	0.131925
995.498233	0.130874
995.670574	0.128102
995.842897	0.127350
996.015202	0.126813
996.187488	0.127894
996.359757	0.125048
996.532007	0.123990
996.704239	0.125723
996.876452	0.122227
997.048648	0.120330
997.220825	0.120564
997.392984	0.120812
997.565124	0.123004
997.737247	0.122202
997.909351	0.122980
998.081437	0.122481
998.253505	0.120024
998.425554	0.123375
998.597586	0.125591
998.769599	0.125666
998.941594	0.126797
999.113571	0.126893
999.285529	0.126620
999.457469	0.126754
999.629391	0.127908
999.801295	0.128434
999.973181	0.127740
1000.145048	0.124909
1000.316897	0.125582
1000.488728	0.125688
1000.660541	0.126597
1000.832335	0.125606
1001.004111	0.125888
1001.175869	0.125765
1001.347609	0.126623
1001.519331	0.126037
1001.691034	0.127619
1001.862719	0.127716
1002.034386	0.126080
1002.206035	0.125532
1002.377665	0.127308
1002.549277	0.128192
1002.720871	0.129107
1002.892447	0.127318
1003.064004	0.126655
1003.235544	0.128870
1003.407065	0.130004
1003.578568	0.132242
1003.750052	0.132727
1003.921519	0.132263
1004.092967	0.131407
1004.264397	0.131274
1004.435809	0.132012
1004.607202	0.132604
1004.778577	0.132101
1004.949934	0.132991
1005.121273	0.134447
1005.292594	0.132034
1005.463896	0.132119
1005.635180	0.131281
1005.806446	0.130983
1005.977694	0.132259
1006.148923	0.130281
1006.320135	0.129942
1006.491328	0.127694
1006.662503	0.125582
1006.833659	0.125639
1007.004798	0.126070
1007.175918	0.126411
1007.347020	0.128029
1007.518103	0.126764
1007.689169	0.128123
1007.860216	0.125808
1008.031245	0.124792
1008.202256	0.124240
1008.373248	0.125477
1008.544223	0.125228
1008.715179	0.124342
1008.886117	0.121719
1009.057036	0.122353
1009.227938	0.121359
1009.398821	0.121761
1009.569686	0.124141
1009.740533	0.124663
1009.911361	0.123481
1010.082172	0.122834
1010.252964	0.123055
1010.423738	0.123201
1010.594493	0.120944
1010.765231	0.120113
1010.935950	0.122521
1011.106651	0.121816
1011.277334	0.120481
1011.447998	0.122125
1011.618645	0.122258
1011.789273	0.122606
1011.959882	0.123995
1012.130474	0.126938
1012.301048	0.126516
1012.471603	0.124178
1012.642140	0.122521
1012.812658	0.124046
1012.983159	0.121641
1013.153641	0.124017
1013.324105	0.123175
1013.494551	0.124613
1013.664979	0.122572
1013.835388	0.126569
1014.005779	0.126032
1014.176152	0.127576
1014.346507	0.128827
1014.516843	0.130745
1014.687162	0.128483
1014.857462	0.129180
1015.027744	0.128128
1015.198007	0.129270
1015.368252	0.128702
1015.538480	0.131257
1015.708689	0.129507
1015.878879	0.127755
1016.049052	0.128144
1016.219206	0.126366
1016.389342	0.124692
1016.559460	0.123566
1016.729559	0.123357
1016.899641	0.121875
1017.069704	0.120939
1017.239749	0.122492
1017.409775	0.122030
1017.579784	0.123314
1017.749774	0.126410
1017.919746	0.130096
1018.089700	0.131986
1018.259635	0.132838
1018.429553	0.133058
1018.599452	0.134157
1018.769333	0.135583
1018.939195	0.136781
1019.109040	0.135600
1019.278866	0.134144
1019.448674	0.132244
1019.618464	0.131160
1019.788235	0.129413
1019.957989	0.131282
1020.127724	0.129768
1020.297441	0.128600
1020.467139	0.128473
1020.636820	0.126784
1020.806482	0.127180
1020.976126	0.129153
1021.145752	0.127488
1021.315359	0.126804
1021.484948	0.124959
1021.654519	0.124305
1021.824072	0.122713
1021.993607	0.123357
1022.163123	0.122431
1022.332621	0.121259
1022.502101	0.122408
1022.671563	0.123829
1022.841007	0.126359
1023.010432	0.127176
1023.179839	0.128324
1023.349228	0.128969
1023.518598	0.126872
1023.687951	0.128228
1023.857285	0.128871
1024.026601	0.126458
1024.195899	0.128092
1024.365178	0.126039
1024.534439	0.125708
1024.703682	0.126037
1024.872907	0.125574
1025.042114	0.127303
1025.211302	0.127910
1025.380472	0.127979
1025.549624	0.127912
1025.718758	0.127855
1025.887873	0.130435
1026.056970	0.129835
1026.226049	0.129633
1026.395110	0.130274
1026.564153	0.131761
1026.733177	0.129408
1026.902183	0.128746
1027.071171	0.128219
1027.240141	0.126566
1027.409092	0.123579
1027.578026	0.125362
1027.746940	0.126627
1027.915837	0.129934
1028.084716	0.124614
1028.253576	0.124971
1028.422418	0.126624
1028.591242	0.127799
1028.760048	0.127556
1028.928835	0.127297
1029.097604	0.127072
1029.266355	0.124930
1029.435088	0.122313
1029.603803	0.124365
1029.772499	0.127405
1029.941177	0.125562
1030.109837	0.125370
1030.278478	0.124007
1030.447102	0.127369
1030.615707	0.125589
1030.784294	0.126168
1030.952863	0.127374
1031.121413	0.127989
1031.289945	0.126903
1031.458460	0.127532
1031.626955	0.127200
1031.795433	0.129562
1031.963892	0.127260
1032.132334	0.128309
1032.300756	0.129722
1032.469161	0.127818
1032.637548	0.130229
1032.805916	0.130233
1032.974266	0.131642
1033.142598	0.131793
1033.310911	0.130215
1033.479207	0.130129
1033.647484	0.128293
1033.815743	0.125855
1033.983983	0.127418
1034.152206	0.124067
1034.320410	0.124692
1034.488596	0.123091
1034.656764	0.121523
1034.824914	0.122042
1034.993045	0.122325
1035.161158	0.121797
1035.329253	0.123545
1035.497330	0.120023
1035.665388	0.119611
1035.833428	0.117204
1036.001450	0.117830
1036.169454	0.119593
1036.337440	0.120061
1036.505407	0.119651
1036.673356	0.121104
1036.841287	0.119970
1037.009200	0.121230
1037.177094	0.122817
1037.344970	0.125667
1037.512828	0.126411
1037.680668	0.125934
1037.848489	0.125043
1038.016293	0.127456
1038.184078	0.126727
1038.351845	0.127300
1038.519593	0.130405
1038.687324	0.130918
1038.855036	0.129756
1039.022730	0.130490
1039.190406	0.129701
1039.358063	0.130342
1039.525702	0.128443
1039.693323	0.128658
1039.860926	0.125773
1040.028511	0.124535
1040.196077	0.123463
1040.363625	0.124417
1040.531155	0.125867
1040.698667	0.129258
1040.866161	0.128381
1041.033636	0.128512
1041.201093	0.129922
1041.368532	0.131270
1041.535952	0.130327
1041.703355	0.131251
1041.870739	0.129390
1042.038105	0.127595
1042.205452	0.123534
1042.372782	0.124863
1042.540093	0.124149
1042.707386	0.124271
1042.874661	0.125845
1043.041918	0.127153
1043.209156	0.125183
1043.376376	0.126330
1043.543578	0.125636
1043.710762	0.127420
1043.877927	0.126541
1044.045074	0.126701
1044.212203	0.127224
1044.379314	0.128827
1044.546407	0.128457
1044.713481	0.130556
1044.880537	0.130630
1045.047575	0.130040
1045.214595	0.129530
1045.381596	0.130130
1045.548579	0.129170
1045.715544	0.127893
1045.882491	0.128130
1046.049420	0.129357
1046.216330	0.128104
1046.383222	0.125688
1046.550096	0.126540
1046.716951	0.125967
1046.883789	0.123616
1047.050608	0.125888
1047.217409	0.126462
1047.384192	0.122561
1047.550956	0.119607
1047.717703	0.119877
1047.884431	0.121656
1048.051140	0.120681
1048.217832	0.121057
1048.384505	0.121045
1048.551161	0.119164
1048.717798	0.121365
1048.884416	0.121647
1049.051017	0.122688
1049.217599	0.121468
1049.384163	0.121175
1049.550709	0.121080
1049.717237	0.121731
1049.883746	0.125310
1050.050237	0.128013
1050.216710	0.123821
1050.383165	0.125577
1050.549601	0.126771
1050.716019	0.128531
1050.882420	0.129677
1051.048801	0.129932
1051.215165	0.128734
1051.381510	0.128686
1051.547837	0.128443
1051.714146	0.130201
1051.880437	0.130912
1052.046709	0.131077
1052.212964	0.129308
1052.379200	0.128143
1052.545417	0.129284
1052.711617	0.128748
1052.877798	0.129145
1053.043961	0.125140
1053.210106	0.125157
1053.376233	0.123909
1053.542341	0.123230
1053.708432	0.128092
1053.874504	0.127483
1054.040557	0.126959
1054.206593	0.129406
1054.372610	0.128417
1054.538609	0.130417
1054.704590	0.129868
1054.870553	0.130632
1055.036497	0.132101
1055.202424	0.131979
1055.368331	0.132610
1055.534221	0.132269
1055.700093	0.133443
1055.865946	0.131998
1056.031781	0.133487
1056.197598	0.133279
1056.363397	0.131288
1056.529177	0.127907
1056.694939	0.124750
1056.860683	0.125007
1057.026409	0.126247
1057.192116	0.125109
1057.357806	0.124409
1057.523477	0.125034
1057.689130	0.127571
1057.854764	0.128936
1058.020381	0.128291
1058.185979	0.130951
1058.351559	0.133996
1058.517120	0.132903
1058.682664	0.131975
1058.848189	0.132061
1059.013696	0.129931
1059.179185	0.127601
1059.344656	0.128170
1059.510108	0.130551
1059.675542	0.126022
1059.840958	0.125763
1060.006356	0.124961
1060.171735	0.121985
1060.337096	0.123127
1060.502439	0.123748
1060.667764	0.122444
1060.833071	0.122771
1060.998359	0.122955
1061.163629	0.122376
1061.328881	0.118065
1061.494115	0.118688
1061.659330	0.121647
1061.824527	0.122730
1061.989706	0.122893
1062.154867	0.124441
1062.320010	0.126449
1062.485134	0.126523
1062.650240	0.127773
1062.815328	0.130270
1062.980398	0.132108
1063.145449	0.131704
1063.310482	0.130313
1063.475497	0.128362
1063.640494	0.129672
1063.805473	0.126070
1063.970433	0.125920
1064.135375	0.127320
1064.300299	0.127472
1064.465204	0.126601
1064.630092	0.129001
1064.794961	0.129116
1064.959812	0.130019
1065.124645	0.127661
1065.289459	0.128258
1065.454256	0.127114
1065.619034	0.128680
1065.783793	0.126651
1065.948535	0.126193
1066.113258	0.123479
1066.277964	0.124789
1066.442651	0.127377
1066.607319	0.131351
1066.771970	0.131355
1066.936602	0.134244
1067.101216	0.133197
1067.265812	0.135916
1067.430389	0.135130
1067.594949	0.136019
1067.759490	0.134680
1067.924013	0.132249
1068.088518	0.130923
1068.253004	0.130927
1068.417472	0.130803
1068.581922	0.131535
1068.746354	0.127315
1068.910768	0.130636
1069.075163	0.128313
1069.239540	0.129715
1069.403899	0.132571
1069.568240	0.131060
1069.732562	0.131151
1069.896866	0.131642
1070.061152	0.131446
1070.225420	0.137207
1070.389670	0.133301
1070.553901	0.137467
1070.718114	0.136180
1070.882309	0.131743
1071.046486	0.132769
1071.210644	0.133789
1071.374784	0.130464
1071.538906	0.129217
1071.703010	0.124721
1071.867096	0.127458
1072.031163	0.124486
1072.195212	0.125711
1072.359243	0.125835
1072.523256	0.124898
1072.687250	0.122980
1072.851226	0.124038
1073.015184	0.128394
1073.179124	0.129953
1073.343045	0.129527
1073.506949	0.132770
1073.670834	0.132984
1073.834701	0.135427
1073.998549	0.134665
1074.162380	0.137755
1074.326192	0.141664
1074.489986	0.136728
1074.653761	0.141132
1074.817519	0.141098
1074.981258	0.139027
1075.144979	0.139406
1075.308682	0.140088
1075.472367	0.139600
1075.636033	0.136532
1075.799681	0.130793
1075.963311	0.134559
1076.126923	0.132536
1076.290516	0.132756
1076.454092	0.135620
1076.617649	0.134374
1076.781187	0.134186
1076.944708	0.138777
1077.108210	0.142302
1077.271695	0.145397
1077.435160	0.141670
1077.598608	0.139195
1077.762038	0.139528
1077.925449	0.137299
1078.088842	0.137428
1078.252217	0.138435
1078.415573	0.135418
1078.578912	0.132354
1078.742232	0.133358
1078.905534	0.136185
1079.068817	0.135895
1079.232083	0.135710
1079.395330	0.135966
1079.558559	0.135652
1079.721770	0.134103
1079.884962	0.133489
1080.048136	0.134006
1080.211293	0.130958
1080.374430	0.132053
1080.537550	0.132831
1080.700651	0.131435
1080.863735	0.130550
1081.026800	0.131508
1081.189846	0.134103
1081.352875	0.135518
1081.515885	0.138763
1081.678877	0.144635
1081.841851	0.142868
1082.004807	0.146066
1082.167744	0.148873
1082.330663	0.150092
1082.493564	0.149590
1082.656447	0.148327
1082.819312	0.148302
1082.982158	0.147067
1083.144986	0.145150
1083.307796	0.147494
1083.470587	0.145516
1083.633361	0.144082
1083.796116	0.142621
1083.958853	0.142003
1084.121571	0.141701
1084.284272	0.143618
1084.446954	0.142229
1084.609618	0.139528
1084.772264	0.135270
1084.934892	0.134936
1085.097501	0.132574
1085.260092	0.135443
1085.422665	0.137281
1085.585220	0.137658
1085.747756	0.133519
1085.910274	0.133847
1086.072774	0.135550
1086.235256	0.138029
1086.397720	0.137890
1086.560165	0.138637
1086.722592	0.135369
1086.885001	0.133631
1087.047392	0.132397
1087.209764	0.135924
1087.372119	0.139543
1087.534455	0.138579
1087.696772	0.139506
1087.859072	0.143443
1088.021353	0.146695
1088.183616	0.151367
1088.345861	0.154138
1088.508088	0.160645
1088.670296	0.155493
1088.832486	0.156689
1088.994658	0.158385
1089.156812	0.156031
1089.318948	0.149390
1089.481065	0.149306
1089.643164	0.144492
1089.805245	0.141702
1089.967308	0.137935
1090.129352	0.141153
1090.291378	0.137426
1090.453386	0.136183
1090.615376	0.140708
1090.777347	0.143349
1090.939301	0.139989
1091.101236	0.142923
1091.263153	0.145766
1091.425051	0.141257
1091.586932	0.140751
1091.748794	0.141363
1091.910638	0.140729
1092.072463	0.134655
1092.234271	0.138944
1092.396060	0.139348
1092.557831	0.138925
1092.719584	0.140443
1092.881319	0.145234
1093.043035	0.150474
1093.204733	0.147258
1093.366413	0.145577
1093.528075	0.148636
1093.689718	0.141875
1093.851343	0.148363
1094.012950	0.146240
1094.174539	0.143597
1094.336110	0.143478
1094.497662	0.140087
1094.659196	0.139595
1094.820712	0.141839
1094.982210	0.139906
1095.143689	0.145195
1095.305151	0.136795
1095.466594	0.137136
1095.628018	0.136930
1095.789425	0.138118
1095.950813	0.138421
1096.112183	0.141944
1096.273535	0.140163
1096.434869	0.141385
1096.596184	0.136148
1096.757482	0.139561
1096.918761	0.141012
1097.080021	0.144743
1097.241264	0.149693
1097.402488	0.152061
1097.563694	0.153023
1097.724882	0.152859
1097.886052	0.155138
1098.047203	0.160195
1098.208336	0.161022
1098.369451	0.155862
1098.530548	0.151735
1098.691627	0.143639
1098.852687	0.142200
1099.013729	0.141169
1099.174753	0.145371
1099.335758	0.148062
1099.496746	0.148618
1099.657715	0.149463
1099.818666	0.150564
1099.979599	0.149848
1100.140513	0.145515
1100.301409	0.143633
1100.462287	0.147138
1100.623147	0.144630
1100.783989	0.139553
1100.944812	0.140150
1101.105617	0.138000
1101.266404	0.143303
1101.427173	0.144919
1101.587923	0.150404
1101.748656	0.153172
1101.909370	0.145798
1102.070066	0.150582
1102.230743	0.151046
1102.391403	0.149911
1102.552044	0.151301
1102.712667	0.148915
1102.873271	0.146807
1103.033858	0.150178
1103.194426	0.147321
1103.354976	0.151866
1103.515508	0.150998
1103.676021	0.151972
1103.836517	0.149194
1103.996994	0.148998
1104.157453	0.152109
1104.317893	0.156343
1104.478316	0.152281
1104.638720	0.152286
1104.799106	0.153582
1104.959474	0.151832
1105.119823	0.153095
1105.280155	0.155330
1105.440468	0.154392
1105.600763	0.156565
1105.761039	0.156953
1105.921298	0.162536
1106.081538	0.161382
1106.241760	0.165290
1106.401964	0.166857
1106.562149	0.165662
1106.722316	0.161453
1106.882465	0.157229
1107.042596	0.154893
1107.202709	0.151913
1107.362803	0.147207
1107.522879	0.144853
1107.682937	0.141319
1107.842977	0.139416
1108.002999	0.141753
1108.163002	0.143416
1108.322987	0.148935
1108.482954	0.154520
1108.642902	0.150017
1108.802833	0.153913
1108.962745	0.162982
1109.122639	0.163421
1109.282515	0.161428
1109.442372	0.158121
1109.602211	0.156071
1109.762032	0.155506
1109.921835	0.147686
1110.081620	0.151498
1110.241386	0.145339
1110.401134	0.139169
1110.560864	0.134719
1110.720576	0.137344
1110.880269	0.137411
1111.039945	0.142747
1111.199602	0.141407
1111.359240	0.146357
1111.518861	0.148636
1111.678463	0.151743
1111.838047	0.157391
1111.997613	0.163883
1112.157161	0.158690
1112.316690	0.159410
1112.476202	0.159172
1112.635695	0.161812
1112.795169	0.160859
1112.954626	0.162433
1113.114064	0.159712
1113.273484	0.155711
1113.432886	0.150805
1113.592270	0.154781
1113.751635	0.155541
1113.910983	0.159593
1114.070312	0.154074
1114.229622	0.151926
1114.388915	0.150205
1114.548189	0.156847
1114.707445	0.158244
1114.866683	0.160216
1115.025903	0.160891
1115.185104	0.163868
1115.344287	0.158486
1115.503452	0.162767
1115.662599	0.164257
1115.821727	0.164787
1115.980838	0.162148
1116.139930	0.161120
1116.299004	0.160034
1116.458059	0.161657
1116.617097	0.162941
1116.776116	0.166317
1116.935117	0.165656
1117.094099	0.165260
1117.253064	0.167621
1117.412010	0.164346
1117.570938	0.165518
1117.729848	0.167126
1117.888740	0.161067
1118.047613	0.159147
1118.206468	0.168081
1118.365305	0.172034
1118.524124	0.170635
1118.682924	0.168428
1118.841707	0.174952
1119.000471	0.178742
1119.159216	0.176854
1119.317944	0.180893
1119.476653	0.178499
1119.635344	0.165235
1119.794017	0.167494
1119.952672	0.166165
1120.111308	0.163579
1120.269927	0.164251
1120.428527	0.161986
1120.587108	0.167466
1120.745672	0.167822
1120.904217	0.166817
1121.062744	0.171363
1121.221253	0.159349
1121.379744	0.162243
1121.538216	0.169177
1121.696671	0.164482
1121.855107	0.163541
1122.013524	0.161534
1122.171924	0.162220
1122.330305	0.163547
1122.488668	0.166909
1122.647013	0.176686
1122.805340	0.174783
1122.963648	0.173266
1123.121938	0.175863
1123.280210	0.177242
1123.438464	0.175643
1123.596700	0.173422
1123.754917	0.174428
1123.913116	0.169300
1124.071297	0.168894
1124.229459	0.169910
1124.387604	0.166515
1124.545730	0.167202
1124.703838	0.164940
1124.861928	0.165623
1125.019999	0.162479
1125.178052	0.161583
1125.336088	0.158689
1125.494104	0.148587
1125.652103	0.146905
1125.810083	0.147615
1125.968045	0.146824
1126.125989	0.150206
1126.283915	0.149130
1126.441823	0.156049
1126.599712	0.156035
1126.757583	0.156701
1126.915436	0.170370
1127.073270	0.165129
1127.231087	0.159354
1127.388885	0.160816
1127.546665	0.159758
1127.704426	0.162012
1127.862170	0.164812
1128.019895	0.159223
1128.177602	0.160876
1128.335291	0.156475
1128.492961	0.165742
1128.650614	0.175997
1128.808248	0.172088
1128.965864	0.168441
1129.123461	0.165189
1129.281041	0.161088
1129.438602	0.164073
1129.596145	0.165606
1129.753670	0.161438
1129.911176	0.156090
1130.068665	0.151973
1130.226135	0.145947
1130.383587	0.150261
1130.541020	0.137677
1130.698436	0.137915
1130.855833	0.137097
1131.013212	0.137222
1131.170573	0.141971
1131.327915	0.143156
1131.485239	0.143332
1131.642545	0.152308
1131.799833	0.151539
1131.957103	0.163282
1132.114354	0.155898
1132.271588	0.155926
1132.428803	0.157275
1132.585999	0.163956
1132.743178	0.166531
1132.900338	0.171328
1133.057480	0.168483
1133.214604	0.160582
1133.371710	0.158639
1133.528797	0.168021
1133.685866	0.178629
1133.842917	0.179179
1133.999950	0.169668
1134.156964	0.167460
1134.313960	0.168563
1134.470938	0.168283
1134.627898	0.180402
1134.784840	0.183958
1134.941763	0.188294
1135.098668	0.174598
1135.255555	0.174665
1135.412424	0.179552
1135.569274	0.180399
1135.726107	0.174363
1135.882921	0.170920
1136.039716	0.172351
1136.196494	0.174425
1136.353253	0.165118
1136.509995	0.169514
1136.666717	0.165811
1136.823422	0.161681
1136.980109	0.163796
1137.136777	0.163997
1137.293427	0.166269
1137.450059	0.154260
1137.606672	0.152550
1137.763267	0.160406
1137.919844	0.164880
1138.076403	0.168008
1138.232944	0.171792
1138.389466	0.173971
1138.545971	0.173554
1138.702457	0.166688
1138.858924	0.174618
1139.015374	0.167188
1139.171805	0.157262
1139.328218	0.154966
1139.484613	0.150149
1139.640990	0.145898
1139.797348	0.142494
1139.953688	0.138598
1140.110010	0.147849
1140.266314	0.138674
1140.422600	0.148367
1140.578867	0.150045
1140.735116	0.147991
1140.891347	0.146247
1141.047559	0.146147
1141.203754	0.144660
1141.359930	0.153296
1141.516088	0.153650
1141.672228	0.155445
1141.828349	0.157044
1141.984452	0.156875
1142.140537	0.160333
1142.296604	0.156627
1142.452653	0.146007
1142.608683	0.145048
1142.764695	0.139882
1142.920689	0.140145
1143.076665	0.147402
1143.232622	0.142772
1143.388562	0.152393
1143.544483	0.148976
1143.700385	0.156898
1143.856270	0.177307
1144.012136	0.182297
1144.167985	0.190288
1144.323814	0.185881
1144.479626	0.184277
1144.635420	0.190912
1144.791195	0.174794
1144.946952	0.176527
1145.102691	0.172072
1145.258411	0.158104
1145.414113	0.154645
1145.569798	0.143101
1145.725463	0.151337
1145.881111	0.155810
1146.036741	0.152388
1146.192352	0.155097
1146.347945	0.156103
1146.503519	0.156362
1146.659076	0.168277
1146.814614	0.168477
1146.970134	0.175730
1147.125636	0.176941
1147.281120	0.167320
1147.436585	0.161478
1147.592032	0.171005
1147.747461	0.165254
1147.902872	0.162889
1148.058265	0.152938
1148.213639	0.167404
1148.368995	0.170142
1148.524333	0.162491
1148.679653	0.160415
1148.834954	0.159303
1148.990237	0.157672
1149.145502	0.155751
1149.300749	0.164286
1149.455977	0.166429
1149.611188	0.151545
1149.766380	0.150572
1149.921553	0.158435
1150.076709	0.159818
1150.231846	0.169967
1150.386966	0.152383
1150.542066	0.147511
1150.697149	0.148764
1150.852214	0.156009
1151.007260	0.152977
1151.162288	0.141867
1151.317298	0.126843
1151.472289	0.128569
1151.627263	0.127272
1151.782218	0.137159
1151.937155	0.142990
1152.092073	0.140402
1152.246974	0.131778
1152.401856	0.139034
1152.556720	0.143090
1152.711566	0.142098
1152.866393	0.142698
1153.021203	0.141027
1153.175994	0.149177
1153.330767	0.148841
1153.485521	0.137030
1153.640258	0.139349
1153.794976	0.138897
1153.949676	0.137914
1154.104358	0.145824
1154.259021	0.141224
1154.413667	0.136355
1154.568294	0.135407
1154.722903	0.150531
1154.877493	0.160467
1155.032066	0.164791
1155.186620	0.155848
1155.341156	0.159608
1155.495674	0.156646
1155.650173	0.161716
1155.804654	0.162613
1155.959118	0.166409
1156.113562	0.148148
1156.267989	0.152406
1156.422397	0.148597
1156.576788	0.149724
1156.731160	0.155537
1156.885513	0.162097
1157.039849	0.172077
1157.194166	0.165527
1157.348465	0.160067
1157.502746	0.171334
1157.657009	0.163214
1157.811253	0.155569
1157.965479	0.173606
1158.119687	0.164391
1158.273877	0.154088
1158.428048	0.154456
1158.582201	0.156447
1158.736337	0.153232
1158.890453	0.155204
1159.044552	0.164578
1159.198632	0.175096
1159.352694	0.159624
1159.506738	0.148793
1159.660764	0.156839
1159.814771	0.142420
1159.968761	0.156087
1160.122732	0.159358
1160.276685	0.155468
1160.430619	0.136183
1160.584535	0.134357
1160.738434	0.143288
1160.892313	0.157196
1161.046175	0.152762
1161.200019	0.158828
1161.353844	0.160076
1161.507651	0.152269
1161.661440	0.152070
1161.815210	0.162826
1161.968962	0.157791
1162.122697	0.147386
1162.276412	0.141532
1162.430110	0.139453
1162.583789	0.132984
1162.737451	0.117781
1162.891094	0.132732
1163.044718	0.135610
1163.198325	0.147436
1163.351913	0.153660
1163.505483	0.164890
1163.659035	0.156710
1163.812569	0.168211
1163.966084	0.160167
1164.119581	0.167224
1164.273060	0.161392
1164.426521	0.155945
1164.579964	0.149368
1164.733388	0.145351
1164.886794	0.131711
1165.040182	0.146334
1165.193551	0.128556
1165.346903	0.139175
1165.500236	0.139658
1165.653551	0.141539
1165.806848	0.150744
1165.960126	0.154247
1166.113386	0.157965
1166.266628	0.150741
1166.419852	0.145034
1166.573058	0.148914
1166.726245	0.161110
1166.879414	0.167543
1167.032565	0.155970
1167.185698	0.139232
1167.338812	0.141616
1167.491909	0.141479
1167.644987	0.153102
1167.798046	0.152870
1167.951088	0.159859
1168.104111	0.158449
1168.257117	0.157253
1168.410103	0.160296
1168.563072	0.173037
1168.716023	0.152853
1168.868955	0.169008
1169.021869	0.172870
1169.174765	0.182905
1169.327642	0.187456
1169.480501	0.175459
1169.633343	0.166612
1169.786165	0.171412
1169.938970	0.167236
1170.091757	0.175900
1170.244525	0.148563
1170.397275	0.146564
1170.550007	0.147178
1170.702720	0.139830
1170.855415	0.135070
1171.008092	0.133164
1171.160751	0.129488
1171.313392	0.127106
1171.466014	0.093486
1171.618619	0.126734
1171.771205	0.126734
1171.923772	0.126734
