sample name	sample
index	346
start time	 03-01-2021  11:40:59 AM


Wavelength (nm)	Absorbance
494.344910	0.214948
494.563924	0.214948
494.782919	0.214948
495.001897	0.214855
495.220856	0.232923
495.439797	0.267827
495.658719	0.317485
495.877624	0.292147
496.096510	0.230368
496.315378	0.099284
496.534227	0.075130
496.753059	0.026582
496.971872	-0.110884
497.190667	0.258739
497.409444	0.281750
497.628203	0.287379
497.846943	0.290872
498.065665	0.292601
498.284369	0.294724
498.503055	0.295406
498.721723	0.296277
498.940372	0.296227
499.159003	0.294180
499.377616	0.293696
499.596210	0.293664
499.814787	0.293098
500.033345	0.292425
500.251885	0.292515
500.470406	0.291100
500.688910	0.290152
500.907395	0.290235
501.125862	0.289731
501.344311	0.288313
501.562742	0.287810
501.781154	0.286290
501.999548	0.284159
502.217924	0.282356
502.436282	0.282184
502.654621	0.280934
502.872942	0.279406
503.091245	0.277935
503.309530	0.277462
503.527797	0.274623
503.746045	0.273098
503.964275	0.272961
504.182487	0.272180
504.400681	0.271456
504.618856	0.270227
504.837013	0.268813
505.055152	0.267806
505.273273	0.266339
505.491376	0.265715
505.709460	0.266115
505.927526	0.265212
506.145574	0.265074
506.363604	0.264218
506.581615	0.264835
506.799608	0.264848
507.017583	0.265046
507.235540	0.265215
507.453478	0.265013
507.671399	0.263930
507.889301	0.264048
508.107185	0.263231
508.325050	0.262712
508.542898	0.262338
508.760727	0.262806
508.978538	0.260944
509.196330	0.259567
509.414105	0.257961
509.631861	0.256221
509.849599	0.255173
510.067319	0.255026
510.285021	0.254438
510.502704	0.252515
510.720369	0.250801
510.938016	0.249893
511.155645	0.249397
511.373255	0.250078
511.590848	0.250425
511.808422	0.251051
512.025977	0.249588
512.243515	0.249401
512.461034	0.247903
512.678536	0.248059
512.896018	0.248770
513.113483	0.248470
513.330930	0.246978
513.548358	0.246278
513.765768	0.245848
513.983160	0.245853
514.200533	0.244930
514.417889	0.245467
514.635226	0.243463
514.852545	0.241907
515.069845	0.240722
515.287128	0.241735
515.504392	0.241296
515.721638	0.239678
515.938866	0.239208
516.156075	0.239178
516.373267	0.238492
516.590440	0.239014
516.807594	0.239876
517.024731	0.240499
517.241850	0.239365
517.458950	0.239774
517.676032	0.239882
517.893095	0.239364
518.110141	0.238372
518.327168	0.238925
518.544177	0.238793
518.761168	0.237560
518.978141	0.236338
519.195095	0.235501
519.412031	0.234139
519.628949	0.233259
519.845849	0.233178
520.062731	0.232501
520.279594	0.231510
520.496439	0.231014
520.713266	0.231007
520.930074	0.231448
521.146865	0.231282
521.363637	0.230891
521.580391	0.230880
521.797127	0.230326
522.013844	0.230982
522.230543	0.231169
522.447224	0.231274
522.663887	0.230556
522.880532	0.230450
523.097158	0.230137
523.313766	0.230269
523.530356	0.229995
523.746928	0.229814
523.963481	0.229215
524.180017	0.228947
524.396534	0.228875
524.613032	0.229290
524.829513	0.229010
525.045975	0.229029
525.262420	0.228485
525.478845	0.227695
525.695253	0.227184
525.911643	0.226811
526.128014	0.226139
526.344367	0.225691
526.560702	0.225312
526.777018	0.225015
526.993316	0.224630
527.209597	0.224843
527.425858	0.225091
527.642102	0.225193
527.858328	0.225433
528.074535	0.224954
528.290724	0.224831
528.506894	0.224590
528.723047	0.224019
528.939181	0.224521
529.155297	0.224103
529.371395	0.223349
529.587475	0.223465
529.803536	0.223140
530.019579	0.223432
530.235604	0.222937
530.451611	0.222798
530.667600	0.222936
530.883570	0.222756
531.099522	0.223274
531.315456	0.224204
531.531372	0.223869
531.747269	0.223961
531.963148	0.223832
532.179009	0.224073
532.394852	0.223769
532.610676	0.223998
532.826482	0.223841
533.042271	0.223943
533.258040	0.223845
533.473792	0.223740
533.689525	0.223565
533.905240	0.223700
534.120937	0.223793
534.336616	0.223882
534.552277	0.223528
534.767919	0.223293
534.983543	0.222908
535.199149	0.222331
535.414736	0.222635
535.630306	0.222606
535.845857	0.222679
536.061390	0.222546
536.276904	0.222790
536.492401	0.222964
536.707879	0.223205
536.923339	0.223386
537.138781	0.223718
537.354204	0.223530
537.569610	0.223436
537.784997	0.222950
538.000366	0.222813
538.215716	0.222975
538.431049	0.222304
538.646363	0.222058
538.861659	0.221518
539.076937	0.221353
539.292196	0.221514
539.507438	0.221637
539.722661	0.222283
539.937866	0.222519
540.153052	0.221889
540.368221	0.221875
540.583371	0.221878
540.798503	0.222102
541.013617	0.222167
541.228712	0.221939
541.443789	0.221941
541.658848	0.221478
541.873889	0.221310
542.088912	0.221978
542.303916	0.222013
542.518902	0.221884
542.733870	0.221711
542.948820	0.222149
543.163752	0.222543
543.378665	0.222692
543.593560	0.222978
543.808437	0.223031
544.023295	0.222406
544.238136	0.222318
544.452958	0.222562
544.667762	0.222036
544.882548	0.221690
545.097315	0.221669
545.312064	0.221468
545.526795	0.221562
545.741508	0.221093
545.956203	0.221168
546.170879	0.221901
546.385537	0.222220
546.600177	0.222943
546.814799	0.222497
547.029402	0.221984
547.243988	0.221615
547.458555	0.221244
547.673103	0.221723
547.887634	0.222071
548.102146	0.222244
548.316640	0.222053
548.531116	0.222270
548.745574	0.222720
548.960013	0.223002
549.174435	0.223511
549.388838	0.224385
549.603222	0.224848
549.817589	0.224604
550.031937	0.224176
550.246267	0.223843
550.460579	0.223686
550.674873	0.223695
550.889148	0.223541
551.103405	0.223897
551.317644	0.223489
551.531865	0.222997
551.746068	0.223145
551.960252	0.223302
552.174418	0.223888
552.388566	0.224004
552.602696	0.224459
552.816807	0.224749
553.030900	0.224079
553.244975	0.223772
553.459032	0.223962
553.673070	0.224480
553.887091	0.224897
554.101093	0.224838
554.315077	0.224982
554.529042	0.224263
554.742990	0.223783
554.956919	0.224104
555.170830	0.224827
555.384722	0.225077
555.598597	0.224624
555.812453	0.223870
556.026291	0.223670
556.240111	0.223620
556.453913	0.223928
556.667696	0.224441
556.881461	0.224678
557.095208	0.224512
557.308937	0.224363
557.522647	0.224428
557.736339	0.224803
557.950013	0.225065
558.163669	0.225097
558.377307	0.225216
558.590926	0.225185
558.804527	0.225114
559.018110	0.224886
559.231675	0.225070
559.445221	0.225282
559.658749	0.225454
559.872259	0.225480
560.085751	0.225755
560.299225	0.225622
560.512680	0.225667
560.726117	0.225638
560.939536	0.226204
561.152937	0.225916
561.366319	0.225819
561.579683	0.226093
561.793029	0.226236
562.006357	0.225944
562.219667	0.226281
562.432958	0.226108
562.646231	0.226097
562.859486	0.225557
563.072723	0.225475
563.285941	0.225621
563.499141	0.225612
563.712323	0.225609
563.925487	0.225875
564.138632	0.225868
564.351760	0.226053
564.564869	0.226241
564.777960	0.226535
564.991032	0.226745
565.204087	0.226747
565.417123	0.226519
565.630141	0.226763
565.843140	0.226834
566.056122	0.226935
566.269085	0.227035
566.482030	0.226859
566.694957	0.227159
566.907866	0.227071
567.120756	0.226997
567.333628	0.226998
567.546482	0.226645
567.759318	0.226710
567.972135	0.226678
568.184935	0.226629
568.397716	0.226513
568.610478	0.226207
568.823223	0.226244
569.035949	0.226519
569.248657	0.226900
569.461347	0.227440
569.674019	0.227207
569.886672	0.227469
570.099308	0.227650
570.311925	0.228018
570.524523	0.228678
570.737104	0.228947
570.949666	0.229156
571.162210	0.229261
571.374736	0.228887
571.587244	0.229583
571.799733	0.229830
572.012205	0.230106
572.224658	0.229988
572.437092	0.229722
572.649509	0.230213
572.861907	0.230278
573.074287	0.230354
573.286649	0.230671
573.498993	0.230437
573.711318	0.230036
573.923625	0.230258
574.135914	0.230487
574.348185	0.230679
574.560438	0.230729
574.772672	0.230814
574.984888	0.230818
575.197086	0.230469
575.409266	0.230626
575.621427	0.230952
575.833570	0.230670
576.045695	0.230882
576.257802	0.230648
576.469890	0.230707
576.681961	0.230895
576.894013	0.230954
577.106046	0.231283
577.318062	0.231401
577.530059	0.231737
577.742039	0.231968
577.954000	0.232334
578.165942	0.232557
578.377867	0.232620
578.589773	0.232377
578.801661	0.232155
579.013531	0.232442
579.225382	0.232305
579.437216	0.232265
579.649031	0.232513
579.860828	0.232235
580.072606	0.232381
580.284367	0.232484
580.496109	0.233002
580.707833	0.233361
580.919539	0.232896
581.131227	0.233220
581.342896	0.233204
581.554547	0.233180
581.766180	0.233472
581.977795	0.233764
582.189391	0.233870
582.400969	0.233773
582.612529	0.233806
582.824071	0.234479
583.035595	0.234692
583.247100	0.234673
583.458587	0.234992
583.670056	0.235533
583.881506	0.235985
584.092939	0.235989
584.304353	0.236315
584.515749	0.236727
584.727127	0.236901
584.938486	0.236968
585.149828	0.237073
585.361151	0.237086
585.572456	0.236812
585.783742	0.236683
585.995011	0.236813
586.206261	0.236725
586.417493	0.236430
586.628706	0.236770
586.839902	0.236760
587.051079	0.237200
587.262238	0.237099
587.473379	0.237173
587.684502	0.237142
587.895606	0.237079
588.106692	0.237346
588.317760	0.237870
588.528810	0.237934
588.739841	0.238367
588.950855	0.238155
589.161850	0.238720
589.372827	0.239037
589.583785	0.238887
589.794726	0.239216
590.005648	0.239551
590.216552	0.239641
590.427437	0.239273
590.638305	0.239151
590.849154	0.239263
591.059985	0.239616
591.270798	0.239441
591.481592	0.239570
591.692369	0.239525
591.903127	0.239447
592.113867	0.239628
592.324588	0.239807
592.535292	0.240355
592.745977	0.240594
592.956644	0.240397
593.167293	0.240808
593.377923	0.241369
593.588536	0.241728
593.799130	0.241866
594.009706	0.242148
594.220263	0.242899
594.430803	0.242557
594.641324	0.243245
594.851827	0.243391
595.062312	0.243782
595.272778	0.244168
595.483227	0.244368
595.693657	0.244734
595.904069	0.244759
596.114462	0.244680
596.324838	0.245082
596.535195	0.245104
596.745534	0.245186
596.955855	0.245365
597.166157	0.245092
597.376441	0.245576
597.586707	0.245333
597.796955	0.245323
598.007185	0.245557
598.217396	0.245187
598.427589	0.245419
598.637764	0.245590
598.847921	0.245531
599.058060	0.245767
599.268180	0.245277
599.478282	0.245822
599.688366	0.246174
599.898431	0.245953
600.108479	0.246786
600.318508	0.246399
600.528519	0.246637
600.738511	0.246403
600.948486	0.246691
601.158442	0.247235
601.368380	0.246949
601.578300	0.247145
601.788202	0.247330
601.998085	0.247373
602.207950	0.247947
602.417797	0.247990
602.627626	0.248543
602.837436	0.248477
603.047228	0.248715
603.257002	0.249090
603.466758	0.249113
603.676496	0.249829
603.886215	0.249722
604.095916	0.249656
604.305599	0.249795
604.515264	0.250007
604.724910	0.250219
604.934538	0.249995
605.144148	0.250269
605.353740	0.250290
605.563314	0.249865
605.772869	0.249892
605.982406	0.250237
606.191925	0.250444
606.401425	0.250452
606.610908	0.250670
606.820372	0.251194
607.029818	0.251246
607.239246	0.251857
607.448655	0.252328
607.658047	0.252773
607.867420	0.252821
608.076775	0.253014
608.286111	0.253382
608.495430	0.253389
608.704730	0.253206
608.914012	0.253194
609.123275	0.252674
609.332521	0.252694
609.541748	0.252689
609.750957	0.252808
609.960148	0.252985
610.169321	0.253034
610.378475	0.253471
610.587611	0.253437
610.796729	0.253839
611.005829	0.254524
611.214910	0.254853
611.423974	0.255140
611.633019	0.255280
611.842045	0.255170
612.051054	0.255046
612.260044	0.255159
612.469017	0.255669
612.677970	0.255574
612.886906	0.255606
613.095824	0.255579
613.304723	0.255607
613.513604	0.255762
613.722467	0.256013
613.931311	0.255927
614.140138	0.255716
614.348946	0.255776
614.557736	0.255747
614.766507	0.255604
614.975261	0.255913
615.183996	0.256152
615.392713	0.256099
615.601412	0.256076
615.810092	0.256658
616.018754	0.257121
616.227399	0.257313
616.436024	0.257804
616.644632	0.258140
616.853222	0.258333
617.061793	0.258362
617.270346	0.258400
617.478880	0.258975
617.687397	0.258997
617.895895	0.258917
618.104375	0.258965
618.312837	0.258871
618.521281	0.259075
618.729706	0.258826
618.938113	0.259133
619.146502	0.259456
619.354873	0.259482
619.563226	0.259529
619.771560	0.259537
619.979876	0.259810
620.188174	0.260244
620.396453	0.260612
620.604715	0.260988
620.812958	0.260992
621.021183	0.261071
621.229390	0.261232
621.437578	0.261495
621.645748	0.262036
621.853900	0.262135
622.062034	0.262295
622.270150	0.262279
622.478247	0.262340
622.686326	0.262667
622.894387	0.263314
623.102430	0.263196
623.310454	0.263010
623.518461	0.263009
623.726449	0.263216
623.934418	0.263168
624.142370	0.263338
624.350303	0.263335
624.558218	0.263238
624.766115	0.263030
624.973994	0.263453
625.181855	0.263890
625.389697	0.264263
625.597521	0.264332
625.805327	0.264632
626.013114	0.264769
626.220883	0.265066
626.428634	0.265148
626.636367	0.265450
626.844082	0.265631
627.051778	0.265994
627.259457	0.265818
627.467117	0.266002
627.674758	0.266157
627.882382	0.266278
628.089987	0.266472
628.297574	0.266789
628.505143	0.266760
628.712694	0.266602
628.920226	0.266388
629.127740	0.266679
629.335236	0.266720
629.542714	0.266621
629.750174	0.266799
629.957615	0.266864
630.165038	0.267085
630.372443	0.267335
630.579829	0.267808
630.787198	0.268084
630.994548	0.268186
631.201880	0.268366
631.409194	0.268782
631.616489	0.268848
631.823766	0.269270
632.031025	0.269279
632.238266	0.269279
632.445489	0.269283
632.652693	0.269305
632.859879	0.269435
633.067047	0.269624
633.274197	0.269819
633.481329	0.269755
633.688442	0.269614
633.895537	0.269866
634.102614	0.270246
634.309672	0.270565
634.516713	0.271025
634.723735	0.271206
634.930739	0.271570
635.137724	0.271599
635.344692	0.272010
635.551641	0.272000
635.758572	0.272234
635.965485	0.272434
636.172379	0.272668
636.379256	0.272653
636.586114	0.272865
636.792954	0.272833
636.999775	0.273034
637.206579	0.273040
637.413364	0.273634
637.620131	0.273779
637.826880	0.274023
638.033610	0.274128
638.240323	0.274432
638.447017	0.274420
638.653692	0.274689
638.860350	0.274892
639.066990	0.275348
639.273611	0.275284
639.480214	0.275523
639.686798	0.275561
639.893365	0.275635
640.099913	0.275746
640.306443	0.276114
640.512955	0.275957
640.719449	0.276229
640.925924	0.276214
641.132381	0.276529
641.338820	0.276409
641.545241	0.276661
641.751644	0.276753
641.958028	0.277080
642.164394	0.277020
642.370742	0.277478
642.577071	0.277540
642.783383	0.277713
642.989676	0.278021
643.195951	0.278288
643.402207	0.278107
643.608446	0.278256
643.814666	0.278304
644.020868	0.278589
644.227052	0.278867
644.433218	0.278883
644.639365	0.279200
644.845494	0.279332
645.051605	0.279510
645.257698	0.279962
645.463772	0.280256
645.669828	0.280444
645.875866	0.280454
646.081886	0.280335
646.287888	0.280500
646.493871	0.280507
646.699836	0.280570
646.905783	0.280992
647.111712	0.280980
647.317622	0.281029
647.523514	0.281138
647.729388	0.281340
647.935244	0.281419
648.141082	0.281685
648.346901	0.281967
648.552702	0.282140
648.758485	0.281928
648.964250	0.282294
649.169996	0.282493
649.375724	0.282986
649.581434	0.283173
649.787126	0.283487
649.992800	0.283685
650.198455	0.283662
650.404092	0.283936
650.609711	0.284397
650.815311	0.284515
651.020894	0.284677
651.226458	0.284636
651.432004	0.284948
651.637532	0.285216
651.843041	0.285250
652.048532	0.285303
652.254006	0.285397
652.459460	0.285486
652.664897	0.285354
652.870315	0.285550
653.075716	0.285646
653.281097	0.286110
653.486461	0.286461
653.691807	0.286854
653.897134	0.287390
654.102443	0.287365
654.307734	0.287675
654.513006	0.288125
654.718261	0.288421
654.923497	0.288455
655.128715	0.288642
655.333915	0.288718
655.539096	0.288906
655.744259	0.289206
655.949404	0.289647
656.154531	0.289789
656.359640	0.289899
656.564730	0.290068
656.769802	0.290446
656.974856	0.290609
657.179892	0.290970
657.384909	0.291037
657.589908	0.291266
657.794889	0.291338
657.999852	0.291350
658.204797	0.291797
658.409723	0.291974
658.614631	0.292356
658.819521	0.292546
659.024393	0.292701
659.229246	0.292940
659.434081	0.293153
659.638898	0.293605
659.843697	0.294043
660.048478	0.294074
660.253240	0.294262
660.457984	0.294457
660.662710	0.294688
660.867417	0.294791
661.072107	0.295109
661.276778	0.295311
661.481431	0.295518
661.686066	0.295655
661.890682	0.295887
662.095281	0.296093
662.299861	0.296313
662.504422	0.296254
662.708966	0.296456
662.913491	0.296810
663.117999	0.296827
663.322488	0.296894
663.526958	0.297052
663.731411	0.297457
663.935845	0.297616
664.140261	0.297716
664.344659	0.297816
664.549038	0.297903
664.753400	0.297764
664.957743	0.298222
665.162068	0.298312
665.366375	0.298657
665.570663	0.298688
665.774933	0.298886
665.979185	0.299163
666.183419	0.299508
666.387635	0.299622
666.591832	0.299997
666.796011	0.300165
667.000172	0.300801
667.204315	0.300907
667.408439	0.301169
667.612545	0.301583
667.816634	0.301909
668.020703	0.302130
668.224755	0.302781
668.428788	0.302858
668.632803	0.303035
668.836800	0.302815
669.040779	0.302985
669.244739	0.303185
669.448681	0.303144
669.652605	0.303194
669.856511	0.303595
670.060399	0.303780
670.264268	0.304082
670.468119	0.304214
670.671952	0.304299
670.875767	0.304582
671.079563	0.304991
671.283341	0.305808
671.487101	0.305965
671.690843	0.306144
671.894567	0.306361
672.098272	0.306648
672.301959	0.306845
672.505628	0.307232
672.709278	0.307536
672.912911	0.307458
673.116525	0.306978
673.320121	0.307238
673.523699	0.307213
673.727258	0.307285
673.930799	0.307551
674.134322	0.307747
674.337827	0.307914
674.541314	0.308168
674.744782	0.308667
674.948232	0.309070
675.151664	0.309185
675.355078	0.309566
675.558474	0.309684
675.761851	0.309791
675.965210	0.310059
676.168551	0.310524
676.371873	0.310520
676.575178	0.310377
676.778464	0.310857
676.981732	0.311010
677.184981	0.311282
677.388213	0.311788
677.591426	0.312088
677.794621	0.312299
677.997798	0.312314
678.200956	0.312650
678.404097	0.313200
678.607219	0.313138
678.810323	0.313525
679.013408	0.313796
679.216476	0.313683
679.419525	0.313834
679.622556	0.314048
679.825569	0.314179
680.028563	0.314242
680.231540	0.314330
680.434498	0.314563
680.637438	0.314836
680.840359	0.314933
681.043263	0.315254
681.246148	0.315326
681.449015	0.315382
681.651864	0.315583
681.854694	0.315916
682.057506	0.316083
682.260301	0.316250
682.463076	0.316310
682.665834	0.316473
682.868573	0.316771
683.071295	0.317022
683.273998	0.316973
683.476682	0.317352
683.679349	0.317506
683.881997	0.317578
684.084627	0.317899
684.287239	0.318140
684.489833	0.318469
684.692408	0.318519
684.894965	0.318761
685.097504	0.319360
685.300025	0.319369
685.502527	0.319604
685.705012	0.319741
685.907478	0.319989
686.109925	0.320128
686.312355	0.320318
686.514766	0.320709
686.717159	0.320943
686.919534	0.320924
687.121891	0.321243
687.324230	0.321464
687.526550	0.321684
687.728852	0.321615
687.931136	0.321713
688.133401	0.321730
688.335649	0.321819
688.537878	0.321939
688.740089	0.322070
688.942281	0.322323
689.144456	0.322339
689.346612	0.322520
689.548750	0.322628
689.750870	0.323108
689.952971	0.323107
690.155055	0.323244
690.357120	0.323156
690.559167	0.323262
690.761195	0.323428
690.963206	0.323778
691.165198	0.323996
691.367172	0.324112
691.569128	0.324110
691.771065	0.324615
691.972984	0.324528
692.174885	0.325024
692.376768	0.325425
692.578633	0.325529
692.780479	0.325653
692.982308	0.325829
693.184118	0.326322
693.385909	0.326369
693.587683	0.326325
693.789438	0.326703
693.991175	0.326910
694.192894	0.326902
694.394595	0.327030
694.596277	0.327084
694.797941	0.327370
694.999587	0.327647
695.201215	0.327931
695.402824	0.328050
695.604416	0.328415
695.805989	0.328403
696.007543	0.328686
696.209080	0.328869
696.410598	0.328951
696.612099	0.328967
696.813580	0.328777
697.015044	0.328770
697.216490	0.328840
697.417917	0.328573
697.619326	0.328650
697.820717	0.328634
698.022089	0.328441
698.223444	0.328869
698.424780	0.329170
698.626098	0.329465
698.827397	0.329551
699.028679	0.329752
699.229942	0.330247
699.431187	0.330386
699.632414	0.330648
699.833622	0.330931
700.034813	0.330946
700.235985	0.330853
700.437139	0.330790
700.638274	0.330813
700.839392	0.331232
701.040491	0.331184
701.241572	0.331347
701.442635	0.331322
701.643679	0.331588
701.844706	0.331512
702.045714	0.331437
702.246704	0.331498
702.447675	0.331948
702.648629	0.331999
702.849564	0.332190
703.050481	0.332393
703.251380	0.332516
703.452260	0.332676
703.653122	0.332786
703.853966	0.333340
704.054792	0.333688
704.255600	0.333561
704.456389	0.333413
704.657160	0.333475
704.857913	0.333477
705.058648	0.333625
705.259365	0.333305
705.460063	0.333255
705.660743	0.332977
705.861405	0.332910
706.062048	0.333076
706.262674	0.333026
706.463281	0.332911
706.663870	0.332758
706.864441	0.332647
707.064993	0.332759
707.265527	0.332831
707.466043	0.333023
707.666541	0.333192
707.867021	0.333579
708.067482	0.333622
708.267925	0.333791
708.468350	0.334481
708.668757	0.334952
708.869145	0.335194
709.069516	0.335589
709.269868	0.335626
709.470201	0.335527
709.670517	0.335408
709.870814	0.335664
710.071093	0.335503
710.271354	0.335198
710.471597	0.335014
710.671821	0.335077
710.872028	0.334731
711.072216	0.335015
711.272385	0.335129
711.472537	0.335088
711.672670	0.335030
711.872785	0.335245
712.072882	0.335236
712.272961	0.335104
712.473021	0.335304
712.673063	0.335303
712.873087	0.334959
713.073093	0.335204
713.273081	0.335117
713.473050	0.335220
713.673001	0.335039
713.872934	0.335054
714.072849	0.335464
714.272745	0.335388
714.472623	0.335794
714.672483	0.335837
714.872325	0.335720
715.072148	0.335649
715.271954	0.335414
715.471741	0.335504
715.671509	0.335354
715.871260	0.334910
716.070992	0.334729
716.270707	0.334381
716.470403	0.334264
716.670080	0.334089
716.869740	0.333883
717.069381	0.333965
717.269004	0.333915
717.468609	0.333784
717.668195	0.333796
717.867764	0.333939
718.067314	0.333781
718.266846	0.333887
718.466360	0.333771
718.665855	0.334025
718.865332	0.333770
719.064791	0.333539
719.264232	0.333848
719.463655	0.333920
719.663059	0.333683
719.862445	0.334120
720.061813	0.334286
720.261163	0.334475
720.460494	0.334489
720.659807	0.334552
720.859102	0.334638
721.058379	0.334470
721.257638	0.334222
721.456878	0.334147
721.656100	0.333861
721.855304	0.333574
722.054490	0.333214
722.253657	0.332862
722.452806	0.333193
722.651937	0.333183
722.851050	0.333023
723.050145	0.333280
723.249221	0.333313
723.448279	0.333346
723.647319	0.333226
723.846340	0.333294
724.045344	0.333212
724.244329	0.332672
724.443296	0.332750
724.642245	0.332533
724.841175	0.332489
725.040088	0.332543
725.238982	0.332477
725.437857	0.332440
725.636715	0.332414
725.835554	0.332802
726.034376	0.332972
726.233179	0.332818
726.431963	0.332835
726.630730	0.332530
726.829478	0.332300
727.028208	0.332326
727.226920	0.332343
727.425614	0.332326
727.624289	0.331947
727.822946	0.331865
728.021585	0.331828
728.220206	0.331896
728.418808	0.331832
728.617392	0.331715
728.815958	0.331347
729.014506	0.331364
729.213036	0.331040
729.411547	0.330942
729.610040	0.330947
729.808515	0.330550
730.006972	0.330204
730.205410	0.329804
730.403831	0.329550
730.602233	0.329624
730.800616	0.329250
730.998982	0.329196
731.197329	0.328733
731.395658	0.328405
731.593969	0.328159
731.792262	0.327976
731.990536	0.328085
732.188793	0.328135
732.387031	0.327750
732.585250	0.327603
732.783452	0.327315
732.981635	0.327533
733.179800	0.327505
733.377947	0.327686
733.576076	0.327808
733.774186	0.327644
733.972278	0.327542
734.170352	0.327120
734.368408	0.326975
734.566446	0.326914
734.764465	0.326760
734.962466	0.326532
735.160449	0.326420
735.358413	0.326083
735.556360	0.325911
735.754288	0.325773
735.952198	0.325890
736.150090	0.325893
736.347963	0.325721
736.545818	0.325709
736.743655	0.325561
736.941474	0.325268
737.139275	0.325120
737.337057	0.325003
737.534821	0.324934
737.732567	0.325050
737.930295	0.324880
738.128005	0.324893
738.325696	0.324767
738.523369	0.324562
738.721024	0.324652
738.918660	0.324921
739.116279	0.325081
739.313879	0.324978
739.511461	0.324884
739.709024	0.324887
739.906570	0.324916
740.104097	0.324702
740.301606	0.324738
740.499097	0.324782
740.696569	0.324549
740.894024	0.324550
741.091460	0.324472
741.288878	0.324258
741.486277	0.323980
741.683659	0.323971
741.881022	0.323839
742.078367	0.323687
742.275694	0.323214
742.473002	0.323078
742.670293	0.322830
742.867565	0.322185
743.064819	0.322075
743.262054	0.322092
743.459272	0.321903
743.656471	0.321468
743.853652	0.321191
744.050815	0.321074
744.247959	0.320800
744.445085	0.320458
744.642194	0.320596
744.839283	0.320444
745.036355	0.320039
745.233408	0.319537
745.430444	0.319758
745.627461	0.319708
745.824459	0.319531
746.021440	0.319425
746.218402	0.319375
746.415346	0.319082
746.612272	0.318779
746.809180	0.318634
747.006069	0.318608
747.202940	0.318139
747.399793	0.318069
747.596628	0.318200
747.793444	0.318063
747.990243	0.317896
748.187023	0.317858
748.383784	0.317703
748.580528	0.317555
748.777253	0.317400
748.973960	0.317198
749.170649	0.316928
749.367320	0.316446
749.563973	0.316380
749.760607	0.316151
749.957223	0.316029
750.153821	0.315741
750.350400	0.315659
750.546962	0.315429
750.743505	0.315434
750.940030	0.315265
751.136536	0.315112
751.333025	0.314547
751.529495	0.314225
751.725947	0.313879
751.922381	0.313843
752.118796	0.313395
752.315194	0.312779
752.511573	0.312560
752.707934	0.312267
752.904276	0.312279
753.100601	0.312042
753.296907	0.311754
753.493195	0.311794
753.689465	0.311537
753.885716	0.311570
754.081949	0.311799
754.278164	0.311600
754.474361	0.311769
754.670540	0.311282
754.866700	0.311410
755.062843	0.311418
755.258967	0.311141
755.455072	0.311040
755.651160	0.311092
755.847229	0.311007
756.043280	0.310898
756.239313	0.310326
756.435328	0.310441
756.631324	0.310161
756.827302	0.310119
757.023262	0.309998
757.219204	0.309639
757.415127	0.309251
757.611033	0.309064
757.806920	0.308752
758.002788	0.308611
758.198639	0.308246
758.394471	0.308075
758.590286	0.307816
758.786081	0.307984
758.981859	0.307917
759.177619	0.307727
759.373360	0.307508
759.569083	0.307422
759.764788	0.307442
759.960474	0.307483
760.156143	0.307535
760.351793	0.307451
760.547425	0.306875
760.743038	0.306840
760.938634	0.306754
761.134211	0.306673
761.329770	0.306751
761.525311	0.306736
761.720833	0.306353
761.916338	0.306151
762.111824	0.305982
762.307292	0.306055
762.502741	0.306105
762.698173	0.305851
762.893586	0.305742
763.088981	0.305539
763.284358	0.305196
763.479716	0.305264
763.675057	0.305132
763.870379	0.305197
764.065683	0.305000
764.260968	0.304599
764.456236	0.304674
764.651485	0.304699
764.846716	0.304506
765.041929	0.304541
765.237123	0.304393
765.432299	0.304318
765.627457	0.304049
765.822597	0.303765
766.017719	0.303660
766.212822	0.303482
766.407907	0.303242
766.602974	0.303267
766.798023	0.303029
766.993054	0.303120
767.188066	0.302911
767.383060	0.302545
767.578036	0.302746
767.772993	0.302792
767.967933	0.302355
768.162854	0.302176
768.357757	0.301956
768.552642	0.301870
768.747508	0.301669
768.942356	0.301351
769.137186	0.301429
769.331998	0.300991
769.526792	0.300921
769.721567	0.301217
769.916324	0.301091
770.111063	0.300961
770.305784	0.300989
770.500486	0.300792
770.695171	0.300958
770.889837	0.300981
771.084484	0.301066
771.279114	0.300844
771.473725	0.300962
771.668318	0.301002
771.862893	0.301118
772.057450	0.300847
772.251988	0.300601
772.446509	0.300488
772.641011	0.300539
772.835494	0.300610
773.029960	0.300591
773.224407	0.300439
773.418836	0.300167
773.613247	0.299938
773.807640	0.299977
774.002014	0.300120
774.196370	0.299973
774.390708	0.299659
774.585028	0.299344
774.779330	0.299011
774.973613	0.299090
775.167878	0.299382
775.362125	0.299534
775.556354	0.299260
775.750564	0.299007
775.944756	0.298959
776.138930	0.298899
776.333086	0.298910
776.527223	0.299138
776.721343	0.298502
776.915444	0.298102
777.109526	0.297666
777.303591	0.297615
777.497637	0.297364
777.691666	0.297422
777.885676	0.297156
778.079667	0.297065
778.273641	0.296709
778.467596	0.296740
778.661533	0.296847
778.855452	0.296791
779.049352	0.296792
779.243235	0.296959
779.437099	0.296627
779.630945	0.296524
779.824773	0.296434
780.018582	0.296452
780.212373	0.296292
780.406146	0.296268
780.599901	0.296322
780.793638	0.296412
780.987356	0.296235
781.181056	0.296403
781.374738	0.296605
781.568402	0.296451
781.762047	0.296640
781.955674	0.296612
782.149283	0.296452
782.342874	0.296370
782.536447	0.296331
782.730001	0.296545
782.923537	0.296397
783.117055	0.296332
783.310555	0.296391
783.504036	0.296547
783.697499	0.296630
783.890944	0.296688
784.084371	0.296918
784.277780	0.296864
784.471170	0.296899
784.664542	0.296918
784.857896	0.297290
785.051231	0.297317
785.244549	0.297173
785.437848	0.297493
785.631129	0.297707
785.824392	0.297583
786.017636	0.297776
786.210863	0.297910
786.404071	0.298039
786.597260	0.297781
786.790432	0.297826
786.983585	0.297954
787.176721	0.297845
787.369838	0.297427
787.562936	0.297270
787.756017	0.297306
787.949079	0.297254
788.142123	0.297255
788.335149	0.297284
788.528156	0.297622
788.721146	0.297425
788.914117	0.297305
789.107070	0.297265
789.300005	0.297559
789.492921	0.297533
789.685819	0.297592
789.878699	0.297687
790.071561	0.298005
790.264405	0.297793
790.457230	0.297916
790.650037	0.297922
790.842826	0.298420
791.035597	0.298367
791.228349	0.298576
791.421084	0.298640
791.613800	0.298491
791.806497	0.298200
791.999177	0.298384
792.191838	0.298452
792.384481	0.298887
792.577106	0.298806
792.769713	0.298882
792.962301	0.298660
793.154871	0.298512
793.347423	0.299058
793.539957	0.299169
793.732473	0.298957
793.924970	0.299060
794.117449	0.299172
794.309910	0.299202
794.502353	0.299514
794.694777	0.299789
794.887183	0.300084
795.079571	0.299683
795.271941	0.299735
795.464293	0.300003
795.656626	0.300014
795.848941	0.300099
796.041238	0.300453
796.233516	0.300478
796.425777	0.300395
796.618019	0.300539
796.810243	0.301003
797.002449	0.301163
797.194636	0.301361
797.386805	0.301649
797.578956	0.301622
797.771089	0.301881
797.963204	0.301727
798.155300	0.302031
798.347378	0.302181
798.539438	0.301992
798.731480	0.302297
798.923503	0.302330
799.115509	0.302571
799.307496	0.302543
799.499465	0.302428
799.691415	0.302740
799.883348	0.302852
800.075262	0.302619
800.267158	0.303188
800.459035	0.303364
800.650895	0.303523
800.842736	0.303548
801.034559	0.303927
801.226364	0.303849
801.418150	0.304065
801.609919	0.304075
801.801669	0.304504
801.993401	0.304657
802.185114	0.304671
802.376810	0.304907
802.568487	0.304955
802.760146	0.305133
802.951787	0.305544
803.143409	0.305502
803.335014	0.305625
803.526600	0.305776
803.718168	0.305645
803.909717	0.305763
804.101249	0.305896
804.292762	0.306061
804.484257	0.306046
804.675734	0.305953
804.867192	0.306381
805.058632	0.306674
805.250054	0.306728
805.441458	0.307131
805.632844	0.307281
805.824211	0.307350
806.015561	0.307567
806.206891	0.308029
806.398204	0.308209
806.589499	0.308140
806.780775	0.308328
806.972033	0.308489
807.163273	0.308498
807.354495	0.308836
807.545698	0.309180
807.736883	0.309591
807.928050	0.309651
808.119199	0.310185
808.310329	0.310619
808.501441	0.310820
808.692535	0.311010
808.883611	0.311301
809.074669	0.311364
809.265708	0.311591
809.456729	0.311401
809.647732	0.311649
809.838717	0.311416
810.029683	0.311627
810.220632	0.311978
810.411562	0.312546
810.602474	0.312746
810.793367	0.313050
810.984242	0.313328
811.175100	0.314106
811.365938	0.314167
811.556759	0.314771
811.747562	0.314885
811.938346	0.314966
812.129112	0.315338
812.319860	0.315574
812.510589	0.315982
812.701300	0.316151
812.891994	0.316046
813.082668	0.316391
813.273325	0.316601
813.463964	0.316822
813.654584	0.317009
813.845186	0.317133
814.035769	0.317397
814.226335	0.317524
814.416882	0.317997
814.607411	0.318301
814.797922	0.318435
814.988415	0.318804
815.178889	0.319296
815.369345	0.319413
815.559783	0.319316
815.750203	0.319771
815.940605	0.320040
816.130988	0.320166
816.321353	0.320383
816.511700	0.320811
816.702028	0.320929
816.892339	0.320761
817.082631	0.321420
817.272905	0.321634
817.463161	0.321623
817.653398	0.321623
817.843617	0.321988
818.033819	0.322361
818.224001	0.322559
818.414166	0.322898
818.604312	0.323250
818.794440	0.323413
818.984550	0.323785
819.174642	0.324107
819.364716	0.324507
819.554771	0.324690
819.744808	0.324818
819.934827	0.324903
820.124827	0.324971
820.314810	0.325389
820.504774	0.325606
820.694720	0.325949
820.884647	0.326036
821.074557	0.326405
821.264448	0.326284
821.454321	0.326504
821.644176	0.326861
821.834012	0.327232
822.023831	0.327631
822.213631	0.327906
822.403413	0.328123
822.593176	0.328617
822.782922	0.328815
822.972649	0.329174
823.162358	0.329621
823.352049	0.329965
823.541721	0.330115
823.731376	0.330234
823.921012	0.330509
824.110629	0.331027
824.300229	0.331188
824.489811	0.331504
824.679374	0.331944
824.868919	0.332158
825.058445	0.332230
825.247954	0.332716
825.437444	0.333200
825.626916	0.333537
825.816370	0.333495
826.005806	0.333866
826.195223	0.334286
826.384622	0.334649
826.574003	0.334976
826.763366	0.335477
826.952711	0.335669
827.142037	0.335775
827.331345	0.336140
827.520635	0.336402
827.709906	0.336703
827.899160	0.336863
828.088395	0.337198
828.277612	0.337756
828.466810	0.337980
828.655991	0.338656
828.845153	0.338930
829.034297	0.339213
829.223423	0.339750
829.412531	0.339943
829.601620	0.340173
829.790691	0.340498
829.979744	0.340784
830.168779	0.341224
830.357795	0.340977
830.546793	0.341625
830.735773	0.342081
830.924735	0.342284
831.113679	0.342799
831.302604	0.343260
831.491511	0.343805
831.680400	0.343999
831.869271	0.344119
832.058123	0.344726
832.246957	0.344748
832.435773	0.344961
832.624571	0.345482
832.813351	0.345932
833.002112	0.346255
833.190855	0.346535
833.379580	0.346896
833.568287	0.347769
833.756975	0.347944
833.945645	0.348530
834.134297	0.348860
834.322931	0.349227
834.511547	0.349317
834.700144	0.349845
834.888723	0.349794
835.077284	0.350041
835.265826	0.350132
835.454351	0.350728
835.642857	0.351067
835.831345	0.351510
836.019815	0.351969
836.208266	0.352191
836.396699	0.352793
836.585114	0.353271
836.773511	0.353426
836.961890	0.353960
837.150250	0.354438
837.338592	0.354655
837.526916	0.354892
837.715222	0.355053
837.903510	0.355832
838.091779	0.356152
838.280030	0.356875
838.468263	0.357587
838.656477	0.358117
838.844674	0.358585
839.032852	0.358820
839.221012	0.359030
839.409153	0.359556
839.597277	0.359755
839.785382	0.360083
839.973469	0.360374
840.161538	0.360741
840.349589	0.360802
840.537621	0.361373
840.725635	0.362185
840.913631	0.363035
841.101609	0.363762
841.289568	0.364364
841.477509	0.364762
841.665432	0.365492
841.853337	0.366164
842.041224	0.366614
842.229092	0.366615
842.416942	0.366773
842.604774	0.367187
842.792588	0.367530
842.980383	0.368087
843.168160	0.368408
843.355919	0.368395
843.543660	0.368474
843.731382	0.368909
843.919087	0.369357
844.106773	0.369866
844.294441	0.370181
844.482090	0.370657
844.669722	0.371065
844.857335	0.371360
845.044930	0.371842
845.232507	0.372408
845.420065	0.373099
845.607605	0.373441
845.795127	0.374091
845.982631	0.374468
846.170117	0.374696
846.357584	0.374938
846.545033	0.375638
846.732464	0.375709
846.919877	0.376141
847.107272	0.376204
847.294648	0.376844
847.482006	0.376945
847.669346	0.377531
847.856667	0.377614
848.043971	0.378327
848.231256	0.378554
848.418523	0.379077
848.605771	0.379394
848.793002	0.379832
848.980214	0.380417
849.167408	0.381084
849.354584	0.381206
849.541742	0.381784
849.728881	0.381807
849.916002	0.381893
850.103105	0.382630
850.290190	0.382745
850.477256	0.383265
850.664304	0.383286
850.851334	0.383655
851.038346	0.384078
851.225340	0.384518
851.412315	0.384835
851.599272	0.385394
851.786211	0.385409
851.973132	0.386109
852.160034	0.386230
852.346918	0.386822
852.533784	0.387243
852.720632	0.387622
852.907462	0.387880
853.094273	0.388511
853.281066	0.388808
853.467841	0.389327
853.654598	0.389617
853.841336	0.390454
854.028056	0.390830
854.214758	0.391143
854.401442	0.391544
854.588107	0.392172
854.774755	0.392862
854.961384	0.393665
855.147995	0.394416
855.334587	0.394921
855.521162	0.395298
855.707718	0.395862
855.894256	0.396173
856.080775	0.396740
856.267277	0.397189
856.453760	0.397212
856.640225	0.397099
856.826672	0.397488
857.013101	0.397710
857.199511	0.398106
857.385903	0.397918
857.572277	0.397974
857.758633	0.398235
857.944970	0.398400
858.131290	0.398531
858.317591	0.399141
858.503873	0.399152
858.690138	0.399351
858.876384	0.399454
859.062612	0.399999
859.248822	0.400655
859.435014	0.400879
859.621188	0.401222
859.807343	0.401499
859.993480	0.402047
860.179599	0.402660
860.365699	0.403492
860.551781	0.403796
860.737846	0.404273
860.923891	0.404869
861.109919	0.405368
861.295929	0.405803
861.481920	0.406209
861.667893	0.406750
861.853848	0.407116
862.039784	0.407393
862.225702	0.408053
862.411603	0.408796
862.597484	0.409252
862.783348	0.409972
862.969193	0.410360
863.155021	0.411087
863.340830	0.411149
863.526620	0.411261
863.712393	0.411404
863.898147	0.412058
864.083883	0.411955
864.269601	0.412035
864.455301	0.411679
864.640982	0.411818
864.826645	0.411875
865.012290	0.412373
865.197917	0.412777
865.383526	0.413045
865.569116	0.412986
865.754688	0.413548
865.940242	0.413545
866.125777	0.414127
866.311295	0.414458
866.496794	0.414728
866.682275	0.414484
866.867737	0.414631
867.053182	0.415030
867.238608	0.415366
867.424016	0.415215
867.609406	0.416084
867.794778	0.416215
867.980131	0.416626
868.165466	0.416907
868.350783	0.417296
868.536082	0.417547
868.721362	0.417731
868.906625	0.417782
869.091869	0.418613
869.277094	0.418352
869.462302	0.418772
869.647491	0.418986
869.832662	0.419355
870.017815	0.420185
870.202950	0.420897
870.388066	0.421387
870.573165	0.422093
870.758245	0.422327
870.943306	0.422647
871.128350	0.423068
871.313375	0.423157
871.498382	0.423781
871.683371	0.423928
871.868342	0.424202
872.053294	0.424463
872.238229	0.424259
872.423144	0.424785
872.608042	0.425115
872.792922	0.425748
872.977783	0.425917
873.162626	0.426134
873.347451	0.426008
873.532258	0.426202
873.717046	0.426373
873.901816	0.426968
874.086568	0.426796
874.271302	0.427250
874.456017	0.427094
874.640715	0.427710
874.825394	0.427859
875.010055	0.428348
875.194697	0.428677
875.379322	0.428559
875.563928	0.428560
875.748516	0.428720
875.933085	0.428736
876.117637	0.428798
876.302170	0.429037
876.486685	0.429305
876.671182	0.429829
876.855661	0.430166
877.040121	0.430691
877.224563	0.430916
877.408987	0.431150
877.593393	0.431964
877.777780	0.432493
877.962150	0.432580
878.146501	0.432770
878.330833	0.432866
878.515148	0.433152
878.699444	0.433563
878.883722	0.434014
879.067982	0.434514
879.252224	0.434506
879.436447	0.434853
879.620653	0.435508
879.804840	0.435873
879.989008	0.435657
880.173159	0.435606
880.357291	0.435925
880.541405	0.435614
880.725501	0.435261
880.909579	0.435385
881.093638	0.435363
881.277680	0.434973
881.461703	0.434846
881.645707	0.435155
881.829694	0.435167
882.013662	0.435036
882.197612	0.435552
882.381544	0.436429
882.565458	0.436647
882.749353	0.437095
882.933230	0.437183
883.117089	0.437381
883.300930	0.437773
883.484753	0.437925
883.668557	0.438014
883.852343	0.438004
884.036111	0.437516
884.219861	0.437444
884.403592	0.437667
884.587305	0.437867
884.771000	0.438013
884.954677	0.437944
885.138335	0.438139
885.321976	0.438113
885.505598	0.437944
885.689201	0.437967
885.872787	0.438094
886.056354	0.437642
886.239904	0.438067
886.423434	0.438464
886.606947	0.438141
886.790442	0.437808
886.973918	0.437968
887.157376	0.438228
887.340816	0.438342
887.524237	0.438234
887.707641	0.438400
887.891026	0.438054
888.074393	0.437920
888.257741	0.438246
888.441072	0.438231
888.624384	0.438725
888.807678	0.438610
888.990954	0.438733
889.174211	0.439056
889.357451	0.438965
889.540672	0.439024
889.723875	0.438528
889.907059	0.438567
890.090226	0.438718
890.273374	0.438173
890.456504	0.438787
890.639616	0.439162
890.822709	0.438830
891.005785	0.438522
891.188842	0.438632
891.371881	0.439003
891.554901	0.439036
891.737904	0.439005
891.920888	0.439056
892.103854	0.438730
892.286802	0.438475
892.469731	0.438258
892.652643	0.438567
892.835536	0.438924
893.018410	0.438976
893.201267	0.438694
893.384106	0.438777
893.566926	0.438840
893.749728	0.439073
893.932511	0.438906
894.115277	0.439432
894.298024	0.439621
894.480753	0.438768
894.663464	0.438881
894.846157	0.439039
895.028831	0.438737
895.211487	0.438989
895.394125	0.438391
895.576745	0.438212
895.759346	0.437974
895.941930	0.437838
896.124495	0.438126
896.307041	0.437760
896.489570	0.437467
896.672080	0.437332
896.854573	0.437473
897.037046	0.437841
897.219502	0.437665
897.401940	0.436737
897.584359	0.436598
897.766760	0.436588
897.949143	0.436502
898.131507	0.436406
898.313854	0.436626
898.496182	0.436143
898.678492	0.435157
898.860783	0.435207
899.043057	0.435972
899.225312	0.435965
899.407549	0.436140
899.589768	0.435783
899.771968	0.435861
899.954151	0.435545
900.136315	0.435105
900.318461	0.434885
900.500588	0.434646
900.682698	0.433877
900.864789	0.432874
901.046862	0.432501
901.228917	0.431981
901.410953	0.431277
901.592971	0.430871
901.774972	0.430390
901.956953	0.430742
902.138917	0.430033
902.320862	0.430048
902.502790	0.430408
902.684699	0.429411
902.866589	0.429342
903.048462	0.429425
903.230316	0.429193
903.412152	0.429353
903.593970	0.429275
903.775770	0.429331
903.957551	0.428766
904.139314	0.428410
904.321059	0.428905
904.502786	0.428440
904.684494	0.428026
904.866185	0.428147
905.047857	0.427709
905.229510	0.427139
905.411146	0.426873
905.592763	0.427062
905.774363	0.426976
905.955943	0.426062
906.137506	0.426471
906.319051	0.425798
906.500577	0.424730
906.682085	0.424219
906.863575	0.423344
907.045046	0.422728
907.226500	0.421917
907.407935	0.420741
907.589352	0.420392
907.770750	0.419269
907.952131	0.419208
908.133493	0.419199
908.314837	0.418675
908.496163	0.418153
908.677470	0.418269
908.858760	0.417506
909.040031	0.417181
909.221284	0.416957
909.402518	0.416767
909.583735	0.416265
909.764933	0.415975
909.946113	0.415433
910.127275	0.415486
910.308418	0.414241
910.489544	0.414212
910.670651	0.413854
910.851740	0.412327
911.032810	0.411106
911.213863	0.410436
911.394897	0.409830
911.575913	0.409426
911.756911	0.409346
911.937890	0.408476
912.118851	0.407464
912.299794	0.406932
912.480719	0.407185
912.661626	0.406601
912.842514	0.406155
913.023384	0.405302
913.204236	0.404901
913.385070	0.403844
913.565886	0.404178
913.746683	0.404524
913.927462	0.404133
914.108223	0.403085
914.288965	0.403209
914.469690	0.402772
914.650396	0.402093
914.831084	0.400983
915.011754	0.400655
915.192405	0.400075
915.373038	0.398927
915.553653	0.398044
915.734250	0.398023
915.914829	0.397868
916.095389	0.397183
916.275931	0.396504
916.456455	0.396665
916.636961	0.396194
916.817448	0.395323
916.997917	0.395153
917.178368	0.394635
917.358801	0.394069
917.539216	0.393632
917.719612	0.393350
917.899990	0.393375
918.080350	0.392583
918.260692	0.391680
918.441015	0.391324
918.621320	0.390770
918.801607	0.389937
918.981876	0.388878
919.162127	0.387725
919.342359	0.386657
919.522573	0.386022
919.702769	0.385982
919.882947	0.385278
920.063106	0.384625
920.243247	0.383475
920.423370	0.382780
920.603475	0.382807
920.783562	0.381758
920.963630	0.381689
921.143680	0.380793
921.323712	0.379716
921.503725	0.379071
921.683721	0.378515
921.863698	0.377764
922.043657	0.377737
922.223598	0.377420
922.403520	0.377407
922.583424	0.376405
922.763311	0.376281
922.943178	0.375415
923.123028	0.375147
923.302859	0.374145
923.482673	0.373455
923.662467	0.372996
923.842244	0.371343
924.022003	0.370531
924.201743	0.370487
924.381465	0.369691
924.561169	0.369072
924.740854	0.368449
924.920522	0.368106
925.100171	0.367734
925.279802	0.367271
925.459414	0.367321
925.639009	0.366735
925.818585	0.364913
925.998143	0.363908
926.177683	0.362846
926.357205	0.362053
926.536708	0.361267
926.716193	0.360813
926.895660	0.358551
927.075109	0.358116
927.254539	0.357149
927.433951	0.357491
927.613345	0.357006
927.792721	0.356537
927.972079	0.355956
928.151418	0.355509
928.330739	0.354436
928.510042	0.355188
928.689327	0.354112
928.868593	0.353591
929.047841	0.352071
929.227071	0.351731
929.406283	0.351243
929.585476	0.350206
929.764652	0.349228
929.943809	0.348722
930.122948	0.347805
930.302068	0.347004
930.481171	0.346471
930.660255	0.346470
930.839321	0.344999
931.018369	0.344888
931.197398	0.344013
931.376409	0.343607
931.555402	0.343169
931.734377	0.342225
931.913334	0.341972
932.092272	0.341368
932.271192	0.340234
932.450094	0.339839
932.628978	0.338728
932.807844	0.337822
932.986691	0.336630
933.165520	0.335473
933.344331	0.335322
933.523123	0.334936
933.701898	0.334100
933.880654	0.333571
934.059392	0.333079
934.238111	0.331974
934.416813	0.332065
934.595496	0.331284
934.774161	0.330257
934.952808	0.329353
935.131437	0.328248
935.310047	0.327404
935.488639	0.325391
935.667213	0.324848
935.845769	0.323735
936.024306	0.322770
936.202825	0.322543
936.381326	0.322509
936.559809	0.320605
936.738274	0.320408
936.916720	0.318524
937.095148	0.319524
937.273558	0.318601
937.451950	0.318014
937.630323	0.316713
937.808678	0.315660
937.987015	0.315599
938.165334	0.315322
938.343635	0.313494
938.521917	0.313521
938.700181	0.312345
938.878427	0.310875
939.056655	0.310448
939.234864	0.310883
939.413055	0.310949
939.591228	0.309225
939.769383	0.308818
939.947519	0.307998
940.125638	0.307460
940.303738	0.307421
940.481820	0.307591
940.659883	0.307150
940.837929	0.305328
941.015956	0.304408
941.193965	0.304176
941.371955	0.303059
941.549928	0.302892
941.727882	0.302950
941.905818	0.302172
942.083736	0.302470
942.261636	0.302512
942.439517	0.302277
942.617380	0.302200
942.795225	0.301479
942.973052	0.302181
943.150860	0.301817
943.328651	0.301359
943.506423	0.300758
943.684176	0.298669
943.861912	0.297526
944.039629	0.297195
944.217328	0.296441
944.395009	0.295783
944.572672	0.295404
944.750317	0.294882
944.927943	0.294344
945.105551	0.295082
945.283141	0.295923
945.460712	0.296497
945.638265	0.294899
945.815801	0.294246
945.993317	0.295074
946.170816	0.294722
946.348297	0.294282
946.525759	0.294378
946.703203	0.293075
946.880629	0.292063
947.058036	0.291882
947.235425	0.293799
947.412797	0.296011
947.590149	0.296909
947.767484	0.298621
947.944800	0.300094
948.122099	0.300406
948.299379	0.300390
948.476640	0.299541
948.653884	0.299708
948.831109	0.299282
949.008316	0.297359
949.185505	0.296646
949.362676	0.295620
949.539828	0.295588
949.716962	0.294433
949.894078	0.293883
950.071176	0.296776
950.248256	0.298672
950.425317	0.299765
950.602360	0.301796
950.779385	0.301068
950.956391	0.301889
951.133380	0.302216
951.310350	0.304633
951.487302	0.305823
951.664235	0.305919
951.841151	0.305687
952.018048	0.305613
952.194927	0.305205
952.371788	0.307931
952.548631	0.308422
952.725455	0.308565
952.902261	0.309153
953.079049	0.310614
953.255819	0.310023
953.432570	0.307445
953.609303	0.309088
953.786018	0.310639
953.962715	0.309261
954.139394	0.308840
954.316054	0.311141
954.492696	0.312777
954.669320	0.315355
954.845926	0.317086
955.022513	0.321938
955.199083	0.322605
955.375634	0.321033
955.552166	0.320690
955.728681	0.322713
955.905177	0.320954
956.081655	0.319234
956.258115	0.317365
956.434557	0.319077
956.610980	0.318433
956.787385	0.316694
956.963772	0.320078
957.140141	0.321245
957.316492	0.321084
957.492824	0.324153
957.669138	0.325303
957.845434	0.324692
958.021712	0.324094
958.197971	0.323563
958.374212	0.326865
958.550435	0.325096
958.726640	0.330468
958.902826	0.330342
959.078995	0.328527
959.255145	0.329813
959.431277	0.334287
959.607390	0.334620
959.783486	0.336356
959.959563	0.336207
960.135622	0.338191
960.311662	0.332900
960.487685	0.334586
960.663689	0.339219
960.839675	0.336224
961.015643	0.338915
961.191593	0.339469
961.367524	0.337837
961.543437	0.338388
961.719332	0.339207
961.895209	0.343076
962.071067	0.342020
962.246907	0.339565
962.422730	0.341766
962.598533	0.338649
962.774319	0.338171
962.950086	0.342698
963.125835	0.344209
963.301566	0.345855
963.477279	0.347622
963.652973	0.348755
963.828650	0.351543
964.004308	0.356580
964.179947	0.356637
964.355569	0.361569
964.531172	0.359339
964.706757	0.360402
964.882324	0.360424
965.057873	0.357419
965.233403	0.356609
965.408916	0.353660
965.584410	0.348852
965.759885	0.351131
965.935343	0.349649
966.110782	0.350683
966.286203	0.350418
966.461606	0.348373
966.636991	0.351799
966.812357	0.355803
966.987705	0.354489
967.163035	0.356291
967.338347	0.354845
967.513641	0.353215
967.688916	0.354647
967.864173	0.355065
968.039412	0.358108
968.214632	0.354849
968.389835	0.352435
968.565019	0.354581
968.740185	0.355176
968.915333	0.355760
969.090462	0.358928
969.265573	0.358186
969.440667	0.357509
969.615741	0.355917
969.790798	0.356074
969.965836	0.354457
970.140856	0.355822
970.315858	0.357510
970.490842	0.356778
970.665808	0.351892
970.840755	0.349083
971.015684	0.349679
971.190595	0.347796
971.365487	0.347580
971.540362	0.346614
971.715218	0.343735
971.890056	0.341095
972.064875	0.341490
972.239677	0.339845
972.414460	0.340822
972.589225	0.339289
972.763972	0.340048
972.938700	0.343101
973.113411	0.346958
973.288103	0.349087
973.462777	0.351761
973.637432	0.352272
973.812070	0.355432
973.986689	0.354748
974.161290	0.355167
974.335873	0.355878
974.510437	0.355664
974.684984	0.354008
974.859512	0.353367
975.034022	0.349064
975.208513	0.345887
975.382987	0.346293
975.557442	0.346387
975.731879	0.346645
975.906298	0.344013
976.080698	0.341767
976.255080	0.337145
976.429445	0.337787
976.603790	0.339206
976.778118	0.338860
976.952427	0.336616
977.126719	0.338121
977.300992	0.333653
977.475246	0.334945
977.649483	0.334633
977.823701	0.342750
977.997901	0.340056
978.172083	0.339622
978.346247	0.339629
978.520392	0.342384
978.694519	0.341240
978.868628	0.341905
979.042719	0.339677
979.216791	0.338900
979.390845	0.337088
979.564882	0.337180
979.738899	0.334942
979.912899	0.338259
980.086880	0.333583
980.260843	0.332774
980.434788	0.331992
980.608715	0.330236
980.782623	0.329481
980.956514	0.326016
981.130386	0.325970
981.304240	0.325861
981.478075	0.322278
981.651892	0.322023
981.825692	0.321960
981.999472	0.322863
982.173235	0.325490
982.346980	0.326173
982.520706	0.324670
982.694414	0.322915
982.868104	0.324978
983.041775	0.323834
983.215428	0.323884
983.389064	0.320773
983.562680	0.321745
983.736279	0.321745
983.909860	0.320898
984.083422	0.321075
984.256966	0.321222
984.430491	0.318156
984.603999	0.318068
984.777488	0.319477
984.950959	0.320365
985.124412	0.318724
985.297847	0.318456
985.471263	0.321028
985.644661	0.321333
985.818041	0.323665
985.991403	0.323984
986.164747	0.322416
986.338072	0.323103
986.511379	0.322935
986.684668	0.320324
986.857938	0.317375
987.031191	0.312293
987.204425	0.313574
987.377641	0.311001
987.550839	0.309722
987.724018	0.310145
987.897179	0.307303
988.070322	0.306012
988.243447	0.307795
988.416554	0.306617
988.589642	0.308254
988.762712	0.305921
988.935764	0.304310
989.108798	0.303131
989.281813	0.302823
989.454811	0.304154
989.627790	0.302908
989.800751	0.304184
989.973693	0.304369
990.146617	0.303721
990.319524	0.303753
990.492412	0.304153
990.665281	0.304451
990.838133	0.303830
991.010966	0.303886
991.183781	0.304804
991.356578	0.303102
991.529356	0.303590
991.702117	0.305095
991.874859	0.303013
992.047583	0.302352
992.220288	0.304452
992.392976	0.303808
992.565645	0.300347
992.738296	0.299613
992.910929	0.299569
993.083543	0.298505
993.256139	0.295247
993.428718	0.296565
993.601277	0.297205
993.773819	0.297796
993.946342	0.296101
994.118848	0.298406
994.291335	0.296326
994.463803	0.295340
994.636254	0.294676
994.808686	0.296313
994.981100	0.296282
995.153496	0.295373
995.325874	0.292784
995.498233	0.294835
995.670574	0.291855
995.842897	0.295088
996.015202	0.294783
996.187488	0.295124
996.359757	0.292285
996.532007	0.289645
996.704239	0.288921
996.876452	0.288972
997.048648	0.287965
997.220825	0.287114
997.392984	0.284730
997.565124	0.282649
997.737247	0.281384
997.909351	0.282715
998.081437	0.283110
998.253505	0.282533
998.425554	0.280647
998.597586	0.280393
998.769599	0.280552
998.941594	0.280475
999.113571	0.281403
999.285529	0.280321
999.457469	0.278656
999.629391	0.277036
999.801295	0.277207
999.973181	0.277277
1000.145048	0.277691
1000.316897	0.276540
1000.488728	0.276195
1000.660541	0.276828
1000.832335	0.279040
1001.004111	0.278862
1001.175869	0.282478
1001.347609	0.280119
1001.519331	0.280980
1001.691034	0.279388
1001.862719	0.279984
1002.034386	0.278996
1002.206035	0.277715
1002.377665	0.276435
1002.549277	0.276447
1002.720871	0.271594
1002.892447	0.270889
1003.064004	0.267975
1003.235544	0.267705
1003.407065	0.267826
1003.578568	0.265418
1003.750052	0.264568
1003.921519	0.264097
1004.092967	0.262998
1004.264397	0.262359
1004.435809	0.262512
1004.607202	0.262591
1004.778577	0.260509
1004.949934	0.260110
1005.121273	0.260179
1005.292594	0.259634
1005.463896	0.258449
1005.635180	0.257515
1005.806446	0.258308
1005.977694	0.258659
1006.148923	0.258421
1006.320135	0.259618
1006.491328	0.258186
1006.662503	0.259788
1006.833659	0.259920
1007.004798	0.261541
1007.175918	0.260537
1007.347020	0.262483
1007.518103	0.263646
1007.689169	0.263393
1007.860216	0.263384
1008.031245	0.263105
1008.202256	0.262207
1008.373248	0.261662
1008.544223	0.256938
1008.715179	0.258942
1008.886117	0.258160
1009.057036	0.255850
1009.227938	0.256749
1009.398821	0.254732
1009.569686	0.255684
1009.740533	0.256160
1009.911361	0.254854
1010.082172	0.257441
1010.252964	0.256607
1010.423738	0.255534
1010.594493	0.255358
1010.765231	0.253181
1010.935950	0.254186
1011.106651	0.251310
1011.277334	0.248605
1011.447998	0.247378
1011.618645	0.246840
1011.789273	0.243132
1011.959882	0.240379
1012.130474	0.240341
1012.301048	0.240221
1012.471603	0.240276
1012.642140	0.243100
1012.812658	0.244086
1012.983159	0.246551
1013.153641	0.244947
1013.324105	0.246556
1013.494551	0.246039
1013.664979	0.246238
1013.835388	0.247092
1014.005779	0.245196
1014.176152	0.242496
1014.346507	0.239855
1014.516843	0.238446
1014.687162	0.237545
1014.857462	0.238165
1015.027744	0.237209
1015.198007	0.236056
1015.368252	0.234662
1015.538480	0.233648
1015.708689	0.232458
1015.878879	0.235284
1016.049052	0.232633
1016.219206	0.232763
1016.389342	0.231327
1016.559460	0.234562
1016.729559	0.233187
1016.899641	0.231638
1017.069704	0.229904
1017.239749	0.232223
1017.409775	0.230433
1017.579784	0.232215
1017.749774	0.231382
1017.919746	0.230656
1018.089700	0.228753
1018.259635	0.228675
1018.429553	0.228377
1018.599452	0.231470
1018.769333	0.228992
1018.939195	0.228810
1019.109040	0.227428
1019.278866	0.226916
1019.448674	0.227228
1019.618464	0.227850
1019.788235	0.227414
1019.957989	0.228607
1020.127724	0.225994
1020.297441	0.225366
1020.467139	0.224419
1020.636820	0.222564
1020.806482	0.222688
1020.976126	0.223494
1021.145752	0.221413
1021.315359	0.222912
1021.484948	0.220366
1021.654519	0.219974
1021.824072	0.218409
1021.993607	0.217808
1022.163123	0.218598
1022.332621	0.218487
1022.502101	0.216332
1022.671563	0.215536
1022.841007	0.213346
1023.010432	0.215096
1023.179839	0.215132
1023.349228	0.218086
1023.518598	0.218272
1023.687951	0.218473
1023.857285	0.218662
1024.026601	0.218256
1024.195899	0.217478
1024.365178	0.215410
1024.534439	0.215276
1024.703682	0.214643
1024.872907	0.212011
1025.042114	0.210503
1025.211302	0.211518
1025.380472	0.211947
1025.549624	0.211550
1025.718758	0.214650
1025.887873	0.216478
1026.056970	0.215012
1026.226049	0.214379
1026.395110	0.214386
1026.564153	0.215199
1026.733177	0.213411
1026.902183	0.214187
1027.071171	0.215739
1027.240141	0.212879
1027.409092	0.213136
1027.578026	0.213226
1027.746940	0.214084
1027.915837	0.213518
1028.084716	0.213859
1028.253576	0.215206
1028.422418	0.214248
1028.591242	0.212521
1028.760048	0.211314
1028.928835	0.209758
1029.097604	0.211313
1029.266355	0.210975
1029.435088	0.211138
1029.603803	0.210536
1029.772499	0.209200
1029.941177	0.207049
1030.109837	0.208099
1030.278478	0.209621
1030.447102	0.210239
1030.615707	0.207970
1030.784294	0.206560
1030.952863	0.204849
1031.121413	0.202888
1031.289945	0.202556
1031.458460	0.202274
1031.626955	0.202634
1031.795433	0.200609
1031.963892	0.199285
1032.132334	0.198229
1032.300756	0.199512
1032.469161	0.200432
1032.637548	0.200394
1032.805916	0.198743
1032.974266	0.199094
1033.142598	0.197682
1033.310911	0.199074
1033.479207	0.200015
1033.647484	0.199064
1033.815743	0.196735
1033.983983	0.197386
1034.152206	0.197257
1034.320410	0.195997
1034.488596	0.196516
1034.656764	0.196718
1034.824914	0.196635
1034.993045	0.195746
1035.161158	0.194242
1035.329253	0.195557
1035.497330	0.194419
1035.665388	0.195092
1035.833428	0.194592
1036.001450	0.191624
1036.169454	0.191873
1036.337440	0.190622
1036.505407	0.189590
1036.673356	0.192320
1036.841287	0.191446
1037.009200	0.190170
1037.177094	0.189199
1037.344970	0.193243
1037.512828	0.195485
1037.680668	0.193961
1037.848489	0.194457
1038.016293	0.194422
1038.184078	0.193605
1038.351845	0.193606
1038.519593	0.196131
1038.687324	0.197162
1038.855036	0.193065
1039.022730	0.190686
1039.190406	0.189101
1039.358063	0.187666
1039.525702	0.188693
1039.693323	0.189523
1039.860926	0.190372
1040.028511	0.189075
1040.196077	0.189177
1040.363625	0.191001
1040.531155	0.192357
1040.698667	0.194391
1040.866161	0.195836
1041.033636	0.195390
1041.201093	0.195382
1041.368532	0.194618
1041.535952	0.194684
1041.703355	0.193509
1041.870739	0.195589
1042.038105	0.193823
1042.205452	0.192686
1042.372782	0.192017
1042.540093	0.190923
1042.707386	0.190123
1042.874661	0.186983
1043.041918	0.185717
1043.209156	0.185867
1043.376376	0.183827
1043.543578	0.184590
1043.710762	0.182997
1043.877927	0.183348
1044.045074	0.185374
1044.212203	0.184044
1044.379314	0.185484
1044.546407	0.186617
1044.713481	0.184371
1044.880537	0.183494
1045.047575	0.182848
1045.214595	0.184301
1045.381596	0.183413
1045.548579	0.182428
1045.715544	0.182229
1045.882491	0.181633
1046.049420	0.180772
1046.216330	0.182843
1046.383222	0.183610
1046.550096	0.183980
1046.716951	0.182916
1046.883789	0.181845
1047.050608	0.181609
1047.217409	0.183222
1047.384192	0.185025
1047.550956	0.186239
1047.717703	0.185631
1047.884431	0.183353
1048.051140	0.183626
1048.217832	0.183770
1048.384505	0.183776
1048.551161	0.183662
1048.717798	0.183192
1048.884416	0.183226
1049.051017	0.181304
1049.217599	0.180173
1049.384163	0.181693
1049.550709	0.179997
1049.717237	0.179884
1049.883746	0.180173
1050.050237	0.178121
1050.216710	0.178031
1050.383165	0.177548
1050.549601	0.177641
1050.716019	0.179053
1050.882420	0.177576
1051.048801	0.179194
1051.215165	0.179736
1051.381510	0.180436
1051.547837	0.181762
1051.714146	0.180836
1051.880437	0.178798
1052.046709	0.178055
1052.212964	0.178228
1052.379200	0.177822
1052.545417	0.177133
1052.711617	0.177446
1052.877798	0.176010
1053.043961	0.175208
1053.210106	0.175611
1053.376233	0.177755
1053.542341	0.176553
1053.708432	0.174851
1053.874504	0.176590
1054.040557	0.177740
1054.206593	0.176036
1054.372610	0.175975
1054.538609	0.176376
1054.704590	0.175303
1054.870553	0.174183
1055.036497	0.176218
1055.202424	0.177092
1055.368331	0.175429
1055.534221	0.173242
1055.700093	0.174256
1055.865946	0.173919
1056.031781	0.174575
1056.197598	0.175880
1056.363397	0.176464
1056.529177	0.176323
1056.694939	0.174405
1056.860683	0.176542
1057.026409	0.176372
1057.192116	0.174887
1057.357806	0.175694
1057.523477	0.173110
1057.689130	0.172013
1057.854764	0.172266
1058.020381	0.170433
1058.185979	0.172932
1058.351559	0.172585
1058.517120	0.174432
1058.682664	0.176399
1058.848189	0.177009
1059.013696	0.178576
1059.179185	0.180707
1059.344656	0.180834
1059.510108	0.182352
1059.675542	0.181073
1059.840958	0.179359
1060.006356	0.178242
1060.171735	0.177100
1060.337096	0.175303
1060.502439	0.175851
1060.667764	0.174708
1060.833071	0.173999
1060.998359	0.175512
1061.163629	0.175153
1061.328881	0.175733
1061.494115	0.174062
1061.659330	0.173606
1061.824527	0.176535
1061.989706	0.175278
1062.154867	0.174957
1062.320010	0.172742
1062.485134	0.171058
1062.650240	0.169268
1062.815328	0.169132
1062.980398	0.172337
1063.145449	0.174124
1063.310482	0.172757
1063.475497	0.173345
1063.640494	0.171505
1063.805473	0.174315
1063.970433	0.174709
1064.135375	0.178793
1064.300299	0.179412
1064.465204	0.180111
1064.630092	0.180256
1064.794961	0.180294
1064.959812	0.182178
1065.124645	0.182392
1065.289459	0.182255
1065.454256	0.182295
1065.619034	0.178487
1065.783793	0.177299
1065.948535	0.173681
1066.113258	0.172502
1066.277964	0.170194
1066.442651	0.166082
1066.607319	0.167090
1066.771970	0.167353
1066.936602	0.168102
1067.101216	0.170942
1067.265812	0.169113
1067.430389	0.168996
1067.594949	0.167566
1067.759490	0.170442
1067.924013	0.171519
1068.088518	0.171197
1068.253004	0.169870
1068.417472	0.169995
1068.581922	0.167383
1068.746354	0.169502
1068.910768	0.169834
1069.075163	0.172783
1069.239540	0.170992
1069.403899	0.171206
1069.568240	0.172310
1069.732562	0.173265
1069.896866	0.171714
1070.061152	0.173145
1070.225420	0.173821
1070.389670	0.174311
1070.553901	0.171775
1070.718114	0.173519
1070.882309	0.174783
1071.046486	0.175764
1071.210644	0.174428
1071.374784	0.175178
1071.538906	0.176975
1071.703010	0.177279
1071.867096	0.176662
1072.031163	0.177681
1072.195212	0.176234
1072.359243	0.176199
1072.523256	0.175407
1072.687250	0.177044
1072.851226	0.177667
1073.015184	0.176583
1073.179124	0.176323
1073.343045	0.178050
1073.506949	0.178410
1073.670834	0.178544
1073.834701	0.178373
1073.998549	0.178116
1074.162380	0.176788
1074.326192	0.175293
1074.489986	0.173562
1074.653761	0.173693
1074.817519	0.174826
1074.981258	0.172738
1075.144979	0.173558
1075.308682	0.172588
1075.472367	0.169091
1075.636033	0.172594
1075.799681	0.173696
1075.963311	0.176086
1076.126923	0.176218
1076.290516	0.177076
1076.454092	0.177507
1076.617649	0.177970
1076.781187	0.179479
1076.944708	0.183856
1077.108210	0.179686
1077.271695	0.179502
1077.435160	0.180956
1077.598608	0.181179
1077.762038	0.178447
1077.925449	0.179741
1078.088842	0.179542
1078.252217	0.177730
1078.415573	0.177749
1078.578912	0.177085
1078.742232	0.177286
1078.905534	0.176115
1079.068817	0.173835
1079.232083	0.173970
1079.395330	0.172079
1079.558559	0.171415
1079.721770	0.173704
1079.884962	0.172103
1080.048136	0.173826
1080.211293	0.173136
1080.374430	0.171135
1080.537550	0.174077
1080.700651	0.173373
1080.863735	0.173994
1081.026800	0.175332
1081.189846	0.171448
1081.352875	0.169614
1081.515885	0.167928
1081.678877	0.166858
1081.841851	0.166196
1082.004807	0.165363
1082.167744	0.165646
1082.330663	0.167669
1082.493564	0.166286
1082.656447	0.170777
1082.819312	0.172803
1082.982158	0.174021
1083.144986	0.175816
1083.307796	0.177531
1083.470587	0.176207
1083.633361	0.175558
1083.796116	0.174867
1083.958853	0.175609
1084.121571	0.172919
1084.284272	0.171377
1084.446954	0.172419
1084.609618	0.173027
1084.772264	0.169460
1084.934892	0.170924
1085.097501	0.172545
1085.260092	0.173392
1085.422665	0.174879
1085.585220	0.176653
1085.747756	0.179395
1085.910274	0.178098
1086.072774	0.175551
1086.235256	0.179465
1086.397720	0.178789
1086.560165	0.179394
1086.722592	0.179185
1086.885001	0.176934
1087.047392	0.174733
1087.209764	0.175199
1087.372119	0.174684
1087.534455	0.177771
1087.696772	0.175319
1087.859072	0.174242
1088.021353	0.174867
1088.183616	0.173036
1088.345861	0.170942
1088.508088	0.172127
1088.670296	0.173495
1088.832486	0.174668
1088.994658	0.175676
1089.156812	0.176007
1089.318948	0.178286
1089.481065	0.177294
1089.643164	0.176467
1089.805245	0.178561
1089.967308	0.177906
1090.129352	0.178761
1090.291378	0.180451
1090.453386	0.179078
1090.615376	0.182297
1090.777347	0.179948
1090.939301	0.182787
1091.101236	0.185230
1091.263153	0.184532
1091.425051	0.185214
1091.586932	0.182980
1091.748794	0.187039
1091.910638	0.185536
1092.072463	0.184186
1092.234271	0.188638
1092.396060	0.186498
1092.557831	0.182910
1092.719584	0.184091
1092.881319	0.187345
1093.043035	0.185299
1093.204733	0.180260
1093.366413	0.180547
1093.528075	0.180461
1093.689718	0.175474
1093.851343	0.175939
1094.012950	0.177234
1094.174539	0.180227
1094.336110	0.176757
1094.497662	0.178682
1094.659196	0.178243
1094.820712	0.180358
1094.982210	0.182881
1095.143689	0.185784
1095.305151	0.184194
1095.466594	0.184418
1095.628018	0.180540
1095.789425	0.180932
1095.950813	0.180486
1096.112183	0.180440
1096.273535	0.180475
1096.434869	0.178815
1096.596184	0.178351
1096.757482	0.179121
1096.918761	0.181783
1097.080021	0.181349
1097.241264	0.181604
1097.402488	0.179594
1097.563694	0.180679
1097.724882	0.178671
1097.886052	0.177053
1098.047203	0.176612
1098.208336	0.178612
1098.369451	0.176497
1098.530548	0.178572
1098.691627	0.175827
1098.852687	0.180886
1099.013729	0.182449
1099.174753	0.185105
1099.335758	0.184725
1099.496746	0.182374
1099.657715	0.182294
1099.818666	0.184461
1099.979599	0.184383
1100.140513	0.188554
1100.301409	0.186508
1100.462287	0.187244
1100.623147	0.184767
1100.783989	0.187546
1100.944812	0.191605
1101.105617	0.187274
1101.266404	0.186589
1101.427173	0.187660
1101.587923	0.185466
1101.748656	0.184086
1101.909370	0.184327
1102.070066	0.186596
1102.230743	0.183906
1102.391403	0.182525
1102.552044	0.185396
1102.712667	0.184686
1102.873271	0.184792
1103.033858	0.189224
1103.194426	0.188325
1103.354976	0.185835
1103.515508	0.186555
1103.676021	0.192803
1103.836517	0.194970
1103.996994	0.196329
1104.157453	0.198501
1104.317893	0.196843
1104.478316	0.193086
1104.638720	0.194692
1104.799106	0.194203
1104.959474	0.189979
1105.119823	0.183303
1105.280155	0.182950
1105.440468	0.183806
1105.600763	0.184520
1105.761039	0.183219
1105.921298	0.182589
1106.081538	0.181280
1106.241760	0.176617
1106.401964	0.178904
1106.562149	0.181600
1106.722316	0.182109
1106.882465	0.179283
1107.042596	0.179052
1107.202709	0.185542
1107.362803	0.184204
1107.522879	0.184093
1107.682937	0.188409
1107.842977	0.191111
1108.002999	0.188093
1108.163002	0.185264
1108.322987	0.187972
1108.482954	0.188978
1108.642902	0.187100
1108.802833	0.190933
1108.962745	0.194298
1109.122639	0.192432
1109.282515	0.187963
1109.442372	0.193627
1109.602211	0.194327
1109.762032	0.193260
1109.921835	0.190545
1110.081620	0.184897
1110.241386	0.181419
1110.401134	0.177173
1110.560864	0.178126
1110.720576	0.177557
1110.880269	0.172403
1111.039945	0.174641
1111.199602	0.170762
1111.359240	0.171944
1111.518861	0.176445
1111.678463	0.181167
1111.838047	0.179438
1111.997613	0.181123
1112.157161	0.184502
1112.316690	0.192335
1112.476202	0.191939
1112.635695	0.194856
1112.795169	0.191313
1112.954626	0.187557
1113.114064	0.186076
1113.273484	0.191274
1113.432886	0.189924
1113.592270	0.186574
1113.751635	0.179864
1113.910983	0.178995
1114.070312	0.174690
1114.229622	0.174639
1114.388915	0.175870
1114.548189	0.174612
1114.707445	0.178385
1114.866683	0.181805
1115.025903	0.186571
1115.185104	0.187661
1115.344287	0.191680
1115.503452	0.196156
1115.662599	0.201813
1115.821727	0.203676
1115.980838	0.202380
1116.139930	0.199349
1116.299004	0.197515
1116.458059	0.196470
1116.617097	0.198402
1116.776116	0.196601
1116.935117	0.198357
1117.094099	0.199709
1117.253064	0.207385
1117.412010	0.210217
1117.570938	0.210499
1117.729848	0.211051
1117.888740	0.208730
1118.047613	0.209834
1118.206468	0.212015
1118.365305	0.209880
1118.524124	0.202010
1118.682924	0.191902
1118.841707	0.191759
1119.000471	0.192300
1119.159216	0.192183
1119.317944	0.193342
1119.476653	0.191669
1119.635344	0.186551
1119.794017	0.186073
1119.952672	0.194558
1120.111308	0.198826
1120.269927	0.200326
1120.428527	0.197329
1120.587108	0.197104
1120.745672	0.198102
1120.904217	0.201913
1121.062744	0.200518
1121.221253	0.197567
1121.379744	0.189897
1121.538216	0.193714
1121.696671	0.190610
1121.855107	0.186570
1122.013524	0.190537
1122.171924	0.194612
1122.330305	0.189974
1122.488668	0.191172
1122.647013	0.196045
1122.805340	0.201858
1122.963648	0.199872
1123.121938	0.202834
1123.280210	0.203053
1123.438464	0.198912
1123.596700	0.193938
1123.754917	0.201833
1123.913116	0.206395
1124.071297	0.206905
1124.229459	0.199262
1124.387604	0.194754
1124.545730	0.192768
1124.703838	0.195878
1124.861928	0.198035
1125.019999	0.201275
1125.178052	0.194970
1125.336088	0.189374
1125.494104	0.190325
1125.652103	0.198639
1125.810083	0.200849
1125.968045	0.202814
1126.125989	0.201837
1126.283915	0.205174
1126.441823	0.197272
1126.599712	0.196265
1126.757583	0.202145
1126.915436	0.196255
1127.073270	0.189684
1127.231087	0.189489
1127.388885	0.192726
1127.546665	0.197216
1127.704426	0.191515
1127.862170	0.196212
1128.019895	0.199212
1128.177602	0.197010
1128.335291	0.200872
1128.492961	0.207305
1128.650614	0.205465
1128.808248	0.206635
1128.965864	0.205007
1129.123461	0.202280
1129.281041	0.202259
1129.438602	0.203719
1129.596145	0.202556
1129.753670	0.201944
1129.911176	0.197446
1130.068665	0.192497
1130.226135	0.191683
1130.383587	0.192395
1130.541020	0.198680
1130.698436	0.199700
1130.855833	0.200098
1131.013212	0.203112
1131.170573	0.198027
1131.327915	0.198035
1131.485239	0.198934
1131.642545	0.197568
1131.799833	0.198032
1131.957103	0.194316
1132.114354	0.199277
1132.271588	0.191243
1132.428803	0.192102
1132.585999	0.197211
1132.743178	0.195163
1132.900338	0.203221
1133.057480	0.204993
1133.214604	0.207666
1133.371710	0.206929
1133.528797	0.203783
1133.685866	0.208525
1133.842917	0.205604
1133.999950	0.201027
1134.156964	0.206874
1134.313960	0.198584
1134.470938	0.188694
1134.627898	0.186061
1134.784840	0.182825
1134.941763	0.191170
1135.098668	0.195542
1135.255555	0.197009
1135.412424	0.209198
1135.569274	0.207454
1135.726107	0.208207
1135.882921	0.218153
1136.039716	0.216412
1136.196494	0.224334
1136.353253	0.211019
1136.509995	0.201544
1136.666717	0.198341
1136.823422	0.189058
1136.980109	0.187669
1137.136777	0.191518
1137.293427	0.192106
1137.450059	0.190554
1137.606672	0.191674
1137.763267	0.190425
1137.919844	0.198449
1138.076403	0.198202
1138.232944	0.204372
1138.389466	0.204428
1138.545971	0.200499
1138.702457	0.198510
1138.858924	0.197369
1139.015374	0.190754
1139.171805	0.197932
1139.328218	0.195715
1139.484613	0.202205
1139.640990	0.202935
1139.797348	0.202979
1139.953688	0.205861
1140.110010	0.196733
1140.266314	0.195669
1140.422600	0.192846
1140.578867	0.183067
1140.735116	0.182573
1140.891347	0.180886
1141.047559	0.182602
1141.203754	0.187573
1141.359930	0.187675
1141.516088	0.195017
1141.672228	0.196419
1141.828349	0.201479
1141.984452	0.199431
1142.140537	0.193854
1142.296604	0.195695
1142.452653	0.193059
1142.608683	0.183229
1142.764695	0.193241
1142.920689	0.194693
1143.076665	0.201221
1143.232622	0.200549
1143.388562	0.207435
1143.544483	0.211725
1143.700385	0.201054
1143.856270	0.197888
1144.012136	0.208300
1144.167985	0.201869
1144.323814	0.196929
1144.479626	0.197254
1144.635420	0.202835
1144.791195	0.201537
1144.946952	0.202845
1145.102691	0.213048
1145.258411	0.215192
1145.414113	0.220693
1145.569798	0.229528
1145.725463	0.236242
1145.881111	0.243065
1146.036741	0.243298
1146.192352	0.242650
1146.347945	0.244375
1146.503519	0.240228
1146.659076	0.236822
1146.814614	0.226717
1146.970134	0.212159
1147.125636	0.204381
1147.281120	0.196456
1147.436585	0.199581
1147.592032	0.204475
1147.747461	0.201605
1147.902872	0.197697
1148.058265	0.197320
1148.213639	0.196311
1148.368995	0.196146
1148.524333	0.205854
1148.679653	0.200889
1148.834954	0.197240
1148.990237	0.194917
1149.145502	0.201831
1149.300749	0.212594
1149.455977	0.213799
1149.611188	0.216220
1149.766380	0.219294
1149.921553	0.223760
1150.076709	0.233359
1150.231846	0.242169
1150.386966	0.246908
1150.542066	0.242743
1150.697149	0.228497
1150.852214	0.236566
1151.007260	0.242581
1151.162288	0.243733
1151.317298	0.236867
1151.472289	0.230369
1151.627263	0.219384
1151.782218	0.222986
1151.937155	0.211068
1152.092073	0.216533
1152.246974	0.212765
1152.401856	0.212358
1152.556720	0.208619
1152.711566	0.207586
1152.866393	0.215636
1153.021203	0.220056
1153.175994	0.211501
1153.330767	0.224124
1153.485521	0.219546
1153.640258	0.220496
1153.794976	0.214253
1153.949676	0.211897
1154.104358	0.222453
1154.259021	0.222857
1154.413667	0.220349
1154.568294	0.215537
1154.722903	0.212724
1154.877493	0.216691
1155.032066	0.209719
1155.186620	0.213891
1155.341156	0.215923
1155.495674	0.200932
1155.650173	0.202775
1155.804654	0.202275
1155.959118	0.218022
1156.113562	0.213863
1156.267989	0.221959
1156.422397	0.225016
1156.576788	0.220843
1156.731160	0.225679
1156.885513	0.220431
1157.039849	0.216820
1157.194166	0.213970
1157.348465	0.202806
1157.502746	0.208840
1157.657009	0.203384
1157.811253	0.203918
1157.965479	0.198998
1158.119687	0.198497
1158.273877	0.219952
1158.428048	0.209952
1158.582201	0.216918
1158.736337	0.211338
1158.890453	0.204402
1159.044552	0.199410
1159.198632	0.192855
1159.352694	0.191749
1159.506738	0.196712
1159.660764	0.183262
1159.814771	0.185187
1159.968761	0.178034
1160.122732	0.181973
1160.276685	0.188539
1160.430619	0.208591
1160.584535	0.206376
1160.738434	0.224977
1160.892313	0.221403
1161.046175	0.219406
1161.200019	0.221907
1161.353844	0.212825
1161.507651	0.212651
1161.661440	0.193932
1161.815210	0.182673
1161.968962	0.202456
1162.122697	0.191916
1162.276412	0.187912
1162.430110	0.183423
1162.583789	0.180080
1162.737451	0.203400
1162.891094	0.211893
1163.044718	0.219460
1163.198325	0.221332
1163.351913	0.214969
1163.505483	0.208173
1163.659035	0.222576
1163.812569	0.233481
1163.966084	0.239640
1164.119581	0.231630
1164.273060	0.220310
1164.426521	0.240318
1164.579964	0.243276
1164.733388	0.231455
1164.886794	0.254654
1165.040182	0.244017
1165.193551	0.236957
1165.346903	0.235515
1165.500236	0.221629
1165.653551	0.216456
1165.806848	0.210656
1165.960126	0.195055
1166.113386	0.201730
1166.266628	0.191568
1166.419852	0.186947
1166.573058	0.185959
1166.726245	0.174342
1166.879414	0.175565
1167.032565	0.189144
1167.185698	0.180949
1167.338812	0.204797
1167.491909	0.203538
1167.644987	0.204163
1167.798046	0.201524
1167.951088	0.208223
1168.104111	0.203754
1168.257117	0.203412
1168.410103	0.194650
1168.563072	0.193557
1168.716023	0.191142
1168.868955	0.192120
1169.021869	0.183426
1169.174765	0.188429
1169.327642	0.193721
1169.480501	0.207201
1169.633343	0.201712
1169.786165	0.212272
1169.938970	0.220178
1170.091757	0.201006
1170.244525	0.213007
1170.397275	0.208898
1170.550007	0.199422
1170.702720	0.182386
1170.855415	0.203282
1171.008092	0.218226
1171.160751	0.215226
1171.313392	0.218882
1171.466014	0.422676
1171.618619	0.229301
1171.771205	0.229301
1171.923772	0.229301
