sample name	sample
index	869
start time	 04-08-2021  01:21:50 PM


Wavelength (nm)	Absorbance
494.344910	0.042112
494.563924	0.042112
494.782919	0.042112
495.001897	-0.014253
495.220856	0.007476
495.439797	-0.001495
495.658719	-0.010793
495.877624	-0.018269
496.096510	-0.018357
496.315378	-0.021103
496.534227	-0.019928
496.753059	-0.011916
496.971872	-0.011490
497.190667	0.065751
497.409444	0.111449
497.628203	0.129717
497.846943	0.140031
498.065665	0.146451
498.284369	0.152188
498.503055	0.156477
498.721723	0.158435
498.940372	0.160313
499.159003	0.160095
499.377616	0.160686
499.596210	0.161441
499.814787	0.161803
500.033345	0.162861
500.251885	0.162253
500.470406	0.161605
500.688910	0.163873
500.907395	0.163787
501.125862	0.163827
501.344311	0.163469
501.562742	0.164689
501.781154	0.164939
501.999548	0.164807
502.217924	0.165603
502.436282	0.167229
502.654621	0.166528
502.872942	0.166911
503.091245	0.167889
503.309530	0.169017
503.527797	0.168480
503.746045	0.169146
503.964275	0.169161
504.182487	0.170000
504.400681	0.169354
504.618856	0.170176
504.837013	0.170934
505.055152	0.170752
505.273273	0.170747
505.491376	0.170965
505.709460	0.170557
505.927526	0.170405
506.145574	0.169615
506.363604	0.170624
506.581615	0.169576
506.799608	0.170030
507.017583	0.171554
507.235540	0.171591
507.453478	0.171934
507.671399	0.173325
507.889301	0.173473
508.107185	0.174316
508.325050	0.172902
508.542898	0.174533
508.760727	0.174530
508.978538	0.174424
509.196330	0.174654
509.414105	0.174819
509.631861	0.174690
509.849599	0.175377
510.067319	0.175286
510.285021	0.176390
510.502704	0.176325
510.720369	0.176578
510.938016	0.176327
511.155645	0.176429
511.373255	0.176280
511.590848	0.176866
511.808422	0.177893
512.025977	0.178492
512.243515	0.179149
512.461034	0.178731
512.678536	0.179544
512.896018	0.180855
513.113483	0.181633
513.330930	0.182069
513.548358	0.181367
513.765768	0.180847
513.983160	0.181309
514.200533	0.181494
514.417889	0.181745
514.635226	0.181768
514.852545	0.181765
515.069845	0.181838
515.287128	0.183000
515.504392	0.183649
515.721638	0.183895
515.938866	0.183990
516.156075	0.183980
516.373267	0.184498
516.590440	0.184057
516.807594	0.185315
517.024731	0.185839
517.241850	0.185980
517.458950	0.187034
517.676032	0.187467
517.893095	0.187891
518.110141	0.188094
518.327168	0.188436
518.544177	0.189138
518.761168	0.188190
518.978141	0.188443
519.195095	0.188707
519.412031	0.188332
519.628949	0.188207
519.845849	0.188373
520.062731	0.189331
520.279594	0.189843
520.496439	0.190081
520.713266	0.190801
520.930074	0.191104
521.146865	0.190766
521.363637	0.191764
521.580391	0.193876
521.797127	0.194612
522.013844	0.194771
522.230543	0.195789
522.447224	0.196085
522.663887	0.195915
522.880532	0.196544
523.097158	0.197374
523.313766	0.197885
523.530356	0.197654
523.746928	0.197231
523.963481	0.198356
524.180017	0.198394
524.396534	0.198095
524.613032	0.198364
524.829513	0.198304
525.045975	0.198325
525.262420	0.198208
525.478845	0.198053
525.695253	0.198839
525.911643	0.198443
526.128014	0.199017
526.344367	0.200791
526.560702	0.201709
526.777018	0.201375
526.993316	0.202621
527.209597	0.202846
527.425858	0.203408
527.642102	0.203274
527.858328	0.204026
528.074535	0.203999
528.290724	0.203990
528.506894	0.203731
528.723047	0.205140
528.939181	0.204749
529.155297	0.204886
529.371395	0.204953
529.587475	0.205886
529.803536	0.205930
530.019579	0.206446
530.235604	0.206665
530.451611	0.207542
530.667600	0.208135
530.883570	0.208778
531.099522	0.209707
531.315456	0.210416
531.531372	0.210695
531.747269	0.211095
531.963148	0.211611
532.179009	0.211847
532.394852	0.212514
532.610676	0.212725
532.826482	0.213221
533.042271	0.213078
533.258040	0.213711
533.473792	0.214171
533.689525	0.214748
533.905240	0.214603
534.120937	0.215741
534.336616	0.216071
534.552277	0.216584
534.767919	0.217091
534.983543	0.217988
535.199149	0.218525
535.414736	0.218660
535.630306	0.218676
535.845857	0.219425
536.061390	0.219468
536.276904	0.219677
536.492401	0.219979
536.707879	0.219742
536.923339	0.219925
537.138781	0.220438
537.354204	0.221432
537.569610	0.221840
537.784997	0.222180
538.000366	0.222806
538.215716	0.222943
538.431049	0.222898
538.646363	0.223609
538.861659	0.223556
539.076937	0.223163
539.292196	0.223029
539.507438	0.223258
539.722661	0.223450
539.937866	0.223508
540.153052	0.223763
540.368221	0.224610
540.583371	0.224740
540.798503	0.226149
541.013617	0.226887
541.228712	0.227274
541.443789	0.228148
541.658848	0.228724
541.873889	0.229276
542.088912	0.229589
542.303916	0.229652
542.518902	0.230235
542.733870	0.230151
542.948820	0.230055
543.163752	0.230606
543.378665	0.230331
543.593560	0.230946
543.808437	0.231176
544.023295	0.231587
544.238136	0.232098
544.452958	0.232666
544.667762	0.232911
544.882548	0.234048
545.097315	0.234627
545.312064	0.235029
545.526795	0.234724
545.741508	0.234967
545.956203	0.235452
546.170879	0.235590
546.385537	0.235596
546.600177	0.235858
546.814799	0.236145
547.029402	0.236120
547.243988	0.236323
547.458555	0.237069
547.673103	0.237082
547.887634	0.236915
548.102146	0.237172
548.316640	0.237781
548.531116	0.237930
548.745574	0.237785
548.960013	0.238289
549.174435	0.239335
549.388838	0.239635
549.603222	0.240400
549.817589	0.241044
550.031937	0.241547
550.246267	0.241622
550.460579	0.242149
550.674873	0.242502
550.889148	0.242455
551.103405	0.242506
551.317644	0.242588
551.531865	0.242895
551.746068	0.243106
551.960252	0.243323
552.174418	0.243389
552.388566	0.243701
552.602696	0.243777
552.816807	0.243944
553.030900	0.243932
553.244975	0.244055
553.459032	0.244173
553.673070	0.244583
553.887091	0.245022
554.101093	0.245652
554.315077	0.246260
554.529042	0.246548
554.742990	0.246849
554.956919	0.247735
555.170830	0.248130
555.384722	0.248371
555.598597	0.248711
555.812453	0.248601
556.026291	0.248658
556.240111	0.248270
556.453913	0.248421
556.667696	0.248997
556.881461	0.249024
557.095208	0.249044
557.308937	0.249133
557.522647	0.248935
557.736339	0.249347
557.950013	0.249471
558.163669	0.250036
558.377307	0.250366
558.590926	0.250473
558.804527	0.250468
559.018110	0.250951
559.231675	0.251374
559.445221	0.251839
559.658749	0.252382
559.872259	0.252918
560.085751	0.252959
560.299225	0.252586
560.512680	0.252847
560.726117	0.253458
560.939536	0.253728
561.152937	0.254092
561.366319	0.254466
561.579683	0.254155
561.793029	0.254426
562.006357	0.254702
562.219667	0.255328
562.432958	0.255730
562.646231	0.255374
562.859486	0.255730
563.072723	0.255543
563.285941	0.255898
563.499141	0.256322
563.712323	0.256376
563.925487	0.256728
564.138632	0.257154
564.351760	0.257206
564.564869	0.257748
564.777960	0.257258
564.991032	0.257678
565.204087	0.257911
565.417123	0.257847
565.630141	0.258316
565.843140	0.258088
566.056122	0.258410
566.269085	0.258271
566.482030	0.257939
566.694957	0.258179
566.907866	0.258535
567.120756	0.258573
567.333628	0.258466
567.546482	0.257991
567.759318	0.258450
567.972135	0.258682
568.184935	0.258901
568.397716	0.259711
568.610478	0.260191
568.823223	0.260279
569.035949	0.260522
569.248657	0.261226
569.461347	0.261784
569.674019	0.262084
569.886672	0.262082
570.099308	0.262408
570.311925	0.262060
570.524523	0.262308
570.737104	0.262075
570.949666	0.262032
571.162210	0.261813
571.374736	0.261837
571.587244	0.262280
571.799733	0.262486
572.012205	0.262596
572.224658	0.263190
572.437092	0.263391
572.649509	0.263572
572.861907	0.264039
573.074287	0.264762
573.286649	0.264868
573.498993	0.264773
573.711318	0.265182
573.923625	0.265287
574.135914	0.265240
574.348185	0.265575
574.560438	0.266241
574.772672	0.265976
574.984888	0.265771
575.197086	0.266308
575.409266	0.266485
575.621427	0.266149
575.833570	0.266967
576.045695	0.266860
576.257802	0.267215
576.469890	0.267108
576.681961	0.267129
576.894013	0.267616
577.106046	0.267701
577.318062	0.267904
577.530059	0.268542
577.742039	0.268362
577.954000	0.269211
578.165942	0.269142
578.377867	0.269164
578.589773	0.269571
578.801661	0.269755
579.013531	0.269925
579.225382	0.269983
579.437216	0.269748
579.649031	0.269949
579.860828	0.269821
580.072606	0.270079
580.284367	0.270665
580.496109	0.271040
580.707833	0.271492
580.919539	0.271466
581.131227	0.271170
581.342896	0.271830
581.554547	0.272025
581.766180	0.272144
581.977795	0.271763
582.189391	0.271499
582.400969	0.271623
582.612529	0.271276
582.824071	0.271447
583.035595	0.272130
583.247100	0.272264
583.458587	0.272396
583.670056	0.272513
583.881506	0.272701
584.092939	0.272922
584.304353	0.273142
584.515749	0.273446
584.727127	0.273488
584.938486	0.273478
585.149828	0.273262
585.361151	0.273083
585.572456	0.273380
585.783742	0.273654
585.995011	0.274238
586.206261	0.274616
586.417493	0.275073
586.628706	0.275752
586.839902	0.276011
587.051079	0.276215
587.262238	0.276653
587.473379	0.276646
587.684502	0.276894
587.895606	0.276952
588.106692	0.276969
588.317760	0.276781
588.528810	0.276679
588.739841	0.276572
588.950855	0.276891
589.161850	0.277393
589.372827	0.277816
589.583785	0.278299
589.794726	0.278389
590.005648	0.278377
590.216552	0.278656
590.427437	0.278869
590.638305	0.279386
590.849154	0.279506
591.059985	0.279228
591.270798	0.279375
591.481592	0.279446
591.692369	0.279504
591.903127	0.280326
592.113867	0.280209
592.324588	0.280237
592.535292	0.280211
592.745977	0.280270
592.956644	0.280410
593.167293	0.280775
593.377923	0.281131
593.588536	0.281391
593.799130	0.280969
594.009706	0.281324
594.220263	0.281599
594.430803	0.282214
594.641324	0.282642
594.851827	0.283351
595.062312	0.283432
595.272778	0.283404
595.483227	0.283578
595.693657	0.283769
595.904069	0.283858
596.114462	0.283888
596.324838	0.283844
596.535195	0.283752
596.745534	0.283543
596.955855	0.283214
597.166157	0.283014
597.376441	0.283109
597.586707	0.283678
597.796955	0.284172
598.007185	0.284241
598.217396	0.284326
598.427589	0.284399
598.637764	0.284756
598.847921	0.285396
599.058060	0.286027
599.268180	0.286367
599.478282	0.285981
599.688366	0.286017
599.898431	0.286307
600.108479	0.286342
600.318508	0.286497
600.528519	0.286505
600.738511	0.286705
600.948486	0.286760
601.158442	0.287019
601.368380	0.287389
601.578300	0.287658
601.788202	0.288087
601.998085	0.288402
602.207950	0.288614
602.417797	0.288636
602.627626	0.288671
602.837436	0.288610
603.047228	0.288617
603.257002	0.288765
603.466758	0.289082
603.676496	0.289128
603.886215	0.289052
604.095916	0.289097
604.305599	0.289507
604.515264	0.289471
604.724910	0.289825
604.934538	0.289822
605.144148	0.289892
605.353740	0.289923
605.563314	0.290271
605.772869	0.290240
605.982406	0.290533
606.191925	0.290695
606.401425	0.290949
606.610908	0.291242
606.820372	0.291678
607.029818	0.291949
607.239246	0.291883
607.448655	0.291811
607.658047	0.292385
607.867420	0.292710
608.076775	0.292574
608.286111	0.292610
608.495430	0.292595
608.704730	0.292888
608.914012	0.292701
609.123275	0.292910
609.332521	0.293043
609.541748	0.293316
609.750957	0.293368
609.960148	0.293476
610.169321	0.293570
610.378475	0.293764
610.587611	0.293770
610.796729	0.294080
611.005829	0.293962
611.214910	0.294265
611.423974	0.294080
611.633019	0.294569
611.842045	0.294796
612.051054	0.294978
612.260044	0.295275
612.469017	0.295176
612.677970	0.295434
612.886906	0.295642
613.095824	0.295443
613.304723	0.295829
613.513604	0.295732
613.722467	0.296196
613.931311	0.296565
614.140138	0.296645
614.348946	0.296815
614.557736	0.297146
614.766507	0.297511
614.975261	0.298258
615.183996	0.298499
615.392713	0.298915
615.601412	0.298933
615.810092	0.299299
616.018754	0.299537
616.227399	0.299601
616.436024	0.299596
616.644632	0.299788
616.853222	0.299653
617.061793	0.299780
617.270346	0.299695
617.478880	0.299894
617.687397	0.299704
617.895895	0.299680
618.104375	0.299986
618.312837	0.300301
618.521281	0.300336
618.729706	0.300283
618.938113	0.300267
619.146502	0.300448
619.354873	0.300350
619.563226	0.300842
619.771560	0.300828
619.979876	0.301205
620.188174	0.301250
620.396453	0.301699
620.604715	0.302016
620.812958	0.302263
621.021183	0.302446
621.229390	0.302996
621.437578	0.302734
621.645748	0.303194
621.853900	0.302941
622.062034	0.303153
622.270150	0.303209
622.478247	0.303407
622.686326	0.303428
622.894387	0.303627
623.102430	0.303578
623.310454	0.303806
623.518461	0.303819
623.726449	0.304290
623.934418	0.304500
624.142370	0.304674
624.350303	0.304803
624.558218	0.305327
624.766115	0.305371
624.973994	0.305427
625.181855	0.305780
625.389697	0.306289
625.597521	0.306424
625.805327	0.306447
626.013114	0.306463
626.220883	0.306642
626.428634	0.306570
626.636367	0.306678
626.844082	0.306880
627.051778	0.306773
627.259457	0.306549
627.467117	0.306581
627.674758	0.306841
627.882382	0.307094
628.089987	0.307194
628.297574	0.307569
628.505143	0.307796
628.712694	0.307752
628.920226	0.307641
629.127740	0.307882
629.335236	0.308026
629.542714	0.308060
629.750174	0.308509
629.957615	0.308666
630.165038	0.308423
630.372443	0.308707
630.579829	0.308847
630.787198	0.309319
630.994548	0.309458
631.201880	0.309517
631.409194	0.309724
631.616489	0.309519
631.823766	0.309893
632.031025	0.310083
632.238266	0.310260
632.445489	0.310655
632.652693	0.311205
632.859879	0.311391
633.067047	0.311773
633.274197	0.312255
633.481329	0.312525
633.688442	0.312623
633.895537	0.312998
634.102614	0.313090
634.309672	0.313363
634.516713	0.313148
634.723735	0.313331
634.930739	0.313189
635.137724	0.312926
635.344692	0.313065
635.551641	0.312966
635.758572	0.313125
635.965485	0.313205
636.172379	0.313327
636.379256	0.313643
636.586114	0.313621
636.792954	0.314101
636.999775	0.314371
637.206579	0.314693
637.413364	0.314913
637.620131	0.315063
637.826880	0.315351
638.033610	0.315613
638.240323	0.315587
638.447017	0.316221
638.653692	0.316379
638.860350	0.316402
639.066990	0.316464
639.273611	0.316634
639.480214	0.316612
639.686798	0.316548
639.893365	0.316872
640.099913	0.317326
640.306443	0.317043
640.512955	0.317146
640.719449	0.317544
640.925924	0.317675
641.132381	0.317922
641.338820	0.318406
641.545241	0.318790
641.751644	0.318408
641.958028	0.318450
642.164394	0.318665
642.370742	0.318788
642.577071	0.319055
642.783383	0.319296
642.989676	0.319494
643.195951	0.319477
643.402207	0.319681
643.608446	0.320035
643.814666	0.320168
644.020868	0.320649
644.227052	0.320987
644.433218	0.321017
644.639365	0.320818
644.845494	0.320859
645.051605	0.320945
645.257698	0.320886
645.463772	0.321085
645.669828	0.321306
645.875866	0.321115
646.081886	0.321148
646.287888	0.321180
646.493871	0.321592
646.699836	0.321827
646.905783	0.322301
647.111712	0.322668
647.317622	0.323077
647.523514	0.323289
647.729388	0.323571
647.935244	0.323790
648.141082	0.324296
648.346901	0.324658
648.552702	0.325052
648.758485	0.325199
648.964250	0.325322
649.169996	0.325521
649.375724	0.325649
649.581434	0.325966
649.787126	0.326122
649.992800	0.326347
650.198455	0.326284
650.404092	0.326540
650.609711	0.326843
650.815311	0.326964
651.020894	0.326943
651.226458	0.327113
651.432004	0.327550
651.637532	0.327578
651.843041	0.327584
652.048532	0.327689
652.254006	0.327970
652.459460	0.327575
652.664897	0.327991
652.870315	0.328306
653.075716	0.328551
653.281097	0.328526
653.486461	0.329106
653.691807	0.329515
653.897134	0.330085
654.102443	0.330081
654.307734	0.330541
654.513006	0.330619
654.718261	0.330992
654.923497	0.331425
655.128715	0.331652
655.333915	0.331930
655.539096	0.332097
655.744259	0.332433
655.949404	0.332645
656.154531	0.333278
656.359640	0.333703
656.564730	0.333769
656.769802	0.334087
656.974856	0.334440
657.179892	0.334463
657.384909	0.334738
657.589908	0.334767
657.794889	0.335100
657.999852	0.335153
658.204797	0.335182
658.409723	0.335439
658.614631	0.335343
658.819521	0.335796
659.024393	0.336205
659.229246	0.336042
659.434081	0.336127
659.638898	0.336114
659.843697	0.336072
660.048478	0.336513
660.253240	0.336603
660.457984	0.336814
660.662710	0.336520
660.867417	0.336833
661.072107	0.337449
661.276778	0.337644
661.481431	0.338006
661.686066	0.338244
661.890682	0.338227
662.095281	0.338687
662.299861	0.339104
662.504422	0.339495
662.708966	0.339621
662.913491	0.339828
663.117999	0.340094
663.322488	0.340339
663.526958	0.340805
663.731411	0.341253
663.935845	0.341458
664.140261	0.341591
664.344659	0.341738
664.549038	0.342207
664.753400	0.342282
664.957743	0.342670
665.162068	0.343058
665.366375	0.343277
665.570663	0.343313
665.774933	0.343327
665.979185	0.343454
666.183419	0.343760
666.387635	0.343759
666.591832	0.343961
666.796011	0.344477
667.000172	0.344625
667.204315	0.344852
667.408439	0.345462
667.612545	0.346030
667.816634	0.346684
668.020703	0.346853
668.224755	0.347237
668.428788	0.347606
668.632803	0.347507
668.836800	0.347908
669.040779	0.348245
669.244739	0.348112
669.448681	0.347946
669.652605	0.348120
669.856511	0.348448
670.060399	0.348420
670.264268	0.348328
670.468119	0.348609
670.671952	0.348501
670.875767	0.348516
671.079563	0.348938
671.283341	0.349456
671.487101	0.349473
671.690843	0.349849
671.894567	0.350261
672.098272	0.350522
672.301959	0.350701
672.505628	0.351169
672.709278	0.351616
672.912911	0.351783
673.116525	0.351738
673.320121	0.352035
673.523699	0.352068
673.727258	0.352154
673.930799	0.352529
674.134322	0.352781
674.337827	0.353001
674.541314	0.353141
674.744782	0.353161
674.948232	0.353631
675.151664	0.353690
675.355078	0.354096
675.558474	0.354402
675.761851	0.354627
675.965210	0.354844
676.168551	0.354963
676.371873	0.355152
676.575178	0.355518
676.778464	0.355751
676.981732	0.356292
677.184981	0.356496
677.388213	0.356421
677.591426	0.356690
677.794621	0.357001
677.997798	0.357174
678.200956	0.357374
678.404097	0.357795
678.607219	0.357980
678.810323	0.358011
679.013408	0.358209
679.216476	0.358396
679.419525	0.358511
679.622556	0.358559
679.825569	0.358782
680.028563	0.359126
680.231540	0.359104
680.434498	0.359294
680.637438	0.359745
680.840359	0.359979
681.043263	0.360399
681.246148	0.360756
681.449015	0.360962
681.651864	0.361109
681.854694	0.361263
682.057506	0.361418
682.260301	0.361544
682.463076	0.361364
682.665834	0.361536
682.868573	0.361858
683.071295	0.362131
683.273998	0.362633
683.476682	0.363075
683.679349	0.363283
683.881997	0.363943
684.084627	0.364391
684.287239	0.364933
684.489833	0.365321
684.692408	0.365473
684.894965	0.365575
685.097504	0.365448
685.300025	0.365601
685.502527	0.365720
685.705012	0.365393
685.907478	0.365525
686.109925	0.365498
686.312355	0.365614
686.514766	0.365877
686.717159	0.366162
686.919534	0.366679
687.121891	0.366968
687.324230	0.367343
687.526550	0.368058
687.728852	0.368314
687.931136	0.368553
688.133401	0.368700
688.335649	0.368690
688.537878	0.369041
688.740089	0.369116
688.942281	0.368916
689.144456	0.368899
689.346612	0.368639
689.548750	0.368690
689.750870	0.369015
689.952971	0.369276
690.155055	0.369528
690.357120	0.369379
690.559167	0.369669
690.761195	0.370206
690.963206	0.370835
691.165198	0.371212
691.367172	0.371574
691.569128	0.371650
691.771065	0.371937
691.972984	0.372120
692.174885	0.372398
692.376768	0.372540
692.578633	0.372502
692.780479	0.372353
692.982308	0.372423
693.184118	0.372366
693.385909	0.372514
693.587683	0.372628
693.789438	0.373006
693.991175	0.373209
694.192894	0.373154
694.394595	0.373571
694.596277	0.373819
694.797941	0.374001
694.999587	0.374264
695.201215	0.374261
695.402824	0.374502
695.604416	0.374833
695.805989	0.375171
696.007543	0.375542
696.209080	0.375479
696.410598	0.375511
696.612099	0.375725
696.813580	0.375912
697.015044	0.376149
697.216490	0.375884
697.417917	0.375564
697.619326	0.375386
697.820717	0.375292
698.022089	0.375507
698.223444	0.375890
698.424780	0.376262
698.626098	0.376169
698.827397	0.376460
699.028679	0.376894
699.229942	0.377394
699.431187	0.377841
699.632414	0.377950
699.833622	0.378025
700.034813	0.378011
700.235985	0.377978
700.437139	0.378199
700.638274	0.378340
700.839392	0.378277
701.040491	0.378112
701.241572	0.378386
701.442635	0.378591
701.643679	0.378718
701.844706	0.378764
702.045714	0.378825
702.246704	0.379173
702.447675	0.379427
702.648629	0.379683
702.849564	0.379765
703.050481	0.379694
703.251380	0.379875
703.452260	0.380136
703.653122	0.380256
703.853966	0.380191
704.054792	0.380241
704.255600	0.380025
704.456389	0.380196
704.657160	0.380504
704.857913	0.380296
705.058648	0.380347
705.259365	0.380277
705.460063	0.379930
705.660743	0.380215
705.861405	0.380200
706.062048	0.380174
706.262674	0.379909
706.463281	0.379637
706.663870	0.379859
706.864441	0.379939
707.064993	0.380219
707.265527	0.380770
707.466043	0.380639
707.666541	0.380636
707.867021	0.381002
708.067482	0.381181
708.267925	0.381455
708.468350	0.381420
708.668757	0.381734
708.869145	0.381499
709.069516	0.381256
709.269868	0.381415
709.470201	0.381292
709.670517	0.380946
709.870814	0.380888
710.071093	0.380742
710.271354	0.380684
710.471597	0.380518
710.671821	0.380554
710.872028	0.380612
711.072216	0.380593
711.272385	0.380725
711.472537	0.380838
711.672670	0.380671
711.872785	0.380866
712.072882	0.380960
712.272961	0.380786
712.473021	0.381049
712.673063	0.381082
712.873087	0.380976
713.073093	0.381046
713.273081	0.381237
713.473050	0.381519
713.673001	0.381260
713.872934	0.381312
714.072849	0.381361
714.272745	0.380922
714.472623	0.380874
714.672483	0.381034
714.872325	0.381118
715.072148	0.381143
715.271954	0.380948
715.471741	0.381322
715.671509	0.381193
715.871260	0.381115
716.070992	0.381212
716.270707	0.381418
716.470403	0.381507
716.670080	0.381202
716.869740	0.380605
717.069381	0.380429
717.269004	0.379918
717.468609	0.379737
717.668195	0.379739
717.867764	0.379601
718.067314	0.379284
718.266846	0.378809
718.466360	0.378601
718.665855	0.378923
718.865332	0.378949
719.064791	0.379130
719.264232	0.379140
719.463655	0.378815
719.663059	0.378648
719.862445	0.378580
720.061813	0.378430
720.261163	0.378336
720.460494	0.378433
720.659807	0.378394
720.859102	0.378262
721.058379	0.378079
721.257638	0.378092
721.456878	0.378179
721.656100	0.378106
721.855304	0.377943
722.054490	0.377983
722.253657	0.377489
722.452806	0.377230
722.651937	0.377275
722.851050	0.377313
723.050145	0.377267
723.249221	0.377080
723.448279	0.376889
723.647319	0.376809
723.846340	0.376414
724.045344	0.376182
724.244329	0.376145
724.443296	0.375608
724.642245	0.375544
724.841175	0.375213
725.040088	0.375248
725.238982	0.375448
725.437857	0.375329
725.636715	0.375344
725.835554	0.375589
726.034376	0.375452
726.233179	0.375611
726.431963	0.375139
726.630730	0.375117
726.829478	0.374508
727.028208	0.374035
727.226920	0.374153
727.425614	0.374050
727.624289	0.373680
727.822946	0.373675
728.021585	0.373172
728.220206	0.373269
728.418808	0.373212
728.617392	0.373281
728.815958	0.373028
729.014506	0.372770
729.213036	0.372441
729.411547	0.372113
729.610040	0.371705
729.808515	0.371732
730.006972	0.371444
730.205410	0.371277
730.403831	0.371235
730.602233	0.371128
730.800616	0.370733
730.998982	0.370680
731.197329	0.370464
731.395658	0.370460
731.593969	0.370473
731.792262	0.370241
731.990536	0.370010
732.188793	0.369666
732.387031	0.369388
732.585250	0.369349
732.783452	0.368976
732.981635	0.368938
733.179800	0.368701
733.377947	0.368205
733.576076	0.368010
733.774186	0.367677
733.972278	0.367735
734.170352	0.367615
734.368408	0.367292
734.566446	0.367162
734.764465	0.367046
734.962466	0.366870
735.160449	0.366885
735.358413	0.366822
735.556360	0.366432
735.754288	0.366217
735.952198	0.365681
736.150090	0.365319
736.347963	0.365166
736.545818	0.364925
736.743655	0.364572
736.941474	0.364139
737.139275	0.363735
737.337057	0.363830
737.534821	0.363499
737.732567	0.363437
737.930295	0.363597
738.128005	0.363515
738.325696	0.362990
738.523369	0.362797
738.721024	0.362697
738.918660	0.362475
739.116279	0.361915
739.313879	0.361733
739.511461	0.361641
739.709024	0.361308
739.906570	0.360992
740.104097	0.361054
740.301606	0.361011
740.499097	0.360969
740.696569	0.360898
740.894024	0.361081
741.091460	0.360819
741.288878	0.360578
741.486277	0.360176
741.683659	0.359885
741.881022	0.359589
742.078367	0.359168
742.275694	0.358685
742.473002	0.358630
742.670293	0.358221
742.867565	0.358040
743.064819	0.357893
743.262054	0.357815
743.459272	0.357628
743.656471	0.357569
743.853652	0.357363
744.050815	0.357068
744.247959	0.356440
744.445085	0.356284
744.642194	0.355982
744.839283	0.355793
745.036355	0.355496
745.233408	0.355307
745.430444	0.354889
745.627461	0.354768
745.824459	0.354575
746.021440	0.354529
746.218402	0.354112
746.415346	0.353843
746.612272	0.353663
746.809180	0.353509
747.006069	0.353381
747.202940	0.353064
747.399793	0.352573
747.596628	0.352039
747.793444	0.351907
747.990243	0.351994
748.187023	0.351493
748.383784	0.350928
748.580528	0.350609
748.777253	0.350285
748.973960	0.350101
749.170649	0.349995
749.367320	0.350031
749.563973	0.349669
749.760607	0.349379
749.957223	0.349573
750.153821	0.349715
750.350400	0.349554
750.546962	0.349337
750.743505	0.349273
750.940030	0.349187
751.136536	0.349035
751.333025	0.348816
751.529495	0.348514
751.725947	0.348240
751.922381	0.348137
752.118796	0.347850
752.315194	0.347635
752.511573	0.347478
752.707934	0.346902
752.904276	0.346776
753.100601	0.346364
753.296907	0.346159
753.493195	0.345669
753.689465	0.345269
753.885716	0.345320
754.081949	0.345133
754.278164	0.344593
754.474361	0.344712
754.670540	0.344342
754.866700	0.344500
755.062843	0.344128
755.258967	0.344235
755.455072	0.343911
755.651160	0.343697
755.847229	0.343326
756.043280	0.343328
756.239313	0.343042
756.435328	0.342967
756.631324	0.342764
756.827302	0.342702
757.023262	0.342314
757.219204	0.342334
757.415127	0.342076
757.611033	0.342352
757.806920	0.341973
758.002788	0.341670
758.198639	0.341387
758.394471	0.341127
758.590286	0.340880
758.786081	0.340582
758.981859	0.340270
759.177619	0.339952
759.373360	0.339616
759.569083	0.339665
759.764788	0.339692
759.960474	0.339804
760.156143	0.339606
760.351793	0.339427
760.547425	0.339358
760.743038	0.339089
760.938634	0.338965
761.134211	0.338615
761.329770	0.338572
761.525311	0.338269
761.720833	0.337825
761.916338	0.337590
762.111824	0.337476
762.307292	0.337248
762.502741	0.337281
762.698173	0.337205
762.893586	0.336971
763.088981	0.336551
763.284358	0.336533
763.479716	0.336222
763.675057	0.336127
763.870379	0.336106
764.065683	0.336019
764.260968	0.335553
764.456236	0.335249
764.651485	0.335300
764.846716	0.335552
765.041929	0.335404
765.237123	0.335562
765.432299	0.335443
765.627457	0.335273
765.822597	0.335444
766.017719	0.335374
766.212822	0.335487
766.407907	0.335242
766.602974	0.335052
766.798023	0.334695
766.993054	0.334615
767.188066	0.334710
767.383060	0.334608
767.578036	0.334219
767.772993	0.334000
767.967933	0.333775
768.162854	0.333615
768.357757	0.333388
768.552642	0.333283
768.747508	0.333213
768.942356	0.332820
769.137186	0.332750
769.331998	0.332766
769.526792	0.332947
769.721567	0.333049
769.916324	0.333170
770.111063	0.332934
770.305784	0.333149
770.500486	0.333006
770.695171	0.332894
770.889837	0.332679
771.084484	0.332502
771.279114	0.332224
771.473725	0.331894
771.668318	0.331581
771.862893	0.331381
772.057450	0.330975
772.251988	0.330840
772.446509	0.330646
772.641011	0.330580
772.835494	0.330484
773.029960	0.330455
773.224407	0.330526
773.418836	0.330564
773.613247	0.330456
773.807640	0.330548
774.002014	0.330429
774.196370	0.330633
774.390708	0.330626
774.585028	0.330642
774.779330	0.330788
774.973613	0.330595
775.167878	0.330549
775.362125	0.330733
775.556354	0.330731
775.750564	0.330615
775.944756	0.330539
776.138930	0.330410
776.333086	0.330397
776.527223	0.330247
776.721343	0.330030
776.915444	0.329991
777.109526	0.330013
777.303591	0.330007
777.497637	0.330271
777.691666	0.330018
777.885676	0.329841
778.079667	0.329777
778.273641	0.329541
778.467596	0.329820
778.661533	0.329716
778.855452	0.329471
779.049352	0.329338
779.243235	0.329075
779.437099	0.329225
779.630945	0.329572
779.824773	0.329516
780.018582	0.329620
780.212373	0.329614
780.406146	0.329668
780.599901	0.329719
780.793638	0.329933
780.987356	0.330088
781.181056	0.330265
781.374738	0.330098
781.568402	0.330095
781.762047	0.330240
781.955674	0.330284
782.149283	0.330337
782.342874	0.330233
782.536447	0.330128
782.730001	0.330122
782.923537	0.330256
783.117055	0.330464
783.310555	0.330715
783.504036	0.330946
783.697499	0.330800
783.890944	0.330777
784.084371	0.331117
784.277780	0.331097
784.471170	0.331003
784.664542	0.330833
784.857896	0.330414
785.051231	0.330146
785.244549	0.330018
785.437848	0.330009
785.631129	0.330179
785.824392	0.330208
786.017636	0.330235
786.210863	0.330263
786.404071	0.330324
786.597260	0.330527
786.790432	0.330800
786.983585	0.330676
787.176721	0.330999
787.369838	0.331188
787.562936	0.331030
787.756017	0.331349
787.949079	0.331559
788.142123	0.331460
788.335149	0.331603
788.528156	0.331440
788.721146	0.331790
788.914117	0.331727
789.107070	0.331964
789.300005	0.332194
789.492921	0.332234
789.685819	0.332360
789.878699	0.332589
790.071561	0.332829
790.264405	0.332936
790.457230	0.333028
790.650037	0.333266
790.842826	0.333395
791.035597	0.333700
791.228349	0.333680
791.421084	0.334013
791.613800	0.333908
791.806497	0.333992
791.999177	0.334635
792.191838	0.334692
792.384481	0.334678
792.577106	0.334372
792.769713	0.334179
792.962301	0.334497
793.154871	0.334336
793.347423	0.334650
793.539957	0.335098
793.732473	0.335099
793.924970	0.335458
794.117449	0.335514
794.309910	0.335679
794.502353	0.336088
794.694777	0.336001
794.887183	0.336220
795.079571	0.336547
795.271941	0.336396
795.464293	0.336596
795.656626	0.336750
795.848941	0.336978
796.041238	0.337256
796.233516	0.337554
796.425777	0.337620
796.618019	0.337856
796.810243	0.337933
797.002449	0.338265
797.194636	0.338249
797.386805	0.338379
797.578956	0.338543
797.771089	0.338824
797.963204	0.338825
798.155300	0.339120
798.347378	0.339132
798.539438	0.339508
798.731480	0.339702
798.923503	0.339818
799.115509	0.339750
799.307496	0.340188
799.499465	0.340203
799.691415	0.340714
799.883348	0.341257
800.075262	0.341512
800.267158	0.341679
800.459035	0.341974
800.650895	0.342411
800.842736	0.342931
801.034559	0.342990
801.226364	0.343471
801.418150	0.343586
801.609919	0.343365
801.801669	0.343682
801.993401	0.343934
802.185114	0.343908
802.376810	0.344276
802.568487	0.344589
802.760146	0.344853
802.951787	0.344792
803.143409	0.344772
803.335014	0.345699
803.526600	0.345995
803.718168	0.346253
803.909717	0.346499
804.101249	0.346436
804.292762	0.346511
804.484257	0.346620
804.675734	0.347177
804.867192	0.347762
805.058632	0.347661
805.250054	0.347859
805.441458	0.348011
805.632844	0.348385
805.824211	0.348925
806.015561	0.349169
806.206891	0.349915
806.398204	0.349860
806.589499	0.350401
806.780775	0.350526
806.972033	0.350814
807.163273	0.351452
807.354495	0.351800
807.545698	0.352031
807.736883	0.352316
807.928050	0.352502
808.119199	0.353073
808.310329	0.352887
808.501441	0.353467
808.692535	0.354129
808.883611	0.354127
809.074669	0.354575
809.265708	0.354653
809.456729	0.355223
809.647732	0.355193
809.838717	0.355799
810.029683	0.356238
810.220632	0.356478
810.411562	0.356372
810.602474	0.356714
810.793367	0.356963
810.984242	0.357536
811.175100	0.357484
811.365938	0.358230
811.556759	0.358201
811.747562	0.358608
811.938346	0.358775
812.129112	0.359192
812.319860	0.359490
812.510589	0.359883
812.701300	0.360113
812.891994	0.360715
813.082668	0.361111
813.273325	0.361667
813.463964	0.361691
813.654584	0.362169
813.845186	0.362380
814.035769	0.362662
814.226335	0.363066
814.416882	0.363671
814.607411	0.363850
814.797922	0.364210
814.988415	0.364377
815.178889	0.365165
815.369345	0.365425
815.559783	0.365888
815.750203	0.366417
815.940605	0.366568
816.130988	0.366688
816.321353	0.367106
816.511700	0.367302
816.702028	0.367589
816.892339	0.367888
817.082631	0.368389
817.272905	0.368907
817.463161	0.369083
817.653398	0.369609
817.843617	0.369914
818.033819	0.370562
818.224001	0.371192
818.414166	0.371715
818.604312	0.372001
818.794440	0.372510
818.984550	0.373096
819.174642	0.373878
819.364716	0.374339
819.554771	0.375104
819.744808	0.375515
819.934827	0.375597
820.124827	0.376165
820.314810	0.376681
820.504774	0.377190
820.694720	0.377609
820.884647	0.377640
821.074557	0.378020
821.264448	0.378226
821.454321	0.378347
821.644176	0.378640
821.834012	0.378901
822.023831	0.379418
822.213631	0.379684
822.403413	0.379752
822.593176	0.380689
822.782922	0.381097
822.972649	0.381610
823.162358	0.382313
823.352049	0.383193
823.541721	0.383820
823.731376	0.384324
823.921012	0.384859
824.110629	0.385825
824.300229	0.385956
824.489811	0.386643
824.679374	0.387002
824.868919	0.387413
825.058445	0.387618
825.247954	0.388145
825.437444	0.388408
825.626916	0.388937
825.816370	0.388979
826.005806	0.389189
826.195223	0.389265
826.384622	0.389975
826.574003	0.390491
826.763366	0.390892
826.952711	0.391051
827.142037	0.391485
827.331345	0.391884
827.520635	0.392589
827.709906	0.393545
827.899160	0.393977
828.088395	0.394346
828.277612	0.394848
828.466810	0.395722
828.655991	0.396336
828.845153	0.396798
829.034297	0.396976
829.223423	0.397125
829.412531	0.397513
829.601620	0.398178
829.790691	0.398315
829.979744	0.398436
830.168779	0.398522
830.357795	0.398844
830.546793	0.399487
830.735773	0.400223
830.924735	0.400810
831.113679	0.401174
831.302604	0.401248
831.491511	0.402068
831.680400	0.402996
831.869271	0.403347
832.058123	0.403858
832.246957	0.403838
832.435773	0.404049
832.624571	0.404552
832.813351	0.404843
833.002112	0.405225
833.190855	0.405155
833.379580	0.405439
833.568287	0.406107
833.756975	0.406745
833.945645	0.407535
834.134297	0.408296
834.322931	0.408830
834.511547	0.409440
834.700144	0.410372
834.888723	0.410971
835.077284	0.411317
835.265826	0.411654
835.454351	0.412176
835.642857	0.412285
835.831345	0.412573
836.019815	0.412886
836.208266	0.413407
836.396699	0.414058
836.585114	0.414825
836.773511	0.415567
836.961890	0.416206
837.150250	0.416648
837.338592	0.417622
837.526916	0.417936
837.715222	0.418301
837.903510	0.418711
838.091779	0.419383
838.280030	0.420022
838.468263	0.420152
838.656477	0.421047
838.844674	0.421433
839.032852	0.421703
839.221012	0.422712
839.409153	0.423687
839.597277	0.424435
839.785382	0.424595
839.973469	0.424638
840.161538	0.425357
840.349589	0.425282
840.537621	0.426007
840.725635	0.426689
840.913631	0.427274
841.101609	0.427741
841.289568	0.428487
841.477509	0.429166
841.665432	0.429973
841.853337	0.430605
842.041224	0.431661
842.229092	0.432160
842.416942	0.432769
842.604774	0.433234
842.792588	0.433698
842.980383	0.434149
843.168160	0.434574
843.355919	0.434881
843.543660	0.435370
843.731382	0.435867
843.919087	0.436695
844.106773	0.437240
844.294441	0.437568
844.482090	0.437815
844.669722	0.438336
844.857335	0.438763
845.044930	0.439221
845.232507	0.439702
845.420065	0.439939
845.607605	0.440324
845.795127	0.440751
845.982631	0.441446
846.170117	0.442049
846.357584	0.442103
846.545033	0.442956
846.732464	0.444151
846.919877	0.444885
847.107272	0.445665
847.294648	0.445938
847.482006	0.446787
847.669346	0.447455
847.856667	0.448195
848.043971	0.448961
848.231256	0.449454
848.418523	0.449643
848.605771	0.450302
848.793002	0.450816
848.980214	0.451590
849.167408	0.451987
849.354584	0.452286
849.541742	0.453016
849.728881	0.453382
849.916002	0.453205
850.103105	0.453752
850.290190	0.454253
850.477256	0.454592
850.664304	0.454867
850.851334	0.455236
851.038346	0.455911
851.225340	0.456013
851.412315	0.456369
851.599272	0.457218
851.786211	0.458200
851.973132	0.458444
852.160034	0.458902
852.346918	0.459708
852.533784	0.460425
852.720632	0.460324
852.907462	0.460929
853.094273	0.461631
853.281066	0.462594
853.467841	0.462577
853.654598	0.463123
853.841336	0.463386
854.028056	0.463683
854.214758	0.463894
854.401442	0.464507
854.588107	0.465222
854.774755	0.465976
854.961384	0.466498
855.147995	0.466897
855.334587	0.467447
855.521162	0.468570
855.707718	0.469128
855.894256	0.469412
856.080775	0.470610
856.267277	0.471272
856.453760	0.471688
856.640225	0.472101
856.826672	0.473466
857.013101	0.473581
857.199511	0.473357
857.385903	0.473991
857.572277	0.475252
857.758633	0.475449
857.944970	0.476235
858.131290	0.476616
858.317591	0.477301
858.503873	0.477268
858.690138	0.477880
858.876384	0.478765
859.062612	0.479065
859.248822	0.479451
859.435014	0.479918
859.621188	0.480198
859.807343	0.480592
859.993480	0.480847
860.179599	0.481247
860.365699	0.481952
860.551781	0.482528
860.737846	0.482859
860.923891	0.483192
861.109919	0.483686
861.295929	0.483969
861.481920	0.484839
861.667893	0.485340
861.853848	0.485728
862.039784	0.486335
862.225702	0.486400
862.411603	0.487225
862.597484	0.487102
862.783348	0.487619
862.969193	0.487905
863.155021	0.487994
863.340830	0.488005
863.526620	0.488602
863.712393	0.488739
863.898147	0.489297
864.083883	0.489768
864.269601	0.490625
864.455301	0.491205
864.640982	0.491784
864.826645	0.492678
865.012290	0.493715
865.197917	0.493772
865.383526	0.494679
865.569116	0.495406
865.754688	0.495459
865.940242	0.495459
866.125777	0.495791
866.311295	0.496059
866.496794	0.496189
866.682275	0.496315
866.867737	0.497794
867.053182	0.497414
867.238608	0.497678
867.424016	0.498206
867.609406	0.499219
867.794778	0.499361
867.980131	0.499920
868.165466	0.500001
868.350783	0.500147
868.536082	0.500072
868.721362	0.501366
868.906625	0.501670
869.091869	0.501764
869.277094	0.501947
869.462302	0.502621
869.647491	0.502683
869.832662	0.503341
870.017815	0.503527
870.202950	0.503602
870.388066	0.503807
870.573165	0.504368
870.758245	0.504797
870.943306	0.504812
871.128350	0.504830
871.313375	0.505178
871.498382	0.505687
871.683371	0.506405
871.868342	0.506512
872.053294	0.506758
872.238229	0.507057
872.423144	0.507667
872.608042	0.507920
872.792922	0.508257
872.977783	0.508871
873.162626	0.509356
873.347451	0.510056
873.532258	0.510631
873.717046	0.510486
873.901816	0.510784
874.086568	0.510726
874.271302	0.511633
874.456017	0.511705
874.640715	0.511965
874.825394	0.511264
875.010055	0.510790
875.194697	0.510780
875.379322	0.510916
875.563928	0.510821
875.748516	0.510966
875.933085	0.510571
876.117637	0.510777
876.302170	0.510897
876.486685	0.511436
876.671182	0.512212
876.855661	0.512699
877.040121	0.513084
877.224563	0.513710
877.408987	0.514343
877.593393	0.514748
877.777780	0.515515
877.962150	0.515829
878.146501	0.516148
878.330833	0.516009
878.515148	0.515837
878.699444	0.516462
878.883722	0.516058
879.067982	0.516100
879.252224	0.516501
879.436447	0.516445
879.620653	0.516345
879.804840	0.516556
879.989008	0.516459
880.173159	0.516521
880.357291	0.516464
880.541405	0.517143
880.725501	0.517262
880.909579	0.517288
881.093638	0.518457
881.277680	0.518503
881.461703	0.519284
881.645707	0.519470
881.829694	0.519999
882.013662	0.519946
882.197612	0.520474
882.381544	0.520465
882.565458	0.520539
882.749353	0.519725
882.933230	0.520315
883.117089	0.520203
883.300930	0.520465
883.484753	0.521169
883.668557	0.521358
883.852343	0.521135
884.036111	0.521492
884.219861	0.522371
884.403592	0.522368
884.587305	0.522801
884.771000	0.522573
884.954677	0.522653
885.138335	0.522429
885.321976	0.522048
885.505598	0.521538
885.689201	0.521942
885.872787	0.521499
886.056354	0.521590
886.239904	0.520925
886.423434	0.520536
886.606947	0.520660
886.790442	0.520205
886.973918	0.521117
887.157376	0.521921
887.340816	0.521577
887.524237	0.521129
887.707641	0.520699
887.891026	0.520597
888.074393	0.521184
888.257741	0.521085
888.441072	0.521388
888.624384	0.520752
888.807678	0.520234
888.990954	0.520300
889.174211	0.520954
889.357451	0.521030
889.540672	0.520944
889.723875	0.520991
889.907059	0.521293
890.090226	0.520751
890.273374	0.520929
890.456504	0.521328
890.639616	0.520786
890.822709	0.520441
891.005785	0.520975
891.188842	0.521575
891.371881	0.521434
891.554901	0.520795
891.737904	0.521173
891.920888	0.520848
892.103854	0.520572
892.286802	0.520503
892.469731	0.520509
892.652643	0.519998
892.835536	0.519382
893.018410	0.518822
893.201267	0.519474
893.384106	0.519013
893.566926	0.519046
893.749728	0.518909
893.932511	0.519013
894.115277	0.519106
894.298024	0.519259
894.480753	0.519497
894.663464	0.519778
894.846157	0.519251
895.028831	0.518923
895.211487	0.518789
895.394125	0.518704
895.576745	0.518585
895.759346	0.517872
895.941930	0.517779
896.124495	0.517265
896.307041	0.517219
896.489570	0.516593
896.672080	0.516822
896.854573	0.516775
897.037046	0.516615
897.219502	0.516395
897.401940	0.515658
897.584359	0.514875
897.766760	0.514684
897.949143	0.514101
898.131507	0.514680
898.313854	0.514413
898.496182	0.513729
898.678492	0.513375
898.860783	0.513184
899.043057	0.513883
899.225312	0.513664
899.407549	0.512781
899.589768	0.512541
899.771968	0.511877
899.954151	0.511868
900.136315	0.512149
900.318461	0.511803
900.500588	0.510940
900.682698	0.510168
900.864789	0.509978
901.046862	0.509725
901.228917	0.509564
901.410953	0.509327
901.592971	0.507894
901.774972	0.507474
901.956953	0.507178
902.138917	0.507717
902.320862	0.507743
902.502790	0.507282
902.684699	0.507312
902.866589	0.506797
903.048462	0.505852
903.230316	0.505431
903.412152	0.504958
903.593970	0.504380
903.775770	0.503965
903.957551	0.503167
904.139314	0.502414
904.321059	0.501964
904.502786	0.501781
904.684494	0.501989
904.866185	0.502405
905.047857	0.501616
905.229510	0.501788
905.411146	0.501632
905.592763	0.501140
905.774363	0.501093
905.955943	0.501023
906.137506	0.499729
906.319051	0.498799
906.500577	0.498346
906.682085	0.498115
906.863575	0.497378
907.045046	0.496037
907.226500	0.495825
907.407935	0.495697
907.589352	0.494804
907.770750	0.494459
907.952131	0.494780
908.133493	0.493785
908.314837	0.492778
908.496163	0.492048
908.677470	0.491736
908.858760	0.490831
909.040031	0.489186
909.221284	0.488783
909.402518	0.489211
909.583735	0.488739
909.764933	0.488579
909.946113	0.488832
910.127275	0.488031
910.308418	0.486648
910.489544	0.486498
910.670651	0.487004
910.851740	0.486127
911.032810	0.484699
911.213863	0.483672
911.394897	0.482715
911.575913	0.481501
911.756911	0.480884
911.937890	0.480899
912.118851	0.479197
912.299794	0.478227
912.480719	0.477633
912.661626	0.477426
912.842514	0.476861
913.023384	0.477002
913.204236	0.476502
913.385070	0.475875
913.565886	0.475262
913.746683	0.475056
913.927462	0.474116
914.108223	0.473969
914.288965	0.473055
914.469690	0.472070
914.650396	0.470813
914.831084	0.469923
915.011754	0.469631
915.192405	0.468745
915.373038	0.467911
915.553653	0.467824
915.734250	0.466644
915.914829	0.465943
916.095389	0.464994
916.275931	0.464661
916.456455	0.464222
916.636961	0.463503
916.817448	0.462107
916.997917	0.461956
917.178368	0.460620
917.358801	0.460070
917.539216	0.459290
917.719612	0.458319
917.899990	0.456849
918.080350	0.455683
918.260692	0.453357
918.441015	0.453712
918.621320	0.452894
918.801607	0.452351
918.981876	0.450959
919.162127	0.449443
919.342359	0.448367
919.522573	0.447676
919.702769	0.447225
919.882947	0.447257
920.063106	0.445818
920.243247	0.444524
920.423370	0.443504
920.603475	0.442833
920.783562	0.442488
920.963630	0.441979
921.143680	0.441816
921.323712	0.440301
921.503725	0.439910
921.683721	0.439686
921.863698	0.438874
922.043657	0.438234
922.223598	0.437216
922.403520	0.435751
922.583424	0.434605
922.763311	0.433448
922.943178	0.433472
923.123028	0.432177
923.302859	0.431317
923.482673	0.430771
923.662467	0.429933
923.842244	0.429595
924.022003	0.429247
924.201743	0.428930
924.381465	0.428161
924.561169	0.426648
924.740854	0.425815
924.920522	0.424613
925.100171	0.422697
925.279802	0.421537
925.459414	0.420154
925.639009	0.419089
925.818585	0.418413
925.998143	0.416755
926.177683	0.415316
926.357205	0.414617
926.536708	0.413060
926.716193	0.412477
926.895660	0.411560
927.075109	0.410260
927.254539	0.409187
927.433951	0.406990
927.613345	0.405859
927.792721	0.405476
927.972079	0.404128
928.151418	0.403223
928.330739	0.401902
928.510042	0.400051
928.689327	0.399914
928.868593	0.398889
929.047841	0.398069
929.227071	0.397825
929.406283	0.396043
929.585476	0.394642
929.764652	0.393620
929.943809	0.393322
930.122948	0.392049
930.302068	0.390612
930.481171	0.389302
930.660255	0.388130
930.839321	0.386210
931.018369	0.385822
931.197398	0.384126
931.376409	0.382400
931.555402	0.380773
931.734377	0.380514
931.913334	0.378417
932.092272	0.376879
932.271192	0.375547
932.450094	0.374146
932.628978	0.372230
932.807844	0.371276
932.986691	0.370866
933.165520	0.369180
933.344331	0.367537
933.523123	0.366260
933.701898	0.365524
933.880654	0.364836
934.059392	0.363705
934.238111	0.362081
934.416813	0.360357
934.595496	0.358708
934.774161	0.358189
934.952808	0.356664
935.131437	0.354616
935.310047	0.352951
935.488639	0.351807
935.667213	0.349734
935.845769	0.348421
936.024306	0.347233
936.202825	0.345086
936.381326	0.343746
936.559809	0.343096
936.738274	0.343033
936.916720	0.341544
937.095148	0.340906
937.273558	0.339817
937.451950	0.338481
937.630323	0.337296
937.808678	0.337059
937.987015	0.334916
938.165334	0.333596
938.343635	0.331875
938.521917	0.331503
938.700181	0.328808
938.878427	0.327233
939.056655	0.326623
939.234864	0.325850
939.413055	0.324325
939.591228	0.322548
939.769383	0.320207
939.947519	0.318462
940.125638	0.315737
940.303738	0.314333
940.481820	0.314210
940.659883	0.312244
940.837929	0.311374
941.015956	0.309049
941.193965	0.308204
941.371955	0.306402
941.549928	0.305151
941.727882	0.303777
941.905818	0.301757
942.083736	0.299033
942.261636	0.297100
942.439517	0.293742
942.617380	0.293839
942.795225	0.292056
942.973052	0.291062
943.150860	0.289694
943.328651	0.288667
943.506423	0.288029
943.684176	0.287113
943.861912	0.285783
944.039629	0.285843
944.217328	0.282284
944.395009	0.280306
944.572672	0.279183
944.750317	0.278226
944.927943	0.275254
945.105551	0.273803
945.283141	0.271099
945.460712	0.270186
945.638265	0.266102
945.815801	0.265743
945.993317	0.264365
946.170816	0.260549
946.348297	0.258436
946.525759	0.258576
946.703203	0.255967
946.880629	0.256736
947.058036	0.254913
947.235425	0.255468
947.412797	0.251743
947.590149	0.252134
947.767484	0.252233
947.944800	0.249227
948.122099	0.247075
948.299379	0.246683
948.476640	0.243374
948.653884	0.240895
948.831109	0.239092
949.008316	0.241201
949.185505	0.238233
949.362676	0.236037
949.539828	0.236191
949.716962	0.236303
949.894078	0.232876
950.071176	0.232323
950.248256	0.232673
950.425317	0.231105
950.602360	0.228610
950.779385	0.227126
950.956391	0.226928
951.133380	0.226207
951.310350	0.223330
951.487302	0.222251
951.664235	0.223076
951.841151	0.220726
952.018048	0.218412
952.194927	0.216274
952.371788	0.213736
952.548631	0.211748
952.725455	0.209258
952.902261	0.207696
953.079049	0.208264
953.255819	0.204013
953.432570	0.202816
953.609303	0.202400
953.786018	0.199368
953.962715	0.200253
954.139394	0.199396
954.316054	0.198900
954.492696	0.197152
954.669320	0.193168
954.845926	0.191063
955.022513	0.190260
955.199083	0.188984
955.375634	0.188888
955.552166	0.185628
955.728681	0.184568
955.905177	0.182874
956.081655	0.182647
956.258115	0.184019
956.434557	0.182840
956.610980	0.181342
956.787385	0.181330
956.963772	0.180331
957.140141	0.181383
957.316492	0.179132
957.492824	0.176104
957.669138	0.174075
957.845434	0.171442
958.021712	0.169596
958.197971	0.167624
958.374212	0.165661
958.550435	0.164071
958.726640	0.161249
958.902826	0.160204
959.078995	0.162572
959.255145	0.161472
959.431277	0.159752
959.607390	0.159745
959.783486	0.157278
959.959563	0.155301
960.135622	0.156982
960.311662	0.155326
960.487685	0.153833
960.663689	0.152292
960.839675	0.150247
961.015643	0.149180
961.191593	0.146940
961.367524	0.148957
961.543437	0.147886
961.719332	0.143521
961.895209	0.142563
962.071067	0.143170
962.246907	0.141617
962.422730	0.142031
962.598533	0.143294
962.774319	0.142879
962.950086	0.143387
963.125835	0.142951
963.301566	0.143336
963.477279	0.144065
963.652973	0.143376
963.828650	0.144267
964.004308	0.144235
964.179947	0.143188
964.355569	0.143562
964.531172	0.140115
964.706757	0.141820
964.882324	0.142022
965.057873	0.141468
965.233403	0.141157
965.408916	0.139871
965.584410	0.140516
965.759885	0.140796
965.935343	0.142625
966.110782	0.142436
966.286203	0.140677
966.461606	0.139747
966.636991	0.143757
966.812357	0.142652
966.987705	0.142256
967.163035	0.141386
967.338347	0.142114
967.513641	0.141196
967.688916	0.141387
967.864173	0.141568
968.039412	0.142896
968.214632	0.138044
968.389835	0.140432
968.565019	0.140700
968.740185	0.141835
968.915333	0.141084
969.090462	0.141552
969.265573	0.141068
969.440667	0.140978
969.615741	0.141334
969.790798	0.142676
969.965836	0.140661
970.140856	0.139515
970.315858	0.136752
970.490842	0.135065
970.665808	0.132569
970.840755	0.132576
971.015684	0.132430
971.190595	0.130991
971.365487	0.129783
971.540362	0.131266
971.715218	0.132488
971.890056	0.133705
972.064875	0.134414
972.239677	0.137341
972.414460	0.140099
972.589225	0.140468
972.763972	0.143210
972.938700	0.143741
973.113411	0.143480
973.288103	0.141883
973.462777	0.141664
973.637432	0.140967
973.812070	0.139070
973.986689	0.137137
974.161290	0.137902
974.335873	0.135340
974.510437	0.134763
974.684984	0.134087
974.859512	0.135580
975.034022	0.135449
975.208513	0.136484
975.382987	0.134930
975.557442	0.134900
975.731879	0.133298
975.906298	0.133168
976.080698	0.134408
976.255080	0.133471
976.429445	0.133182
976.603790	0.131564
976.778118	0.131114
976.952427	0.132904
977.126719	0.132214
977.300992	0.131868
977.475246	0.132723
977.649483	0.132363
977.823701	0.132963
977.997901	0.131769
978.172083	0.135104
978.346247	0.135927
978.520392	0.136475
978.694519	0.136887
978.868628	0.137930
979.042719	0.138045
979.216791	0.139211
979.390845	0.139352
979.564882	0.138890
979.738899	0.137850
979.912899	0.138758
980.086880	0.137865
980.260843	0.139063
980.434788	0.138242
980.608715	0.135546
980.782623	0.134316
980.956514	0.135267
981.130386	0.138283
981.304240	0.139275
981.478075	0.139517
981.651892	0.141724
981.825692	0.142726
981.999472	0.144142
982.173235	0.147833
982.346980	0.147144
982.520706	0.147161
982.694414	0.146855
982.868104	0.144976
983.041775	0.144202
983.215428	0.143800
983.389064	0.140435
983.562680	0.140237
983.736279	0.137013
983.909860	0.137252
984.083422	0.136256
984.256966	0.134612
984.430491	0.133594
984.603999	0.132589
984.777488	0.131325
984.950959	0.132700
985.124412	0.132052
985.297847	0.133776
985.471263	0.135330
985.644661	0.136318
985.818041	0.136561
985.991403	0.138025
986.164747	0.138898
986.338072	0.138377
986.511379	0.141000
986.684668	0.141559
986.857938	0.140727
987.031191	0.139547
987.204425	0.140063
987.377641	0.139447
987.550839	0.137708
987.724018	0.137709
987.897179	0.138689
988.070322	0.135246
988.243447	0.134806
988.416554	0.136655
988.589642	0.137368
988.762712	0.135813
988.935764	0.137386
989.108798	0.139192
989.281813	0.138840
989.454811	0.140070
989.627790	0.141781
989.800751	0.143378
989.973693	0.142232
990.146617	0.142721
990.319524	0.143071
990.492412	0.140845
990.665281	0.142243
990.838133	0.143169
991.010966	0.141424
991.183781	0.141518
991.356578	0.142067
991.529356	0.142626
991.702117	0.141124
991.874859	0.141515
992.047583	0.143374
992.220288	0.141556
992.392976	0.142595
992.565645	0.143069
992.738296	0.142234
992.910929	0.140563
993.083543	0.141361
993.256139	0.142179
993.428718	0.142050
993.601277	0.141481
993.773819	0.140736
993.946342	0.139008
994.118848	0.137856
994.291335	0.137633
994.463803	0.138771
994.636254	0.136893
994.808686	0.136525
994.981100	0.136783
995.153496	0.136807
995.325874	0.138355
995.498233	0.136988
995.670574	0.137447
995.842897	0.136457
996.015202	0.136618
996.187488	0.139198
996.359757	0.141153
996.532007	0.140959
996.704239	0.140353
996.876452	0.141778
997.048648	0.143879
997.220825	0.145189
997.392984	0.145993
997.565124	0.146431
997.737247	0.144166
997.909351	0.142397
998.081437	0.141376
998.253505	0.142078
998.425554	0.141247
998.597586	0.142993
998.769599	0.143712
998.941594	0.145065
999.113571	0.143848
999.285529	0.142837
999.457469	0.142533
999.629391	0.142752
999.801295	0.144551
999.973181	0.145081
1000.145048	0.141728
1000.316897	0.140791
1000.488728	0.141840
1000.660541	0.142141
1000.832335	0.144214
1001.004111	0.144062
1001.175869	0.145655
1001.347609	0.143768
1001.519331	0.144699
1001.691034	0.147192
1001.862719	0.147897
1002.034386	0.148432
1002.206035	0.148284
1002.377665	0.149155
1002.549277	0.150087
1002.720871	0.150187
1002.892447	0.150519
1003.064004	0.148482
1003.235544	0.146495
1003.407065	0.145615
1003.578568	0.143783
1003.750052	0.143590
1003.921519	0.142341
1004.092967	0.142354
1004.264397	0.142983
1004.435809	0.143468
1004.607202	0.144659
1004.778577	0.144462
1004.949934	0.143055
1005.121273	0.144156
1005.292594	0.144294
1005.463896	0.144293
1005.635180	0.145313
1005.806446	0.144643
1005.977694	0.144187
1006.148923	0.144369
1006.320135	0.147501
1006.491328	0.147492
1006.662503	0.147637
1006.833659	0.148398
1007.004798	0.148545
1007.175918	0.148063
1007.347020	0.146269
1007.518103	0.145940
1007.689169	0.144377
1007.860216	0.140584
1008.031245	0.141964
1008.202256	0.138724
1008.373248	0.136756
1008.544223	0.136125
1008.715179	0.135017
1008.886117	0.134777
1009.057036	0.135569
1009.227938	0.136234
1009.398821	0.136728
1009.569686	0.137291
1009.740533	0.139012
1009.911361	0.140470
1010.082172	0.140916
1010.252964	0.142570
1010.423738	0.143176
1010.594493	0.143101
1010.765231	0.144677
1010.935950	0.146489
1011.106651	0.147028
1011.277334	0.146676
1011.447998	0.147671
1011.618645	0.148609
1011.789273	0.146166
1011.959882	0.146839
1012.130474	0.146390
1012.301048	0.144659
1012.471603	0.143655
1012.642140	0.143307
1012.812658	0.144906
1012.983159	0.143975
1013.153641	0.143733
1013.324105	0.146650
1013.494551	0.145564
1013.664979	0.144968
1013.835388	0.145213
1014.005779	0.145302
1014.176152	0.145761
1014.346507	0.144586
1014.516843	0.144173
1014.687162	0.143661
1014.857462	0.139995
1015.027744	0.140389
1015.198007	0.140968
1015.368252	0.140866
1015.538480	0.141829
1015.708689	0.138998
1015.878879	0.140979
1016.049052	0.140547
1016.219206	0.139710
1016.389342	0.143191
1016.559460	0.143356
1016.729559	0.143406
1016.899641	0.143089
1017.069704	0.142392
1017.239749	0.143974
1017.409775	0.143575
1017.579784	0.142955
1017.749774	0.143120
1017.919746	0.142497
1018.089700	0.144083
1018.259635	0.144471
1018.429553	0.145767
1018.599452	0.147216
1018.769333	0.148223
1018.939195	0.146821
1019.109040	0.148587
1019.278866	0.150060
1019.448674	0.146882
1019.618464	0.145108
1019.788235	0.145104
1019.957989	0.143973
1020.127724	0.142074
1020.297441	0.141946
1020.467139	0.143705
1020.636820	0.144609
1020.806482	0.143246
1020.976126	0.146024
1021.145752	0.146627
1021.315359	0.146619
1021.484948	0.147971
1021.654519	0.147175
1021.824072	0.147273
1021.993607	0.145711
1022.163123	0.143942
1022.332621	0.144218
1022.502101	0.144332
1022.671563	0.143332
1022.841007	0.144573
1023.010432	0.143264
1023.179839	0.146547
1023.349228	0.146597
1023.518598	0.147314
1023.687951	0.147834
1023.857285	0.148682
1024.026601	0.149818
1024.195899	0.150381
1024.365178	0.149141
1024.534439	0.148383
1024.703682	0.145506
1024.872907	0.144695
1025.042114	0.144551
1025.211302	0.145078
1025.380472	0.143474
1025.549624	0.143622
1025.718758	0.144469
1025.887873	0.144652
1026.056970	0.145446
1026.226049	0.146359
1026.395110	0.146786
1026.564153	0.145247
1026.733177	0.144483
1026.902183	0.146078
1027.071171	0.144344
1027.240141	0.146330
1027.409092	0.145947
1027.578026	0.147100
1027.746940	0.146577
1027.915837	0.145505
1028.084716	0.147369
1028.253576	0.147445
1028.422418	0.146750
1028.591242	0.145349
1028.760048	0.143069
1028.928835	0.141901
1029.097604	0.140707
1029.266355	0.140956
1029.435088	0.141289
1029.603803	0.140981
1029.772499	0.141120
1029.941177	0.141095
1030.109837	0.143047
1030.278478	0.142376
1030.447102	0.144387
1030.615707	0.145105
1030.784294	0.145057
1030.952863	0.144267
1031.121413	0.144392
1031.289945	0.144159
1031.458460	0.143439
1031.626955	0.143318
1031.795433	0.143897
1031.963892	0.141771
1032.132334	0.141718
1032.300756	0.141085
1032.469161	0.143165
1032.637548	0.142177
1032.805916	0.143650
1032.974266	0.144360
1033.142598	0.144512
1033.310911	0.144798
1033.479207	0.146689
1033.647484	0.146003
1033.815743	0.145894
1033.983983	0.144448
1034.152206	0.145659
1034.320410	0.145232
1034.488596	0.146781
1034.656764	0.145647
1034.824914	0.144347
1034.993045	0.144164
1035.161158	0.144592
1035.329253	0.146386
1035.497330	0.146244
1035.665388	0.145534
1035.833428	0.144801
1036.001450	0.142928
1036.169454	0.144581
1036.337440	0.146086
1036.505407	0.145593
1036.673356	0.145357
1036.841287	0.145357
1037.009200	0.145356
1037.177094	0.144278
1037.344970	0.143056
1037.512828	0.144047
1037.680668	0.142081
1037.848489	0.141472
1038.016293	0.141899
1038.184078	0.140925
1038.351845	0.139622
1038.519593	0.140808
1038.687324	0.140418
1038.855036	0.141399
1039.022730	0.142228
1039.190406	0.142249
1039.358063	0.141885
1039.525702	0.141342
1039.693323	0.142796
1039.860926	0.143509
1040.028511	0.143747
1040.196077	0.144545
1040.363625	0.144065
1040.531155	0.142955
1040.698667	0.143713
1040.866161	0.143340
1041.033636	0.142314
1041.201093	0.141608
1041.368532	0.141488
1041.535952	0.140318
1041.703355	0.141480
1041.870739	0.141667
1042.038105	0.142327
1042.205452	0.142912
1042.372782	0.142988
1042.540093	0.144122
1042.707386	0.144421
1042.874661	0.143804
1043.041918	0.145177
1043.209156	0.144133
1043.376376	0.144395
1043.543578	0.143977
1043.710762	0.143497
1043.877927	0.143726
1044.045074	0.143345
1044.212203	0.143273
1044.379314	0.143282
1044.546407	0.142492
1044.713481	0.141155
1044.880537	0.141889
1045.047575	0.141457
1045.214595	0.139862
1045.381596	0.141112
1045.548579	0.141262
1045.715544	0.142758
1045.882491	0.143730
1046.049420	0.143129
1046.216330	0.144639
1046.383222	0.142585
1046.550096	0.142921
1046.716951	0.144821
1046.883789	0.144068
1047.050608	0.144933
1047.217409	0.142548
1047.384192	0.142092
1047.550956	0.143616
1047.717703	0.143646
1047.884431	0.143793
1048.051140	0.142767
1048.217832	0.143898
1048.384505	0.144326
1048.551161	0.143767
1048.717798	0.143596
1048.884416	0.143059
1049.051017	0.142885
1049.217599	0.143458
1049.384163	0.144298
1049.550709	0.143606
1049.717237	0.142076
1049.883746	0.140981
1050.050237	0.140073
1050.216710	0.142779
1050.383165	0.144331
1050.549601	0.144734
1050.716019	0.143707
1050.882420	0.144462
1051.048801	0.145765
1051.215165	0.145497
1051.381510	0.147421
1051.547837	0.148343
1051.714146	0.148144
1051.880437	0.147036
1052.046709	0.145954
1052.212964	0.145632
1052.379200	0.144499
1052.545417	0.145961
1052.711617	0.146311
1052.877798	0.145614
1053.043961	0.144942
1053.210106	0.143392
1053.376233	0.142819
1053.542341	0.141147
1053.708432	0.142136
1053.874504	0.143636
1054.040557	0.141873
1054.206593	0.141437
1054.372610	0.142156
1054.538609	0.142507
1054.704590	0.142654
1054.870553	0.141304
1055.036497	0.143956
1055.202424	0.143692
1055.368331	0.142631
1055.534221	0.142844
1055.700093	0.142988
1055.865946	0.141073
1056.031781	0.141560
1056.197598	0.141489
1056.363397	0.144650
1056.529177	0.142372
1056.694939	0.142791
1056.860683	0.142612
1057.026409	0.142181
1057.192116	0.142482
1057.357806	0.141755
1057.523477	0.139120
1057.689130	0.139962
1057.854764	0.138956
1058.020381	0.140645
1058.185979	0.139590
1058.351559	0.138927
1058.517120	0.137820
1058.682664	0.138631
1058.848189	0.140072
1059.013696	0.140313
1059.179185	0.140416
1059.344656	0.139511
1059.510108	0.138131
1059.675542	0.138428
1059.840958	0.139079
1060.006356	0.141940
1060.171735	0.140812
1060.337096	0.140791
1060.502439	0.143123
1060.667764	0.142244
1060.833071	0.143012
1060.998359	0.143122
1061.163629	0.143608
1061.328881	0.145439
1061.494115	0.145716
1061.659330	0.147037
1061.824527	0.146523
1061.989706	0.146050
1062.154867	0.147081
1062.320010	0.145333
1062.485134	0.144773
1062.650240	0.143841
1062.815328	0.142310
1062.980398	0.141280
1063.145449	0.140377
1063.310482	0.141206
1063.475497	0.141826
1063.640494	0.140180
1063.805473	0.141776
1063.970433	0.145046
1064.135375	0.147636
1064.300299	0.148011
1064.465204	0.147451
1064.630092	0.148350
1064.794961	0.148035
1064.959812	0.146997
1065.124645	0.148129
1065.289459	0.146074
1065.454256	0.145160
1065.619034	0.144724
1065.783793	0.145556
1065.948535	0.147281
1066.113258	0.147523
1066.277964	0.146059
1066.442651	0.146483
1066.607319	0.145685
1066.771970	0.146929
1066.936602	0.146950
1067.101216	0.144525
1067.265812	0.143920
1067.430389	0.143946
1067.594949	0.141819
1067.759490	0.144513
1067.924013	0.145187
1068.088518	0.145851
1068.253004	0.145359
1068.417472	0.143048
1068.581922	0.142649
1068.746354	0.144450
1068.910768	0.141667
1069.075163	0.140994
1069.239540	0.139746
1069.403899	0.140457
1069.568240	0.138427
1069.732562	0.138323
1069.896866	0.139294
1070.061152	0.139635
1070.225420	0.137660
1070.389670	0.140790
1070.553901	0.142407
1070.718114	0.141903
1070.882309	0.141394
1071.046486	0.145255
1071.210644	0.146918
1071.374784	0.146376
1071.538906	0.148056
1071.703010	0.147208
1071.867096	0.146480
1072.031163	0.146908
1072.195212	0.147312
1072.359243	0.145476
1072.523256	0.144017
1072.687250	0.145266
1072.851226	0.147028
1073.015184	0.145104
1073.179124	0.146347
1073.343045	0.144097
1073.506949	0.142834
1073.670834	0.142237
1073.834701	0.143835
1073.998549	0.145003
1074.162380	0.144289
1074.326192	0.143532
1074.489986	0.143291
1074.653761	0.144302
1074.817519	0.145266
1074.981258	0.147730
1075.144979	0.148139
1075.308682	0.149792
1075.472367	0.147957
1075.636033	0.147766
1075.799681	0.147521
1075.963311	0.151020
1076.126923	0.150056
1076.290516	0.150691
1076.454092	0.150084
1076.617649	0.151683
1076.781187	0.149299
1076.944708	0.148482
1077.108210	0.149526
1077.271695	0.147888
1077.435160	0.147295
1077.598608	0.146568
1077.762038	0.145062
1077.925449	0.145499
1078.088842	0.145120
1078.252217	0.144574
1078.415573	0.144644
1078.578912	0.145698
1078.742232	0.147660
1078.905534	0.147322
1079.068817	0.148835
1079.232083	0.149275
1079.395330	0.148239
1079.558559	0.146282
1079.721770	0.146224
1079.884962	0.146132
1080.048136	0.142644
1080.211293	0.142698
1080.374430	0.142001
1080.537550	0.142178
1080.700651	0.143033
1080.863735	0.142645
1081.026800	0.145605
1081.189846	0.146835
1081.352875	0.148355
1081.515885	0.150889
1081.678877	0.152516
1081.841851	0.150712
1082.004807	0.149247
1082.167744	0.150187
1082.330663	0.151156
1082.493564	0.151525
1082.656447	0.150890
1082.819312	0.152644
1082.982158	0.150123
1083.144986	0.147969
1083.307796	0.150663
1083.470587	0.150679
1083.633361	0.149743
1083.796116	0.149522
1083.958853	0.148024
1084.121571	0.146553
1084.284272	0.143878
1084.446954	0.147353
1084.609618	0.149081
1084.772264	0.148734
1084.934892	0.149246
1085.097501	0.152172
1085.260092	0.151792
1085.422665	0.153355
1085.585220	0.156109
1085.747756	0.154880
1085.910274	0.155131
1086.072774	0.154073
1086.235256	0.154641
1086.397720	0.153013
1086.560165	0.152905
1086.722592	0.153794
1086.885001	0.153498
1087.047392	0.153301
1087.209764	0.154870
1087.372119	0.152611
1087.534455	0.151985
1087.696772	0.150877
1087.859072	0.152509
1088.021353	0.149701
1088.183616	0.149245
1088.345861	0.150342
1088.508088	0.149155
1088.670296	0.149348
1088.832486	0.145824
1088.994658	0.144766
1089.156812	0.145561
1089.318948	0.144810
1089.481065	0.145133
1089.643164	0.144910
1089.805245	0.142623
1089.967308	0.143812
1090.129352	0.143659
1090.291378	0.148685
1090.453386	0.151076
1090.615376	0.149659
1090.777347	0.151345
1090.939301	0.150996
1091.101236	0.151187
1091.263153	0.149075
1091.425051	0.147995
1091.586932	0.147438
1091.748794	0.146236
1091.910638	0.146625
1092.072463	0.147378
1092.234271	0.146654
1092.396060	0.147572
1092.557831	0.145654
1092.719584	0.148246
1092.881319	0.147717
1093.043035	0.147636
1093.204733	0.147790
1093.366413	0.146695
1093.528075	0.147802
1093.689718	0.147628
1093.851343	0.147875
1094.012950	0.146897
1094.174539	0.145952
1094.336110	0.149993
1094.497662	0.150015
1094.659196	0.147313
1094.820712	0.149843
1094.982210	0.146809
1095.143689	0.144906
1095.305151	0.144735
1095.466594	0.146537
1095.628018	0.147866
1095.789425	0.146271
1095.950813	0.146436
1096.112183	0.148941
1096.273535	0.143525
1096.434869	0.146093
1096.596184	0.147867
1096.757482	0.146299
1096.918761	0.145271
1097.080021	0.145983
1097.241264	0.145299
1097.402488	0.147057
1097.563694	0.147041
1097.724882	0.148265
1097.886052	0.147669
1098.047203	0.145242
1098.208336	0.145592
1098.369451	0.147718
1098.530548	0.144870
1098.691627	0.146191
1098.852687	0.145089
1099.013729	0.142026
1099.174753	0.143050
1099.335758	0.143047
1099.496746	0.145657
1099.657715	0.145648
1099.818666	0.145417
1099.979599	0.146990
1100.140513	0.144224
1100.301409	0.143928
1100.462287	0.145482
1100.623147	0.144869
1100.783989	0.147080
1100.944812	0.146825
1101.105617	0.148783
1101.266404	0.147266
1101.427173	0.145732
1101.587923	0.146694
1101.748656	0.146509
1101.909370	0.147856
1102.070066	0.149416
1102.230743	0.147678
1102.391403	0.147008
1102.552044	0.146026
1102.712667	0.147430
1102.873271	0.149139
1103.033858	0.148526
1103.194426	0.147500
1103.354976	0.146619
1103.515508	0.144827
1103.676021	0.144002
1103.836517	0.146332
1103.996994	0.145107
1104.157453	0.144546
1104.317893	0.144928
1104.478316	0.144817
1104.638720	0.144799
1104.799106	0.148588
1104.959474	0.149283
1105.119823	0.150006
1105.280155	0.148111
1105.440468	0.146892
1105.600763	0.148509
1105.761039	0.149031
1105.921298	0.148005
1106.081538	0.151985
1106.241760	0.147602
1106.401964	0.144553
1106.562149	0.144520
1106.722316	0.144851
1106.882465	0.146148
1107.042596	0.144584
1107.202709	0.142808
1107.362803	0.141726
1107.522879	0.139580
1107.682937	0.140553
1107.842977	0.142161
1108.002999	0.141157
1108.163002	0.139578
1108.322987	0.140269
1108.482954	0.138501
1108.642902	0.135356
1108.802833	0.136099
1108.962745	0.134954
1109.122639	0.132725
1109.282515	0.136290
1109.442372	0.139730
1109.602211	0.142653
1109.762032	0.143361
1109.921835	0.144221
1110.081620	0.146774
1110.241386	0.149344
1110.401134	0.147293
1110.560864	0.152699
1110.720576	0.150450
1110.880269	0.146798
1111.039945	0.144010
1111.199602	0.144662
1111.359240	0.148347
1111.518861	0.150818
1111.678463	0.150997
1111.838047	0.154067
1111.997613	0.154085
1112.157161	0.153834
1112.316690	0.157876
1112.476202	0.155100
1112.635695	0.154761
1112.795169	0.155741
1112.954626	0.152450
1113.114064	0.153995
1113.273484	0.151824
1113.432886	0.146577
1113.592270	0.149760
1113.751635	0.145945
1113.910983	0.148358
1114.070312	0.147394
1114.229622	0.143084
1114.388915	0.143732
1114.548189	0.141334
1114.707445	0.143016
1114.866683	0.141309
1115.025903	0.140954
1115.185104	0.142960
1115.344287	0.144703
1115.503452	0.143373
1115.662599	0.139352
1115.821727	0.140888
1115.980838	0.140089
1116.139930	0.140211
1116.299004	0.143622
1116.458059	0.142335
1116.617097	0.141578
1116.776116	0.138959
1116.935117	0.139391
1117.094099	0.143958
1117.253064	0.142122
1117.412010	0.142394
1117.570938	0.140439
1117.729848	0.141529
1117.888740	0.138901
1118.047613	0.138377
1118.206468	0.140080
1118.365305	0.138942
1118.524124	0.137552
1118.682924	0.134979
1118.841707	0.136491
1119.000471	0.136613
1119.159216	0.133756
1119.317944	0.133313
1119.476653	0.133752
1119.635344	0.132843
1119.794017	0.131876
1119.952672	0.133400
1120.111308	0.138014
1120.269927	0.140269
1120.428527	0.140827
1120.587108	0.144770
1120.745672	0.146251
1120.904217	0.147719
1121.062744	0.149443
1121.221253	0.149513
1121.379744	0.147011
1121.538216	0.145517
1121.696671	0.141491
1121.855107	0.139810
1122.013524	0.138082
1122.171924	0.141270
1122.330305	0.136844
1122.488668	0.135317
1122.647013	0.137816
1122.805340	0.141240
1122.963648	0.140912
1123.121938	0.141807
1123.280210	0.143697
1123.438464	0.143481
1123.596700	0.140338
1123.754917	0.141565
1123.913116	0.142600
1124.071297	0.146281
1124.229459	0.143581
1124.387604	0.144241
1124.545730	0.143863
1124.703838	0.144947
1124.861928	0.141292
1125.019999	0.142060
1125.178052	0.143262
1125.336088	0.144284
1125.494104	0.142533
1125.652103	0.144477
1125.810083	0.146460
1125.968045	0.146651
1126.125989	0.144785
1126.283915	0.144703
1126.441823	0.147727
1126.599712	0.143679
1126.757583	0.146466
1126.915436	0.146075
1127.073270	0.147405
1127.231087	0.147253
1127.388885	0.148808
1127.546665	0.151791
1127.704426	0.155289
1127.862170	0.152915
1128.019895	0.155017
1128.177602	0.150324
1128.335291	0.148488
1128.492961	0.145263
1128.650614	0.142453
1128.808248	0.140972
1128.965864	0.141204
1129.123461	0.142003
1129.281041	0.142258
1129.438602	0.145126
1129.596145	0.146711
1129.753670	0.146256
1129.911176	0.146835
1130.068665	0.147243
1130.226135	0.143905
1130.383587	0.139485
1130.541020	0.140019
1130.698436	0.136696
1130.855833	0.135367
1131.013212	0.134392
1131.170573	0.133451
1131.327915	0.132933
1131.485239	0.133584
1131.642545	0.136846
1131.799833	0.138651
1131.957103	0.137246
1132.114354	0.140019
1132.271588	0.143884
1132.428803	0.145606
1132.585999	0.145087
1132.743178	0.144367
1132.900338	0.147010
1133.057480	0.140728
1133.214604	0.138420
1133.371710	0.138601
1133.528797	0.134864
1133.685866	0.127103
1133.842917	0.123193
1133.999950	0.123022
1134.156964	0.122976
1134.313960	0.118871
1134.470938	0.122997
1134.627898	0.122780
1134.784840	0.119919
1134.941763	0.122695
1135.098668	0.123296
1135.255555	0.123332
1135.412424	0.125435
1135.569274	0.130113
1135.726107	0.128072
1135.882921	0.127744
1136.039716	0.129516
1136.196494	0.131783
1136.353253	0.130417
1136.509995	0.132085
1136.666717	0.132686
1136.823422	0.132097
1136.980109	0.128946
1137.136777	0.132459
1137.293427	0.134817
1137.450059	0.138237
1137.606672	0.139574
1137.763267	0.140628
1137.919844	0.139552
1138.076403	0.139298
1138.232944	0.139840
1138.389466	0.139494
1138.545971	0.133677
1138.702457	0.129964
1138.858924	0.127449
1139.015374	0.128428
1139.171805	0.131836
1139.328218	0.132625
1139.484613	0.132919
1139.640990	0.135293
1139.797348	0.137516
1139.953688	0.145863
1140.110010	0.144899
1140.266314	0.144720
1140.422600	0.140004
1140.578867	0.136895
1140.735116	0.140202
1140.891347	0.142066
1141.047559	0.142469
1141.203754	0.141628
1141.359930	0.137346
1141.516088	0.140250
1141.672228	0.138931
1141.828349	0.143592
1141.984452	0.144902
1142.140537	0.145144
1142.296604	0.145072
1142.452653	0.141916
1142.608683	0.138160
1142.764695	0.137638
1142.920689	0.140496
1143.076665	0.143520
1143.232622	0.137195
1143.388562	0.133076
1143.544483	0.129916
1143.700385	0.126107
1143.856270	0.124842
1144.012136	0.125695
1144.167985	0.124360
1144.323814	0.118550
1144.479626	0.117069
1144.635420	0.120516
1144.791195	0.122492
1144.946952	0.119539
1145.102691	0.120494
1145.258411	0.121084
1145.414113	0.121319
1145.569798	0.127247
1145.725463	0.130213
1145.881111	0.129708
1146.036741	0.125689
1146.192352	0.127314
1146.347945	0.129524
1146.503519	0.129520
1146.659076	0.127688
1146.814614	0.128333
1146.970134	0.121750
1147.125636	0.124951
1147.281120	0.120970
1147.436585	0.125848
1147.592032	0.120056
1147.747461	0.118208
1147.902872	0.119023
1148.058265	0.122961
1148.213639	0.119793
1148.368995	0.120559
1148.524333	0.116964
1148.679653	0.119042
1148.834954	0.119057
1148.990237	0.119928
1149.145502	0.125045
1149.300749	0.122394
1149.455977	0.114871
1149.611188	0.115562
1149.766380	0.117069
1149.921553	0.119386
1150.076709	0.121014
1150.231846	0.117742
1150.386966	0.118240
1150.542066	0.114716
1150.697149	0.118606
1150.852214	0.123258
1151.007260	0.125196
1151.162288	0.124164
1151.317298	0.123543
1151.472289	0.125416
1151.627263	0.125111
1151.782218	0.129175
1151.937155	0.126670
1152.092073	0.124963
1152.246974	0.122761
1152.401856	0.120511
1152.556720	0.122627
1152.711566	0.121774
1152.866393	0.117526
1153.021203	0.115937
1153.175994	0.116128
1153.330767	0.118508
1153.485521	0.117030
1153.640258	0.121341
1153.794976	0.121585
1153.949676	0.120361
1154.104358	0.117217
1154.259021	0.118261
1154.413667	0.117295
1154.568294	0.112702
1154.722903	0.113032
1154.877493	0.113834
1155.032066	0.111363
1155.186620	0.115210
1155.341156	0.114703
1155.495674	0.117625
1155.650173	0.119609
1155.804654	0.122571
1155.959118	0.123281
1156.113562	0.121220
1156.267989	0.119056
1156.422397	0.114747
1156.576788	0.109805
1156.731160	0.113043
1156.885513	0.108901
1157.039849	0.110317
1157.194166	0.108204
1157.348465	0.109724
1157.502746	0.110634
1157.657009	0.115020
1157.811253	0.117855
1157.965479	0.121846
1158.119687	0.121526
1158.273877	0.125558
1158.428048	0.120871
1158.582201	0.123038
1158.736337	0.120166
1158.890453	0.118207
1159.044552	0.111370
1159.198632	0.111958
1159.352694	0.108032
1159.506738	0.105416
1159.660764	0.104679
1159.814771	0.105117
1159.968761	0.102115
1160.122732	0.102797
1160.276685	0.103322
1160.430619	0.108144
1160.584535	0.104474
1160.738434	0.105369
1160.892313	0.102659
1161.046175	0.099351
1161.200019	0.099436
1161.353844	0.105372
1161.507651	0.106708
1161.661440	0.105510
1161.815210	0.102342
1161.968962	0.107656
1162.122697	0.108680
1162.276412	0.109945
1162.430110	0.115162
1162.583789	0.113519
1162.737451	0.112556
1162.891094	0.110052
1163.044718	0.109175
1163.198325	0.115463
1163.351913	0.112443
1163.505483	0.113450
1163.659035	0.117727
1163.812569	0.110716
1163.966084	0.114790
1164.119581	0.106943
1164.273060	0.107823
1164.426521	0.109056
1164.579964	0.105771
1164.733388	0.104629
1164.886794	0.103328
1165.040182	0.098552
1165.193551	0.099136
1165.346903	0.096150
1165.500236	0.098317
1165.653551	0.099900
1165.806848	0.104517
1165.960126	0.109579
1166.113386	0.112132
1166.266628	0.113441
1166.419852	0.108854
1166.573058	0.113275
1166.726245	0.111086
1166.879414	0.109809
1167.032565	0.103093
1167.185698	0.099253
1167.338812	0.093077
1167.491909	0.088245
1167.644987	0.087787
1167.798046	0.091764
1167.951088	0.092796
1168.104111	0.096477
1168.257117	0.104586
1168.410103	0.104244
1168.563072	0.107655
1168.716023	0.104834
1168.868955	0.108769
1169.021869	0.109008
1169.174765	0.115919
1169.327642	0.111785
1169.480501	0.109471
1169.633343	0.103521
1169.786165	0.105523
1169.938970	0.103357
1170.091757	0.105712
1170.244525	0.106184
1170.397275	0.098739
1170.550007	0.091590
1170.702720	0.096598
1170.855415	0.097104
1171.008092	0.095609
1171.160751	0.095690
1171.313392	0.092657
1171.466014	0.100473
1171.618619	0.075608
1171.771205	0.075608
1171.923772	0.075608
