sample name	sample
index	422
start time	 03-08-2021  11:38:27 AM


Wavelength (nm)	Absorbance
494.344910	0.149091
494.563924	0.149091
494.782919	0.149091
495.001897	0.220173
495.220856	-0.033001
495.439797	-0.058141
495.658719	-0.002329
495.877624	-0.016526
496.096510	-0.005589
496.315378	-0.024247
496.534227	0.020784
496.753059	0.056297
496.971872	0.017333
497.190667	0.163053
497.409444	0.169661
497.628203	0.159363
497.846943	0.161230
498.065665	0.158665
498.284369	0.160313
498.503055	0.159498
498.721723	0.159302
498.940372	0.160593
499.159003	0.159997
499.377616	0.159180
499.596210	0.159650
499.814787	0.159598
500.033345	0.160327
500.251885	0.160643
500.470406	0.161154
500.688910	0.160292
500.907395	0.160649
501.125862	0.160335
501.344311	0.160185
501.562742	0.161095
501.781154	0.161098
501.999548	0.162167
502.217924	0.161604
502.436282	0.162368
502.654621	0.162515
502.872942	0.162294
503.091245	0.162480
503.309530	0.161261
503.527797	0.161141
503.746045	0.161298
503.964275	0.160385
504.182487	0.159792
504.400681	0.159247
504.618856	0.159778
504.837013	0.159470
505.055152	0.158725
505.273273	0.161416
505.491376	0.161105
505.709460	0.160625
505.927526	0.160582
506.145574	0.161784
506.363604	0.162070
506.581615	0.161699
506.799608	0.162378
507.017583	0.164427
507.235540	0.163257
507.453478	0.164682
507.671399	0.165554
507.889301	0.165726
508.107185	0.164959
508.325050	0.165822
508.542898	0.166708
508.760727	0.166557
508.978538	0.165190
509.196330	0.165864
509.414105	0.164704
509.631861	0.164823
509.849599	0.165378
510.067319	0.166432
510.285021	0.166102
510.502704	0.166363
510.720369	0.166995
510.938016	0.167370
511.155645	0.168128
511.373255	0.169093
511.590848	0.168832
511.808422	0.169082
512.025977	0.169157
512.243515	0.168858
512.461034	0.169221
512.678536	0.169054
512.896018	0.169491
513.113483	0.168553
513.330930	0.168519
513.548358	0.168908
513.765768	0.168957
513.983160	0.168629
514.200533	0.169548
514.417889	0.170073
514.635226	0.170347
514.852545	0.169847
515.069845	0.170143
515.287128	0.170558
515.504392	0.171134
515.721638	0.170817
515.938866	0.171467
516.156075	0.171317
516.373267	0.171782
516.590440	0.173020
516.807594	0.173747
517.024731	0.174349
517.241850	0.174626
517.458950	0.174584
517.676032	0.175808
517.893095	0.175810
518.110141	0.176119
518.327168	0.175091
518.544177	0.174921
518.761168	0.175360
518.978141	0.174822
519.195095	0.175260
519.412031	0.175406
519.628949	0.175433
519.845849	0.176406
520.062731	0.176577
520.279594	0.178025
520.496439	0.178068
520.713266	0.178785
520.930074	0.179287
521.146865	0.179506
521.363637	0.179865
521.580391	0.179776
521.797127	0.179998
522.013844	0.180523
522.230543	0.180399
522.447224	0.180737
522.663887	0.180593
522.880532	0.180833
523.097158	0.180898
523.313766	0.181669
523.530356	0.182362
523.746928	0.182396
523.963481	0.182243
524.180017	0.182447
524.396534	0.182772
524.613032	0.182783
524.829513	0.183941
525.045975	0.183899
525.262420	0.183338
525.478845	0.183470
525.695253	0.183409
525.911643	0.183729
526.128014	0.184119
526.344367	0.183917
526.560702	0.184225
526.777018	0.184389
526.993316	0.185547
527.209597	0.186071
527.425858	0.186295
527.642102	0.186368
527.858328	0.187046
528.074535	0.186889
528.290724	0.187729
528.506894	0.188481
528.723047	0.188272
528.939181	0.188193
529.155297	0.188721
529.371395	0.189802
529.587475	0.190600
529.803536	0.191092
530.019579	0.191581
530.235604	0.191686
530.451611	0.191547
530.667600	0.192165
530.883570	0.192567
531.099522	0.193016
531.315456	0.193391
531.531372	0.193231
531.747269	0.193230
531.963148	0.194033
532.179009	0.194341
532.394852	0.194912
532.610676	0.195001
532.826482	0.195454
533.042271	0.195329
533.258040	0.194977
533.473792	0.195352
533.689525	0.196120
533.905240	0.196377
534.120937	0.196429
534.336616	0.196648
534.552277	0.197007
534.767919	0.197509
534.983543	0.198487
535.199149	0.198905
535.414736	0.199855
535.630306	0.199333
535.845857	0.199412
536.061390	0.199795
536.276904	0.200498
536.492401	0.200757
536.707879	0.201190
536.923339	0.201176
537.138781	0.201829
537.354204	0.201923
537.569610	0.203071
537.784997	0.203434
538.000366	0.204295
538.215716	0.204510
538.431049	0.205395
538.646363	0.205169
538.861659	0.205929
539.076937	0.206226
539.292196	0.206959
539.507438	0.207203
539.722661	0.207639
539.937866	0.207358
540.153052	0.207442
540.368221	0.207588
540.583371	0.208153
540.798503	0.207885
541.013617	0.207954
541.228712	0.208147
541.443789	0.208862
541.658848	0.209252
541.873889	0.209610
542.088912	0.210460
542.303916	0.210471
542.518902	0.210563
542.733870	0.210677
542.948820	0.210896
543.163752	0.210990
543.378665	0.210872
543.593560	0.210992
543.808437	0.211689
544.023295	0.211698
544.238136	0.212211
544.452958	0.212618
544.667762	0.213542
544.882548	0.213741
545.097315	0.214640
545.312064	0.214985
545.526795	0.215104
545.741508	0.215047
545.956203	0.215196
546.170879	0.215647
546.385537	0.215910
546.600177	0.215785
546.814799	0.215991
547.029402	0.215947
547.243988	0.216005
547.458555	0.216448
547.673103	0.217051
547.887634	0.217310
548.102146	0.217142
548.316640	0.217426
548.531116	0.217629
548.745574	0.218111
548.960013	0.217738
549.174435	0.218271
549.388838	0.218143
549.603222	0.218557
549.817589	0.218737
550.031937	0.219389
550.246267	0.219845
550.460579	0.219854
550.674873	0.219937
550.889148	0.220414
551.103405	0.220981
551.317644	0.221659
551.531865	0.221348
551.746068	0.221554
551.960252	0.221527
552.174418	0.221332
552.388566	0.222096
552.602696	0.222655
552.816807	0.222876
553.030900	0.222554
553.244975	0.222918
553.459032	0.223323
553.673070	0.223200
553.887091	0.223551
554.101093	0.223856
554.315077	0.223883
554.529042	0.223934
554.742990	0.224149
554.956919	0.224779
555.170830	0.225142
555.384722	0.225587
555.598597	0.226608
555.812453	0.226789
556.026291	0.227595
556.240111	0.227913
556.453913	0.228449
556.667696	0.228694
556.881461	0.228617
557.095208	0.228492
557.308937	0.228681
557.522647	0.228593
557.736339	0.228495
557.950013	0.228254
558.163669	0.228362
558.377307	0.228038
558.590926	0.228167
558.804527	0.228357
559.018110	0.228834
559.231675	0.229080
559.445221	0.229323
559.658749	0.229348
559.872259	0.229289
560.085751	0.230228
560.299225	0.230851
560.512680	0.231330
560.726117	0.231690
560.939536	0.231909
561.152937	0.232251
561.366319	0.232697
561.579683	0.233274
561.793029	0.233896
562.006357	0.233580
562.219667	0.233962
562.432958	0.233964
562.646231	0.234334
562.859486	0.234290
563.072723	0.234392
563.285941	0.234296
563.499141	0.234314
563.712323	0.234635
563.925487	0.234926
564.138632	0.234971
564.351760	0.235353
564.564869	0.235452
564.777960	0.235726
564.991032	0.235629
565.204087	0.235966
565.417123	0.236433
565.630141	0.236205
565.843140	0.236232
566.056122	0.236303
566.269085	0.236653
566.482030	0.236812
566.694957	0.236964
566.907866	0.237307
567.120756	0.237455
567.333628	0.237785
567.546482	0.238150
567.759318	0.238490
567.972135	0.238591
568.184935	0.238871
568.397716	0.238908
568.610478	0.239017
568.823223	0.239386
569.035949	0.239290
569.248657	0.239492
569.461347	0.239868
569.674019	0.240338
569.886672	0.240434
570.099308	0.240550
570.311925	0.240940
570.524523	0.241024
570.737104	0.241015
570.949666	0.241781
571.162210	0.242124
571.374736	0.242243
571.587244	0.242262
571.799733	0.243034
572.012205	0.242897
572.224658	0.242921
572.437092	0.243669
572.649509	0.243970
572.861907	0.243948
573.074287	0.243943
573.286649	0.244313
573.498993	0.244756
573.711318	0.244639
573.923625	0.244883
574.135914	0.244923
574.348185	0.244722
574.560438	0.245065
574.772672	0.245112
574.984888	0.245336
575.197086	0.245098
575.409266	0.244984
575.621427	0.245167
575.833570	0.245236
576.045695	0.245650
576.257802	0.245950
576.469890	0.246021
576.681961	0.246120
576.894013	0.246493
577.106046	0.246779
577.318062	0.247238
577.530059	0.247388
577.742039	0.248027
577.954000	0.248136
578.165942	0.248374
578.377867	0.248469
578.589773	0.248907
578.801661	0.248933
579.013531	0.249077
579.225382	0.249197
579.437216	0.249311
579.649031	0.249419
579.860828	0.249828
580.072606	0.250290
580.284367	0.250992
580.496109	0.251409
580.707833	0.251981
580.919539	0.252718
581.131227	0.252814
581.342896	0.253253
581.554547	0.253554
581.766180	0.253853
581.977795	0.253846
582.189391	0.254203
582.400969	0.254406
582.612529	0.254395
582.824071	0.254569
583.035595	0.254993
583.247100	0.255344
583.458587	0.255205
583.670056	0.255288
583.881506	0.255718
584.092939	0.255592
584.304353	0.255819
584.515749	0.256159
584.727127	0.256180
584.938486	0.256015
585.149828	0.256376
585.361151	0.256864
585.572456	0.257533
585.783742	0.257691
585.995011	0.257813
586.206261	0.258135
586.417493	0.258299
586.628706	0.258492
586.839902	0.259018
587.051079	0.258562
587.262238	0.258672
587.473379	0.258868
587.684502	0.258992
587.895606	0.258915
588.106692	0.258953
588.317760	0.259186
588.528810	0.259229
588.739841	0.258989
588.950855	0.259767
589.161850	0.260384
589.372827	0.260358
589.583785	0.260685
589.794726	0.261302
590.005648	0.261794
590.216552	0.262107
590.427437	0.262397
590.638305	0.262778
590.849154	0.262803
591.059985	0.262420
591.270798	0.262766
591.481592	0.262427
591.692369	0.262245
591.903127	0.262127
592.113867	0.262348
592.324588	0.263069
592.535292	0.263340
592.745977	0.263298
592.956644	0.263802
593.167293	0.263491
593.377923	0.264098
593.588536	0.264450
593.799130	0.264550
594.009706	0.264638
594.220263	0.264525
594.430803	0.264511
594.641324	0.264894
594.851827	0.265177
595.062312	0.265727
595.272778	0.265845
595.483227	0.266108
595.693657	0.266503
595.904069	0.266507
596.114462	0.266671
596.324838	0.267008
596.535195	0.267408
596.745534	0.267549
596.955855	0.267744
597.166157	0.267931
597.376441	0.268415
597.586707	0.268708
597.796955	0.269133
598.007185	0.269357
598.217396	0.269274
598.427589	0.269581
598.637764	0.269632
598.847921	0.269702
599.058060	0.269985
599.268180	0.269697
599.478282	0.269759
599.688366	0.269650
599.898431	0.269886
600.108479	0.270376
600.318508	0.270317
600.528519	0.270508
600.738511	0.270753
600.948486	0.270904
601.158442	0.271333
601.368380	0.271484
601.578300	0.271823
601.788202	0.271981
601.998085	0.272095
602.207950	0.271990
602.417797	0.272274
602.627626	0.272507
602.837436	0.272785
603.047228	0.272942
603.257002	0.273413
603.466758	0.273644
603.676496	0.273743
603.886215	0.274085
604.095916	0.274463
604.305599	0.274576
604.515264	0.274573
604.724910	0.274776
604.934538	0.275196
605.144148	0.275215
605.353740	0.275340
605.563314	0.275524
605.772869	0.275947
605.982406	0.276403
606.191925	0.276534
606.401425	0.276638
606.610908	0.277008
606.820372	0.276983
607.029818	0.277087
607.239246	0.277249
607.448655	0.277679
607.658047	0.277786
607.867420	0.277982
608.076775	0.277982
608.286111	0.278665
608.495430	0.278500
608.704730	0.278704
608.914012	0.279292
609.123275	0.279639
609.332521	0.279785
609.541748	0.279896
609.750957	0.280008
609.960148	0.280456
610.169321	0.280454
610.378475	0.280811
610.587611	0.281058
610.796729	0.280720
611.005829	0.280348
611.214910	0.280578
611.423974	0.280809
611.633019	0.281222
611.842045	0.281340
612.051054	0.281274
612.260044	0.281454
612.469017	0.281689
612.677970	0.282026
612.886906	0.282710
613.095824	0.282658
613.304723	0.282883
613.513604	0.282718
613.722467	0.282995
613.931311	0.283479
614.140138	0.283474
614.348946	0.283416
614.557736	0.283465
614.766507	0.283680
614.975261	0.283799
615.183996	0.283748
615.392713	0.283873
615.601412	0.283987
615.810092	0.283978
616.018754	0.284395
616.227399	0.284921
616.436024	0.285326
616.644632	0.285396
616.853222	0.285594
617.061793	0.285989
617.270346	0.286275
617.478880	0.286517
617.687397	0.286871
617.895895	0.286980
618.104375	0.287155
618.312837	0.287172
618.521281	0.287101
618.729706	0.287391
618.938113	0.287687
619.146502	0.287773
619.354873	0.287916
619.563226	0.287846
619.771560	0.287784
619.979876	0.287756
620.188174	0.288071
620.396453	0.288676
620.604715	0.288777
620.812958	0.288428
621.021183	0.288422
621.229390	0.288403
621.437578	0.288404
621.645748	0.288855
621.853900	0.288940
622.062034	0.288866
622.270150	0.288843
622.478247	0.289037
622.686326	0.289389
622.894387	0.289596
623.102430	0.290160
623.310454	0.290421
623.518461	0.290376
623.726449	0.290389
623.934418	0.290798
624.142370	0.291049
624.350303	0.290845
624.558218	0.291264
624.766115	0.291866
624.973994	0.291778
625.181855	0.292092
625.389697	0.292268
625.597521	0.292607
625.805327	0.292530
626.013114	0.292465
626.220883	0.292931
626.428634	0.292736
626.636367	0.292772
626.844082	0.292706
627.051778	0.293022
627.259457	0.293134
627.467117	0.293272
627.674758	0.293220
627.882382	0.293703
628.089987	0.294401
628.297574	0.294785
628.505143	0.294923
628.712694	0.295478
628.920226	0.295543
629.127740	0.296154
629.335236	0.296358
629.542714	0.297083
629.750174	0.297102
629.957615	0.296827
630.165038	0.296811
630.372443	0.297040
630.579829	0.297060
630.787198	0.297085
630.994548	0.297173
631.201880	0.297371
631.409194	0.297055
631.616489	0.297252
631.823766	0.297549
632.031025	0.297901
632.238266	0.297823
632.445489	0.298046
632.652693	0.298246
632.859879	0.298146
633.067047	0.298268
633.274197	0.298762
633.481329	0.298847
633.688442	0.299062
633.895537	0.299387
634.102614	0.299598
634.309672	0.299819
634.516713	0.300167
634.723735	0.300512
634.930739	0.300590
635.137724	0.300665
635.344692	0.300863
635.551641	0.300703
635.758572	0.300896
635.965485	0.301351
636.172379	0.301384
636.379256	0.301346
636.586114	0.301428
636.792954	0.301918
636.999775	0.302225
637.206579	0.302352
637.413364	0.303000
637.620131	0.303006
637.826880	0.302884
638.033610	0.303100
638.240323	0.303208
638.447017	0.303337
638.653692	0.303353
638.860350	0.303616
639.066990	0.303865
639.273611	0.303653
639.480214	0.303841
639.686798	0.304077
639.893365	0.304303
640.099913	0.304561
640.306443	0.304690
640.512955	0.305011
640.719449	0.304991
640.925924	0.305159
641.132381	0.305528
641.338820	0.305849
641.545241	0.306138
641.751644	0.306648
641.958028	0.307046
642.164394	0.307235
642.370742	0.307312
642.577071	0.307621
642.783383	0.307795
642.989676	0.308026
643.195951	0.308085
643.402207	0.308298
643.608446	0.308321
643.814666	0.308535
644.020868	0.308924
644.227052	0.309259
644.433218	0.309219
644.639365	0.309473
644.845494	0.309500
645.051605	0.309664
645.257698	0.309936
645.463772	0.310086
645.669828	0.310157
645.875866	0.310349
646.081886	0.310595
646.287888	0.311038
646.493871	0.311176
646.699836	0.311368
646.905783	0.311646
647.111712	0.311722
647.317622	0.311845
647.523514	0.311876
647.729388	0.312064
647.935244	0.312432
648.141082	0.312548
648.346901	0.312895
648.552702	0.313159
648.758485	0.313358
648.964250	0.313605
649.169996	0.313775
649.375724	0.314253
649.581434	0.314461
649.787126	0.314301
649.992800	0.314717
650.198455	0.314941
650.404092	0.315323
650.609711	0.315551
650.815311	0.315539
651.020894	0.315964
651.226458	0.316027
651.432004	0.316185
651.637532	0.316371
651.843041	0.316572
652.048532	0.316738
652.254006	0.316698
652.459460	0.316935
652.664897	0.317098
652.870315	0.317161
653.075716	0.317642
653.281097	0.318019
653.486461	0.318428
653.691807	0.318452
653.897134	0.318643
654.102443	0.319053
654.307734	0.319253
654.513006	0.319655
654.718261	0.319917
654.923497	0.320040
655.128715	0.320149
655.333915	0.320146
655.539096	0.320412
655.744259	0.320607
655.949404	0.320612
656.154531	0.320839
656.359640	0.321044
656.564730	0.321284
656.769802	0.321254
656.974856	0.321256
657.179892	0.321635
657.384909	0.321715
657.589908	0.322035
657.794889	0.322345
657.999852	0.322615
658.204797	0.322836
658.409723	0.323266
658.614631	0.323682
658.819521	0.324039
659.024393	0.324085
659.229246	0.324509
659.434081	0.324474
659.638898	0.324835
659.843697	0.324940
660.048478	0.325352
660.253240	0.325392
660.457984	0.325580
660.662710	0.325695
660.867417	0.325988
661.072107	0.325981
661.276778	0.326322
661.481431	0.326249
661.686066	0.326431
661.890682	0.326410
662.095281	0.326410
662.299861	0.326664
662.504422	0.326991
662.708966	0.327305
662.913491	0.327691
663.117999	0.327790
663.322488	0.328158
663.526958	0.328242
663.731411	0.328602
663.935845	0.329154
664.140261	0.329341
664.344659	0.329846
664.549038	0.330007
664.753400	0.330125
664.957743	0.330658
665.162068	0.330922
665.366375	0.331264
665.570663	0.331406
665.774933	0.331407
665.979185	0.331961
666.183419	0.332111
666.387635	0.332655
666.591832	0.333011
666.796011	0.333232
667.000172	0.333464
667.204315	0.334146
667.408439	0.334541
667.612545	0.334684
667.816634	0.334819
668.020703	0.335109
668.224755	0.335161
668.428788	0.335604
668.632803	0.335832
668.836800	0.336297
669.040779	0.336288
669.244739	0.336565
669.448681	0.337100
669.652605	0.337370
669.856511	0.337436
670.060399	0.337793
670.264268	0.337886
670.468119	0.337888
670.671952	0.337904
670.875767	0.338026
671.079563	0.338179
671.283341	0.338314
671.487101	0.338491
671.690843	0.338592
671.894567	0.338645
672.098272	0.339000
672.301959	0.339578
672.505628	0.339635
672.709278	0.340005
672.912911	0.340299
673.116525	0.340184
673.320121	0.340344
673.523699	0.340400
673.727258	0.340686
673.930799	0.340664
674.134322	0.340858
674.337827	0.341152
674.541314	0.341205
674.744782	0.341228
674.948232	0.341737
675.151664	0.341802
675.355078	0.342250
675.558474	0.342401
675.761851	0.342863
675.965210	0.342738
676.168551	0.342992
676.371873	0.343317
676.575178	0.343637
676.778464	0.343819
676.981732	0.344196
677.184981	0.344415
677.388213	0.344626
677.591426	0.344751
677.794621	0.345365
677.997798	0.345727
678.200956	0.345819
678.404097	0.346163
678.607219	0.346557
678.810323	0.346659
679.013408	0.346896
679.216476	0.347134
679.419525	0.347434
679.622556	0.347522
679.825569	0.347727
680.028563	0.348020
680.231540	0.348122
680.434498	0.348232
680.637438	0.348569
680.840359	0.348802
681.043263	0.349088
681.246148	0.349213
681.449015	0.349202
681.651864	0.349398
681.854694	0.349653
682.057506	0.349812
682.260301	0.350258
682.463076	0.350351
682.665834	0.350715
682.868573	0.351158
683.071295	0.351393
683.273998	0.351907
683.476682	0.352164
683.679349	0.352215
683.881997	0.352707
684.084627	0.352810
684.287239	0.353081
684.489833	0.353354
684.692408	0.353351
684.894965	0.353469
685.097504	0.353751
685.300025	0.354151
685.502527	0.354557
685.705012	0.354710
685.907478	0.354998
686.109925	0.355277
686.312355	0.355395
686.514766	0.355707
686.717159	0.356281
686.919534	0.356417
687.121891	0.356483
687.324230	0.356639
687.526550	0.356889
687.728852	0.356689
687.931136	0.356824
688.133401	0.357008
688.335649	0.357082
688.537878	0.356792
688.740089	0.357025
688.942281	0.357240
689.144456	0.357478
689.346612	0.357666
689.548750	0.358373
689.750870	0.358755
689.952971	0.358869
690.155055	0.359137
690.357120	0.359552
690.559167	0.359512
690.761195	0.359709
690.963206	0.359875
691.165198	0.359944
691.367172	0.359679
691.569128	0.359603
691.771065	0.359740
691.972984	0.359529
692.174885	0.359479
692.376768	0.359901
692.578633	0.360086
692.780479	0.360134
692.982308	0.360294
693.184118	0.360677
693.385909	0.360835
693.587683	0.361512
693.789438	0.361922
693.991175	0.362440
694.192894	0.362444
694.394595	0.362903
694.596277	0.363087
694.797941	0.363638
694.999587	0.363605
695.201215	0.363945
695.402824	0.363670
695.604416	0.364017
695.805989	0.364114
696.007543	0.364147
696.209080	0.363879
696.410598	0.364344
696.612099	0.363946
696.813580	0.364291
697.015044	0.364388
697.216490	0.364555
697.417917	0.364648
697.619326	0.364655
697.820717	0.365000
698.022089	0.365284
698.223444	0.365471
698.424780	0.365646
698.626098	0.365895
698.827397	0.366180
699.028679	0.366479
699.229942	0.366531
699.431187	0.367031
699.632414	0.366974
699.833622	0.366940
700.034813	0.366973
700.235985	0.367351
700.437139	0.367572
700.638274	0.367402
700.839392	0.367395
701.040491	0.367675
701.241572	0.367659
701.442635	0.368223
701.643679	0.368412
701.844706	0.368690
702.045714	0.368733
702.246704	0.368555
702.447675	0.368938
702.648629	0.369238
702.849564	0.369012
703.050481	0.369291
703.251380	0.369187
703.452260	0.369349
703.653122	0.369218
703.853966	0.369295
704.054792	0.369525
704.255600	0.369531
704.456389	0.369475
704.657160	0.369799
704.857913	0.369645
705.058648	0.369781
705.259365	0.369776
705.460063	0.369603
705.660743	0.369611
705.861405	0.369649
706.062048	0.369779
706.262674	0.369874
706.463281	0.369704
706.663870	0.369471
706.864441	0.369521
707.064993	0.369584
707.265527	0.369981
707.466043	0.370063
707.666541	0.370221
707.867021	0.370430
708.067482	0.370548
708.267925	0.370730
708.468350	0.371328
708.668757	0.371572
708.869145	0.372080
709.069516	0.372203
709.269868	0.372475
709.470201	0.372579
709.670517	0.372548
709.870814	0.372830
710.071093	0.373160
710.271354	0.373092
710.471597	0.373164
710.671821	0.373089
710.872028	0.372843
711.072216	0.372898
711.272385	0.373085
711.472537	0.373060
711.672670	0.372815
711.872785	0.372910
712.072882	0.372812
712.272961	0.372515
712.473021	0.372228
712.673063	0.372701
712.873087	0.372633
713.073093	0.372456
713.273081	0.372326
713.473050	0.372347
713.673001	0.372140
713.872934	0.372205
714.072849	0.372624
714.272745	0.372959
714.472623	0.372823
714.672483	0.372882
714.872325	0.372835
715.072148	0.373036
715.271954	0.373244
715.471741	0.373238
715.671509	0.372832
715.871260	0.372608
716.070992	0.372413
716.270707	0.372247
716.470403	0.372176
716.670080	0.371974
716.869740	0.371939
717.069381	0.371785
717.269004	0.371675
717.468609	0.371991
717.668195	0.371953
717.867764	0.371748
718.067314	0.371742
718.266846	0.371908
718.466360	0.372110
718.665855	0.371928
718.865332	0.371969
719.064791	0.371842
719.264232	0.371394
719.463655	0.371335
719.663059	0.371361
719.862445	0.371080
720.061813	0.370911
720.261163	0.370747
720.460494	0.370741
720.659807	0.370517
720.859102	0.370619
721.058379	0.370868
721.257638	0.370393
721.456878	0.370229
721.656100	0.370020
721.855304	0.369779
722.054490	0.369734
722.253657	0.369587
722.452806	0.369380
722.651937	0.369289
722.851050	0.369362
723.050145	0.369462
723.249221	0.369423
723.448279	0.369802
723.647319	0.369749
723.846340	0.369677
724.045344	0.369800
724.244329	0.369998
724.443296	0.370116
724.642245	0.370081
724.841175	0.370054
725.040088	0.370147
725.238982	0.369899
725.437857	0.369988
725.636715	0.369876
725.835554	0.369703
726.034376	0.369466
726.233179	0.369364
726.431963	0.369174
726.630730	0.369249
726.829478	0.369111
727.028208	0.369143
727.226920	0.368832
727.425614	0.369034
727.624289	0.368875
727.822946	0.368697
728.021585	0.368391
728.220206	0.368326
728.418808	0.367882
728.617392	0.367688
728.815958	0.367350
729.014506	0.367413
729.213036	0.366946
729.411547	0.366877
729.610040	0.366889
729.808515	0.366892
730.006972	0.366576
730.205410	0.366533
730.403831	0.366442
730.602233	0.366296
730.800616	0.365843
730.998982	0.365890
731.197329	0.365670
731.395658	0.365558
731.593969	0.365385
731.792262	0.365223
731.990536	0.365228
732.188793	0.364821
732.387031	0.364776
732.585250	0.365004
732.783452	0.365044
732.981635	0.364812
733.179800	0.364545
733.377947	0.364318
733.576076	0.364135
733.774186	0.363896
733.972278	0.364184
734.170352	0.363930
734.368408	0.363552
734.566446	0.363164
734.764465	0.363064
734.962466	0.363058
735.160449	0.363066
735.358413	0.363021
735.556360	0.362950
735.754288	0.362442
735.952198	0.362359
736.150090	0.362084
736.347963	0.361920
736.545818	0.361962
736.743655	0.361602
736.941474	0.361285
737.139275	0.361455
737.337057	0.361480
737.534821	0.361535
737.732567	0.361232
737.930295	0.361178
738.128005	0.361314
738.325696	0.360710
738.523369	0.360651
738.721024	0.360290
738.918660	0.359795
739.116279	0.359497
739.313879	0.359445
739.511461	0.359590
739.709024	0.359413
739.906570	0.359083
740.104097	0.359248
740.301606	0.359082
740.499097	0.359254
740.696569	0.359155
740.894024	0.358736
741.091460	0.358221
741.288878	0.357820
741.486277	0.357572
741.683659	0.357358
741.881022	0.357034
742.078367	0.356670
742.275694	0.356192
742.473002	0.355789
742.670293	0.355614
742.867565	0.355505
743.064819	0.355292
743.262054	0.355158
743.459272	0.355032
743.656471	0.355035
743.853652	0.354828
744.050815	0.354613
744.247959	0.354678
744.445085	0.354385
744.642194	0.354347
744.839283	0.354053
745.036355	0.353688
745.233408	0.353194
745.430444	0.352956
745.627461	0.352619
745.824459	0.352419
746.021440	0.352024
746.218402	0.352065
746.415346	0.351833
746.612272	0.351890
746.809180	0.351860
747.006069	0.351544
747.202940	0.351217
747.399793	0.350778
747.596628	0.350603
747.793444	0.350371
747.990243	0.350033
748.187023	0.349625
748.383784	0.349133
748.580528	0.348897
748.777253	0.348942
748.973960	0.348483
749.170649	0.348760
749.367320	0.348609
749.563973	0.348389
749.760607	0.348117
749.957223	0.347818
750.153821	0.347770
750.350400	0.347481
750.546962	0.347017
750.743505	0.347091
750.940030	0.347099
751.136536	0.346771
751.333025	0.346666
751.529495	0.346437
751.725947	0.346756
751.922381	0.346603
752.118796	0.346738
752.315194	0.346903
752.511573	0.346845
752.707934	0.346325
752.904276	0.346038
753.100601	0.345629
753.296907	0.345431
753.493195	0.344608
753.689465	0.344248
753.885716	0.343955
754.081949	0.343455
754.278164	0.343025
754.474361	0.342727
754.670540	0.342568
754.866700	0.342684
755.062843	0.342647
755.258967	0.342710
755.455072	0.342754
755.651160	0.342539
755.847229	0.342479
756.043280	0.342448
756.239313	0.342266
756.435328	0.342371
756.631324	0.342109
756.827302	0.342007
757.023262	0.342078
757.219204	0.341858
757.415127	0.341582
757.611033	0.341315
757.806920	0.341108
758.002788	0.340686
758.198639	0.340398
758.394471	0.340300
758.590286	0.340005
758.786081	0.339776
758.981859	0.339318
759.177619	0.339039
759.373360	0.339057
759.569083	0.338738
759.764788	0.338783
759.960474	0.338681
760.156143	0.338304
760.351793	0.338094
760.547425	0.337941
760.743038	0.338075
760.938634	0.338226
761.134211	0.337960
761.329770	0.337870
761.525311	0.338056
761.720833	0.337737
761.916338	0.337699
762.111824	0.337717
762.307292	0.337418
762.502741	0.337169
762.698173	0.336749
762.893586	0.336659
763.088981	0.336470
763.284358	0.336160
763.479716	0.335945
763.675057	0.335700
763.870379	0.335512
764.065683	0.335484
764.260968	0.335293
764.456236	0.335216
764.651485	0.334830
764.846716	0.334622
765.041929	0.334441
765.237123	0.334414
765.432299	0.334282
765.627457	0.334027
765.822597	0.333535
766.017719	0.333573
766.212822	0.333515
766.407907	0.333481
766.602974	0.333512
766.798023	0.333524
766.993054	0.333598
767.188066	0.333683
767.383060	0.333430
767.578036	0.333662
767.772993	0.333313
767.967933	0.333085
768.162854	0.332830
768.357757	0.332889
768.552642	0.332663
768.747508	0.332354
768.942356	0.331942
769.137186	0.332099
769.331998	0.331758
769.526792	0.331998
769.721567	0.331990
769.916324	0.331803
770.111063	0.331349
770.305784	0.331058
770.500486	0.330801
770.695171	0.330839
770.889837	0.330500
771.084484	0.330595
771.279114	0.330237
771.473725	0.329920
771.668318	0.329918
771.862893	0.330097
772.057450	0.330240
772.251988	0.330317
772.446509	0.330292
772.641011	0.330295
772.835494	0.330074
773.029960	0.329810
773.224407	0.329722
773.418836	0.329765
773.613247	0.329516
773.807640	0.329214
774.002014	0.328795
774.196370	0.328525
774.390708	0.328359
774.585028	0.328135
774.779330	0.328331
774.973613	0.328543
775.167878	0.328482
775.362125	0.328522
775.556354	0.328723
775.750564	0.328915
775.944756	0.328753
776.138930	0.328824
776.333086	0.328776
776.527223	0.328905
776.721343	0.328443
776.915444	0.328465
777.109526	0.328341
777.303591	0.328080
777.497637	0.327989
777.691666	0.328167
777.885676	0.328001
778.079667	0.328083
778.273641	0.327770
778.467596	0.327961
778.661533	0.327838
778.855452	0.328009
779.049352	0.328053
779.243235	0.328094
779.437099	0.327946
779.630945	0.328104
779.824773	0.328066
780.018582	0.327909
780.212373	0.327806
780.406146	0.327792
780.599901	0.327404
780.793638	0.327224
780.987356	0.327444
781.181056	0.327605
781.374738	0.327533
781.568402	0.327531
781.762047	0.327631
781.955674	0.327832
782.149283	0.327631
782.342874	0.327817
782.536447	0.327956
782.730001	0.327658
782.923537	0.327793
783.117055	0.327953
783.310555	0.327963
783.504036	0.327927
783.697499	0.327921
783.890944	0.328105
784.084371	0.328214
784.277780	0.328233
784.471170	0.328480
784.664542	0.328390
784.857896	0.328116
785.051231	0.328030
785.244549	0.328221
785.437848	0.328234
785.631129	0.328003
785.824392	0.327699
786.017636	0.327777
786.210863	0.327413
786.404071	0.327374
786.597260	0.327611
786.790432	0.327584
786.983585	0.327412
787.176721	0.327266
787.369838	0.327502
787.562936	0.327547
787.756017	0.327598
787.949079	0.327869
788.142123	0.327943
788.335149	0.327810
788.528156	0.327579
788.721146	0.327710
788.914117	0.327669
789.107070	0.327439
789.300005	0.327605
789.492921	0.327389
789.685819	0.327347
789.878699	0.327039
790.071561	0.327101
790.264405	0.327637
790.457230	0.327878
790.650037	0.328220
790.842826	0.328491
791.035597	0.328693
791.228349	0.329211
791.421084	0.329310
791.613800	0.329786
791.806497	0.329606
791.999177	0.329765
792.191838	0.329545
792.384481	0.329650
792.577106	0.329730
792.769713	0.329186
792.962301	0.328856
793.154871	0.329052
793.347423	0.328948
793.539957	0.329398
793.732473	0.329286
793.924970	0.329408
794.117449	0.329450
794.309910	0.329748
794.502353	0.330105
794.694777	0.330765
794.887183	0.331047
795.079571	0.331023
795.271941	0.331172
795.464293	0.331532
795.656626	0.331726
795.848941	0.331737
796.041238	0.331792
796.233516	0.332282
796.425777	0.332209
796.618019	0.332303
796.810243	0.332662
797.002449	0.332724
797.194636	0.332600
797.386805	0.332865
797.578956	0.332786
797.771089	0.332997
797.963204	0.332826
798.155300	0.332635
798.347378	0.332636
798.539438	0.332693
798.731480	0.332843
798.923503	0.333260
799.115509	0.333156
799.307496	0.333412
799.499465	0.333549
799.691415	0.333942
799.883348	0.334419
800.075262	0.334828
800.267158	0.334925
800.459035	0.334808
800.650895	0.334884
800.842736	0.334987
801.034559	0.335236
801.226364	0.335414
801.418150	0.335500
801.609919	0.335615
801.801669	0.335586
801.993401	0.335984
802.185114	0.336412
802.376810	0.336538
802.568487	0.336851
802.760146	0.337113
802.951787	0.337124
803.143409	0.337591
803.335014	0.337894
803.526600	0.338306
803.718168	0.338296
803.909717	0.338715
804.101249	0.338954
804.292762	0.339279
804.484257	0.339398
804.675734	0.339605
804.867192	0.339610
805.058632	0.339842
805.250054	0.339979
805.441458	0.340305
805.632844	0.340159
805.824211	0.340336
806.015561	0.340776
806.206891	0.341211
806.398204	0.341964
806.589499	0.342095
806.780775	0.342086
806.972033	0.341834
807.163273	0.342094
807.354495	0.342174
807.545698	0.342283
807.736883	0.342078
807.928050	0.342080
808.119199	0.341632
808.310329	0.341761
808.501441	0.341984
808.692535	0.342596
808.883611	0.342752
809.074669	0.343075
809.265708	0.343429
809.456729	0.343866
809.647732	0.343963
809.838717	0.344374
810.029683	0.344821
810.220632	0.344863
810.411562	0.345190
810.602474	0.345365
810.793367	0.345824
810.984242	0.346055
811.175100	0.346180
811.365938	0.346709
811.556759	0.347306
811.747562	0.347508
811.938346	0.348283
812.129112	0.348484
812.319860	0.348914
812.510589	0.349185
812.701300	0.349638
812.891994	0.349985
813.082668	0.350201
813.273325	0.350283
813.463964	0.350402
813.654584	0.350199
813.845186	0.350584
814.035769	0.350845
814.226335	0.350985
814.416882	0.351270
814.607411	0.351718
814.797922	0.352257
814.988415	0.352799
815.178889	0.353408
815.369345	0.354014
815.559783	0.354466
815.750203	0.354948
815.940605	0.355537
816.130988	0.355953
816.321353	0.356306
816.511700	0.356638
816.702028	0.357232
816.892339	0.357811
817.082631	0.358186
817.272905	0.358485
817.463161	0.358708
817.653398	0.358823
817.843617	0.359121
818.033819	0.359387
818.224001	0.359843
818.414166	0.359813
818.604312	0.359922
818.794440	0.360141
818.984550	0.360109
819.174642	0.360382
819.364716	0.360959
819.554771	0.361000
819.744808	0.361162
819.934827	0.361097
820.124827	0.361515
820.314810	0.361617
820.504774	0.361917
820.694720	0.362439
820.884647	0.362754
821.074557	0.362786
821.264448	0.363330
821.454321	0.363589
821.644176	0.364212
821.834012	0.364584
822.023831	0.364911
822.213631	0.365176
822.403413	0.365222
822.593176	0.365698
822.782922	0.366357
822.972649	0.366736
823.162358	0.367181
823.352049	0.366980
823.541721	0.366900
823.731376	0.367686
823.921012	0.367923
824.110629	0.368171
824.300229	0.368491
824.489811	0.368404
824.679374	0.368631
824.868919	0.369252
825.058445	0.369894
825.247954	0.370549
825.437444	0.370502
825.626916	0.370932
825.816370	0.371692
826.005806	0.372231
826.195223	0.372944
826.384622	0.373025
826.574003	0.373344
826.763366	0.373807
826.952711	0.373956
827.142037	0.374505
827.331345	0.375108
827.520635	0.375426
827.709906	0.375573
827.899160	0.376299
828.088395	0.376780
828.277612	0.377131
828.466810	0.377468
828.655991	0.377988
828.845153	0.378457
829.034297	0.378663
829.223423	0.379370
829.412531	0.379547
829.601620	0.379669
829.790691	0.380543
829.979744	0.380678
830.168779	0.381324
830.357795	0.381842
830.546793	0.382176
830.735773	0.382605
830.924735	0.382701
831.113679	0.383358
831.302604	0.383696
831.491511	0.383832
831.680400	0.384530
831.869271	0.384755
832.058123	0.384926
832.246957	0.385350
832.435773	0.385663
832.624571	0.386057
832.813351	0.386638
833.002112	0.387025
833.190855	0.387379
833.379580	0.387624
833.568287	0.387868
833.756975	0.388335
833.945645	0.388624
834.134297	0.389369
834.322931	0.389766
834.511547	0.389934
834.700144	0.390670
834.888723	0.391172
835.077284	0.391919
835.265826	0.392728
835.454351	0.393361
835.642857	0.394257
835.831345	0.394816
836.019815	0.395563
836.208266	0.395930
836.396699	0.396213
836.585114	0.396672
836.773511	0.396881
836.961890	0.396846
837.150250	0.396807
837.338592	0.397043
837.526916	0.397355
837.715222	0.397754
837.903510	0.398229
838.091779	0.398475
838.280030	0.399102
838.468263	0.399465
838.656477	0.400335
838.844674	0.401229
839.032852	0.401602
839.221012	0.401955
839.409153	0.402114
839.597277	0.403149
839.785382	0.403924
839.973469	0.404381
840.161538	0.405386
840.349589	0.405481
840.537621	0.405836
840.725635	0.406400
840.913631	0.407024
841.101609	0.407880
841.289568	0.408232
841.477509	0.408507
841.665432	0.409083
841.853337	0.409309
842.041224	0.409608
842.229092	0.410395
842.416942	0.410693
842.604774	0.411243
842.792588	0.411711
842.980383	0.411780
843.168160	0.412218
843.355919	0.412633
843.543660	0.413061
843.731382	0.414262
843.919087	0.414343
844.106773	0.414803
844.294441	0.415470
844.482090	0.415544
844.669722	0.416070
844.857335	0.416670
845.044930	0.416780
845.232507	0.416815
845.420065	0.416548
845.607605	0.417228
845.795127	0.417598
845.982631	0.417743
846.170117	0.418163
846.357584	0.418530
846.545033	0.418974
846.732464	0.419784
846.919877	0.420596
847.107272	0.421888
847.294648	0.422430
847.482006	0.422953
847.669346	0.423400
847.856667	0.423887
848.043971	0.424097
848.231256	0.424477
848.418523	0.424981
848.605771	0.425386
848.793002	0.425611
848.980214	0.426126
849.167408	0.426721
849.354584	0.427644
849.541742	0.428347
849.728881	0.429258
849.916002	0.429841
850.103105	0.430237
850.290190	0.430779
850.477256	0.431230
850.664304	0.431792
850.851334	0.432361
851.038346	0.432141
851.225340	0.432638
851.412315	0.432879
851.599272	0.433385
851.786211	0.433677
851.973132	0.434029
852.160034	0.434343
852.346918	0.434972
852.533784	0.435418
852.720632	0.436284
852.907462	0.436557
853.094273	0.437076
853.281066	0.437452
853.467841	0.437982
853.654598	0.438551
853.841336	0.439015
854.028056	0.439210
854.214758	0.439484
854.401442	0.439907
854.588107	0.440526
854.774755	0.441267
854.961384	0.441612
855.147995	0.442190
855.334587	0.442738
855.521162	0.443192
855.707718	0.443132
855.894256	0.443960
856.080775	0.444481
856.267277	0.444328
856.453760	0.444712
856.640225	0.445407
856.826672	0.444917
857.013101	0.445119
857.199511	0.445268
857.385903	0.445773
857.572277	0.445795
857.758633	0.445670
857.944970	0.446313
858.131290	0.446616
858.317591	0.447083
858.503873	0.447777
858.690138	0.448444
858.876384	0.448914
859.062612	0.449742
859.248822	0.450044
859.435014	0.450788
859.621188	0.451755
859.807343	0.451697
859.993480	0.451827
860.179599	0.452713
860.365699	0.452866
860.551781	0.453259
860.737846	0.453517
860.923891	0.453878
861.109919	0.454364
861.295929	0.454312
861.481920	0.455313
861.667893	0.456117
861.853848	0.456236
862.039784	0.456481
862.225702	0.457187
862.411603	0.458056
862.597484	0.458685
862.783348	0.458753
862.969193	0.459386
863.155021	0.459714
863.340830	0.460020
863.526620	0.460862
863.712393	0.461550
863.898147	0.461731
864.083883	0.461416
864.269601	0.461670
864.455301	0.462107
864.640982	0.462544
864.826645	0.462911
865.012290	0.462640
865.197917	0.463154
865.383526	0.463750
865.569116	0.464182
865.754688	0.464641
865.940242	0.464793
866.125777	0.465350
866.311295	0.465756
866.496794	0.466350
866.682275	0.467227
866.867737	0.467559
867.053182	0.467639
867.238608	0.468104
867.424016	0.468676
867.609406	0.469419
867.794778	0.469746
867.980131	0.469879
868.165466	0.469905
868.350783	0.470086
868.536082	0.470035
868.721362	0.469926
868.906625	0.470009
869.091869	0.470497
869.277094	0.470915
869.462302	0.471395
869.647491	0.472010
869.832662	0.472499
870.017815	0.472806
870.202950	0.473200
870.388066	0.473630
870.573165	0.474222
870.758245	0.474352
870.943306	0.474221
871.128350	0.474340
871.313375	0.474207
871.498382	0.474661
871.683371	0.474898
871.868342	0.475264
872.053294	0.475582
872.238229	0.475900
872.423144	0.476166
872.608042	0.476937
872.792922	0.477205
872.977783	0.477199
873.162626	0.477545
873.347451	0.477671
873.532258	0.477985
873.717046	0.478296
873.901816	0.478218
874.086568	0.478152
874.271302	0.478070
874.456017	0.478089
874.640715	0.478874
874.825394	0.478679
875.010055	0.479304
875.194697	0.479421
875.379322	0.480100
875.563928	0.480518
875.748516	0.480719
875.933085	0.481717
876.117637	0.482476
876.302170	0.482818
876.486685	0.483017
876.671182	0.482861
876.855661	0.482522
877.040121	0.482350
877.224563	0.482635
877.408987	0.482853
877.593393	0.482220
877.777780	0.482062
877.962150	0.481924
878.146501	0.481620
878.330833	0.482021
878.515148	0.482754
878.699444	0.483239
878.883722	0.483294
879.067982	0.484144
879.252224	0.484943
879.436447	0.485082
879.620653	0.485326
879.804840	0.486471
879.989008	0.486706
880.173159	0.486269
880.357291	0.486039
880.541405	0.486135
880.725501	0.485696
880.909579	0.485098
881.093638	0.485466
881.277680	0.485057
881.461703	0.484937
881.645707	0.484784
881.829694	0.485509
882.013662	0.486009
882.197612	0.486420
882.381544	0.486410
882.565458	0.486934
882.749353	0.487000
882.933230	0.487779
883.117089	0.487737
883.300930	0.487701
883.484753	0.487568
883.668557	0.487587
883.852343	0.487533
884.036111	0.488138
884.219861	0.488006
884.403592	0.488306
884.587305	0.488290
884.771000	0.488577
884.954677	0.488896
885.138335	0.489411
885.321976	0.489652
885.505598	0.489307
885.689201	0.489126
885.872787	0.488664
886.056354	0.488193
886.239904	0.488358
886.423434	0.487788
886.606947	0.487813
886.790442	0.487633
886.973918	0.487745
887.157376	0.487933
887.340816	0.488048
887.524237	0.488557
887.707641	0.488856
887.891026	0.488636
888.074393	0.488997
888.257741	0.489173
888.441072	0.489009
888.624384	0.488405
888.807678	0.488782
888.990954	0.488693
889.174211	0.488529
889.357451	0.488698
889.540672	0.488642
889.723875	0.488376
889.907059	0.488249
890.090226	0.488174
890.273374	0.488386
890.456504	0.488184
890.639616	0.488162
890.822709	0.488599
891.005785	0.488100
891.188842	0.488323
891.371881	0.488716
891.554901	0.488422
891.737904	0.488389
891.920888	0.487982
892.103854	0.487959
892.286802	0.487253
892.469731	0.486621
892.652643	0.486764
892.835536	0.486404
893.018410	0.486161
893.201267	0.486058
893.384106	0.486545
893.566926	0.486723
893.749728	0.486857
893.932511	0.487278
894.115277	0.487400
894.298024	0.487452
894.480753	0.487400
894.663464	0.487012
894.846157	0.487020
895.028831	0.486274
895.211487	0.486226
895.394125	0.485600
895.576745	0.485391
895.759346	0.485383
895.941930	0.485103
896.124495	0.485421
896.307041	0.485050
896.489570	0.485128
896.672080	0.485041
896.854573	0.484592
897.037046	0.484667
897.219502	0.484843
897.401940	0.484018
897.584359	0.483657
897.766760	0.482975
897.949143	0.482721
898.131507	0.481959
898.313854	0.481787
898.496182	0.482070
898.678492	0.482101
898.860783	0.481169
899.043057	0.480710
899.225312	0.480865
899.407549	0.480746
899.589768	0.480984
899.771968	0.480790
899.954151	0.480220
900.136315	0.479744
900.318461	0.478835
900.500588	0.479070
900.682698	0.479409
900.864789	0.478040
901.046862	0.477688
901.228917	0.477374
901.410953	0.476960
901.592971	0.476759
901.774972	0.476123
901.956953	0.475535
902.138917	0.474868
902.320862	0.474551
902.502790	0.474926
902.684699	0.474268
902.866589	0.473832
903.048462	0.473434
903.230316	0.473004
903.412152	0.472437
903.593970	0.472491
903.775770	0.471651
903.957551	0.471115
904.139314	0.470012
904.321059	0.470158
904.502786	0.469777
904.684494	0.469476
904.866185	0.468846
905.047857	0.468336
905.229510	0.467953
905.411146	0.468425
905.592763	0.467889
905.774363	0.467878
905.955943	0.466764
906.137506	0.466671
906.319051	0.466456
906.500577	0.466473
906.682085	0.467119
906.863575	0.466908
907.045046	0.465979
907.226500	0.465734
907.407935	0.465409
907.589352	0.465362
907.770750	0.464719
907.952131	0.464177
908.133493	0.463845
908.314837	0.462496
908.496163	0.461394
908.677470	0.460504
908.858760	0.459953
909.040031	0.459243
909.221284	0.458633
909.402518	0.458180
909.583735	0.457599
909.764933	0.456707
909.946113	0.456424
910.127275	0.456291
910.308418	0.455989
910.489544	0.455587
910.670651	0.454767
910.851740	0.454451
911.032810	0.453409
911.213863	0.453398
911.394897	0.453018
911.575913	0.452257
911.756911	0.451906
911.937890	0.451232
912.118851	0.450756
912.299794	0.450775
912.480719	0.450221
912.661626	0.450036
912.842514	0.448767
913.023384	0.448023
913.204236	0.447565
913.385070	0.446740
913.565886	0.446312
913.746683	0.445571
913.927462	0.444793
914.108223	0.443628
914.288965	0.442901
914.469690	0.442729
914.650396	0.441848
914.831084	0.441469
915.011754	0.441060
915.192405	0.441092
915.373038	0.440143
915.553653	0.439986
915.734250	0.439017
915.914829	0.437863
916.095389	0.436702
916.275931	0.436135
916.456455	0.435061
916.636961	0.434133
916.817448	0.432445
916.997917	0.432041
917.178368	0.430995
917.358801	0.430268
917.539216	0.430188
917.719612	0.429814
917.899990	0.429551
918.080350	0.429213
918.260692	0.427989
918.441015	0.427653
918.621320	0.426247
918.801607	0.425185
918.981876	0.424852
919.162127	0.423233
919.342359	0.422509
919.522573	0.421802
919.702769	0.421078
919.882947	0.420564
920.063106	0.419142
920.243247	0.418964
920.423370	0.418255
920.603475	0.417614
920.783562	0.417143
920.963630	0.416105
921.143680	0.414778
921.323712	0.413195
921.503725	0.412700
921.683721	0.412621
921.863698	0.411598
922.043657	0.410858
922.223598	0.409599
922.403520	0.408841
922.583424	0.407858
922.763311	0.406954
922.943178	0.406487
923.123028	0.405485
923.302859	0.404552
923.482673	0.403624
923.662467	0.402713
923.842244	0.401957
924.022003	0.400762
924.201743	0.400451
924.381465	0.399711
924.561169	0.398885
924.740854	0.397953
924.920522	0.397033
925.100171	0.395956
925.279802	0.394842
925.459414	0.393885
925.639009	0.393996
925.818585	0.392960
925.998143	0.392417
926.177683	0.391153
926.357205	0.389948
926.536708	0.389296
926.716193	0.389028
926.895660	0.388204
927.075109	0.387080
927.254539	0.384897
927.433951	0.383662
927.613345	0.381590
927.792721	0.380729
927.972079	0.380231
928.151418	0.378420
928.330739	0.376776
928.510042	0.375835
928.689327	0.374505
928.868593	0.374324
929.047841	0.373526
929.227071	0.373540
929.406283	0.371908
929.585476	0.369980
929.764652	0.368623
929.943809	0.367621
930.122948	0.366538
930.302068	0.366495
930.481171	0.365258
930.660255	0.362853
930.839321	0.361189
931.018369	0.360291
931.197398	0.359653
931.376409	0.359464
931.555402	0.358402
931.734377	0.356798
931.913334	0.355089
932.092272	0.353799
932.271192	0.354037
932.450094	0.352888
932.628978	0.353432
932.807844	0.352005
932.986691	0.350121
933.165520	0.349635
933.344331	0.348299
933.523123	0.347341
933.701898	0.346899
933.880654	0.345537
934.059392	0.344628
934.238111	0.342030
934.416813	0.341753
934.595496	0.341886
934.774161	0.341087
934.952808	0.340140
935.131437	0.338881
935.310047	0.336348
935.488639	0.335649
935.667213	0.334816
935.845769	0.334339
936.024306	0.333562
936.202825	0.332166
936.381326	0.330330
936.559809	0.329648
936.738274	0.329087
936.916720	0.328765
937.095148	0.327465
937.273558	0.325966
937.451950	0.323979
937.630323	0.321858
937.808678	0.320955
937.987015	0.320110
938.165334	0.319944
938.343635	0.318950
938.521917	0.318369
938.700181	0.317160
938.878427	0.316496
939.056655	0.316134
939.234864	0.315970
939.413055	0.313796
939.591228	0.312583
939.769383	0.311091
939.947519	0.309310
940.125638	0.308038
940.303738	0.307192
940.481820	0.304743
940.659883	0.302254
940.837929	0.299873
941.015956	0.298990
941.193965	0.297966
941.371955	0.295270
941.549928	0.295101
941.727882	0.294240
941.905818	0.292082
942.083736	0.291315
942.261636	0.291268
942.439517	0.290187
942.617380	0.289200
942.795225	0.287756
942.973052	0.287384
943.150860	0.284664
943.328651	0.282149
943.506423	0.280137
943.684176	0.279284
943.861912	0.278985
944.039629	0.277186
944.217328	0.276368
944.395009	0.274362
944.572672	0.273035
944.750317	0.271290
944.927943	0.271044
945.105551	0.271305
945.283141	0.270176
945.460712	0.268000
945.638265	0.266934
945.815801	0.265373
945.993317	0.263417
946.170816	0.262886
946.348297	0.262623
946.525759	0.260226
946.703203	0.258523
946.880629	0.256875
947.058036	0.255309
947.235425	0.253970
947.412797	0.251951
947.590149	0.251642
947.767484	0.250525
947.944800	0.249830
948.122099	0.248415
948.299379	0.247269
948.476640	0.245804
948.653884	0.244055
948.831109	0.243143
949.008316	0.240536
949.185505	0.239090
949.362676	0.236179
949.539828	0.233909
949.716962	0.233684
949.894078	0.230768
950.071176	0.230666
950.248256	0.228410
950.425317	0.228914
950.602360	0.227550
950.779385	0.226929
950.956391	0.225178
951.133380	0.224383
951.310350	0.223434
951.487302	0.224084
951.664235	0.221655
951.841151	0.222972
952.018048	0.221015
952.194927	0.221453
952.371788	0.221068
952.548631	0.221434
952.725455	0.218600
952.902261	0.216557
953.079049	0.215778
953.255819	0.214716
953.432570	0.212121
953.609303	0.208946
953.786018	0.208247
953.962715	0.205273
954.139394	0.205819
954.316054	0.206985
954.492696	0.205898
954.669320	0.203877
954.845926	0.203644
955.022513	0.202916
955.199083	0.200555
955.375634	0.199074
955.552166	0.197977
955.728681	0.193974
955.905177	0.189952
956.081655	0.188855
956.258115	0.187077
956.434557	0.185426
956.610980	0.185219
956.787385	0.185882
956.963772	0.185352
957.140141	0.185907
957.316492	0.184909
957.492824	0.184304
957.669138	0.183541
957.845434	0.184063
958.021712	0.182642
958.197971	0.182548
958.374212	0.182712
958.550435	0.181680
958.726640	0.179364
958.902826	0.177601
959.078995	0.178202
959.255145	0.176865
959.431277	0.175644
959.607390	0.174479
959.783486	0.173479
959.959563	0.173368
960.135622	0.170822
960.311662	0.170691
960.487685	0.170134
960.663689	0.170930
960.839675	0.169734
961.015643	0.169895
961.191593	0.170442
961.367524	0.168463
961.543437	0.163849
961.719332	0.163999
961.895209	0.163997
962.071067	0.166004
962.246907	0.162901
962.422730	0.162255
962.598533	0.159477
962.774319	0.158836
962.950086	0.158231
963.125835	0.160363
963.301566	0.159793
963.477279	0.158725
963.652973	0.158823
963.828650	0.157945
964.004308	0.158616
964.179947	0.159058
964.355569	0.158847
964.531172	0.159419
964.706757	0.160022
964.882324	0.161835
965.057873	0.161050
965.233403	0.158714
965.408916	0.161895
965.584410	0.161623
965.759885	0.159530
965.935343	0.157332
966.110782	0.158535
966.286203	0.156795
966.461606	0.156183
966.636991	0.158398
966.812357	0.157725
966.987705	0.154343
967.163035	0.155004
967.338347	0.156301
967.513641	0.157615
967.688916	0.155250
967.864173	0.157400
968.039412	0.156304
968.214632	0.155455
968.389835	0.155650
968.565019	0.156036
968.740185	0.155145
968.915333	0.155466
969.090462	0.156586
969.265573	0.155718
969.440667	0.154245
969.615741	0.156037
969.790798	0.155396
969.965836	0.157008
970.140856	0.158633
970.315858	0.158289
970.490842	0.157526
970.665808	0.156662
970.840755	0.157706
971.015684	0.157352
971.190595	0.154259
971.365487	0.155229
971.540362	0.157045
971.715218	0.155020
971.890056	0.152435
972.064875	0.152721
972.239677	0.150108
972.414460	0.150829
972.589225	0.149435
972.763972	0.152095
972.938700	0.150208
973.113411	0.147768
973.288103	0.149789
973.462777	0.151279
973.637432	0.151509
973.812070	0.152202
973.986689	0.150040
974.161290	0.151575
974.335873	0.151315
974.510437	0.153064
974.684984	0.152032
974.859512	0.152683
975.034022	0.153103
975.208513	0.153931
975.382987	0.155681
975.557442	0.154441
975.731879	0.153838
975.906298	0.153378
976.080698	0.152413
976.255080	0.153107
976.429445	0.152063
976.603790	0.151268
976.778118	0.150360
976.952427	0.148748
977.126719	0.151237
977.300992	0.152084
977.475246	0.151614
977.649483	0.152691
977.823701	0.153814
977.997901	0.152316
978.172083	0.154178
978.346247	0.153827
978.520392	0.156321
978.694519	0.156048
978.868628	0.157117
979.042719	0.158548
979.216791	0.156913
979.390845	0.156580
979.564882	0.157146
979.738899	0.155607
979.912899	0.156756
980.086880	0.155808
980.260843	0.155132
980.434788	0.153715
980.608715	0.152196
980.782623	0.151173
980.956514	0.150051
981.130386	0.150178
981.304240	0.150089
981.478075	0.147417
981.651892	0.147104
981.825692	0.148834
981.999472	0.147721
982.173235	0.146992
982.346980	0.148188
982.520706	0.151033
982.694414	0.152503
982.868104	0.153942
983.041775	0.160103
983.215428	0.159948
983.389064	0.159391
983.562680	0.161108
983.736279	0.162345
983.909860	0.163351
984.083422	0.160730
984.256966	0.160740
984.430491	0.158714
984.603999	0.154978
984.777488	0.154149
984.950959	0.152894
985.124412	0.151153
985.297847	0.150652
985.471263	0.148234
985.644661	0.149918
985.818041	0.148488
985.991403	0.149582
986.164747	0.149533
986.338072	0.149634
986.511379	0.151504
986.684668	0.151516
986.857938	0.150177
987.031191	0.151662
987.204425	0.150653
987.377641	0.150308
987.550839	0.150030
987.724018	0.151080
987.897179	0.153027
988.070322	0.152175
988.243447	0.152424
988.416554	0.155539
988.589642	0.156116
988.762712	0.156153
988.935764	0.157066
989.108798	0.158682
989.281813	0.158364
989.454811	0.156482
989.627790	0.156032
989.800751	0.155883
989.973693	0.153059
990.146617	0.152676
990.319524	0.150922
990.492412	0.149985
990.665281	0.148598
990.838133	0.146052
991.010966	0.147378
991.183781	0.147655
991.356578	0.147824
991.529356	0.150703
991.702117	0.151352
991.874859	0.154526
992.047583	0.157400
992.220288	0.156316
992.392976	0.158288
992.565645	0.156850
992.738296	0.156994
992.910929	0.158653
993.083543	0.158217
993.256139	0.156932
993.428718	0.155010
993.601277	0.154132
993.773819	0.156380
993.946342	0.156312
994.118848	0.156306
994.291335	0.156270
994.463803	0.154652
994.636254	0.151607
994.808686	0.152516
994.981100	0.151794
995.153496	0.151213
995.325874	0.149064
995.498233	0.147758
995.670574	0.149107
995.842897	0.148003
996.015202	0.149155
996.187488	0.152439
996.359757	0.151419
996.532007	0.152482
996.704239	0.152930
996.876452	0.154382
997.048648	0.156684
997.220825	0.154267
997.392984	0.155788
997.565124	0.155656
997.737247	0.152959
997.909351	0.151512
998.081437	0.151876
998.253505	0.150649
998.425554	0.148822
998.597586	0.146766
998.769599	0.149681
998.941594	0.147780
999.113571	0.147573
999.285529	0.148898
999.457469	0.151824
999.629391	0.148639
999.801295	0.148826
999.973181	0.149914
1000.145048	0.150921
1000.316897	0.150529
1000.488728	0.151415
1000.660541	0.153088
1000.832335	0.151954
1001.004111	0.152388
1001.175869	0.155774
1001.347609	0.155851
1001.519331	0.158682
1001.691034	0.158083
1001.862719	0.157648
1002.034386	0.158366
1002.206035	0.155598
1002.377665	0.156351
1002.549277	0.155406
1002.720871	0.155941
1002.892447	0.156702
1003.064004	0.153817
1003.235544	0.153497
1003.407065	0.152997
1003.578568	0.151336
1003.750052	0.151404
1003.921519	0.152109
1004.092967	0.151033
1004.264397	0.149908
1004.435809	0.149069
1004.607202	0.149081
1004.778577	0.149207
1004.949934	0.149316
1005.121273	0.151341
1005.292594	0.152895
1005.463896	0.150800
1005.635180	0.150202
1005.806446	0.150023
1005.977694	0.150454
1006.148923	0.150264
1006.320135	0.150219
1006.491328	0.150401
1006.662503	0.149286
1006.833659	0.148370
1007.004798	0.149452
1007.175918	0.148093
1007.347020	0.146894
1007.518103	0.147791
1007.689169	0.149673
1007.860216	0.150670
1008.031245	0.150706
1008.202256	0.152771
1008.373248	0.153727
1008.544223	0.154235
1008.715179	0.157005
1008.886117	0.157009
1009.057036	0.155251
1009.227938	0.153961
1009.398821	0.152157
1009.569686	0.152135
1009.740533	0.150462
1009.911361	0.150138
1010.082172	0.150153
1010.252964	0.149713
1010.423738	0.151201
1010.594493	0.150397
1010.765231	0.150975
1010.935950	0.151332
1011.106651	0.150065
1011.277334	0.150787
1011.447998	0.149597
1011.618645	0.148469
1011.789273	0.149655
1011.959882	0.149195
1012.130474	0.149095
1012.301048	0.150050
1012.471603	0.153015
1012.642140	0.153209
1012.812658	0.153546
1012.983159	0.154288
1013.153641	0.157046
1013.324105	0.156304
1013.494551	0.157049
1013.664979	0.158337
1013.835388	0.157155
1014.005779	0.155663
1014.176152	0.155551
1014.346507	0.154710
1014.516843	0.156027
1014.687162	0.155358
1014.857462	0.153273
1015.027744	0.152488
1015.198007	0.152445
1015.368252	0.152875
1015.538480	0.150645
1015.708689	0.151089
1015.878879	0.152348
1016.049052	0.151104
1016.219206	0.150282
1016.389342	0.150338
1016.559460	0.150492
1016.729559	0.150253
1016.899641	0.149616
1017.069704	0.151673
1017.239749	0.152686
1017.409775	0.150720
1017.579784	0.150254
1017.749774	0.149253
1017.919746	0.150731
1018.089700	0.149939
1018.259635	0.148538
1018.429553	0.150156
1018.599452	0.150109
1018.769333	0.149321
1018.939195	0.149886
1019.109040	0.149380
1019.278866	0.150255
1019.448674	0.149954
1019.618464	0.149548
1019.788235	0.151776
1019.957989	0.151039
1020.127724	0.149603
1020.297441	0.149649
1020.467139	0.149886
1020.636820	0.151048
1020.806482	0.151174
1020.976126	0.150509
1021.145752	0.152149
1021.315359	0.152375
1021.484948	0.150820
1021.654519	0.152334
1021.824072	0.152273
1021.993607	0.151956
1022.163123	0.152585
1022.332621	0.152074
1022.502101	0.153130
1022.671563	0.152898
1022.841007	0.151790
1023.010432	0.152265
1023.179839	0.151297
1023.349228	0.151005
1023.518598	0.151798
1023.687951	0.150326
1023.857285	0.150863
1024.026601	0.149544
1024.195899	0.150355
1024.365178	0.150174
1024.534439	0.148071
1024.703682	0.147811
1024.872907	0.148956
1025.042114	0.147274
1025.211302	0.148756
1025.380472	0.147773
1025.549624	0.150741
1025.718758	0.149185
1025.887873	0.150191
1026.056970	0.151861
1026.226049	0.151331
1026.395110	0.151474
1026.564153	0.153104
1026.733177	0.152426
1026.902183	0.153621
1027.071171	0.151788
1027.240141	0.152912
1027.409092	0.153051
1027.578026	0.153589
1027.746940	0.156157
1027.915837	0.154519
1028.084716	0.154880
1028.253576	0.153707
1028.422418	0.152433
1028.591242	0.151923
1028.760048	0.151090
1028.928835	0.149894
1029.097604	0.150218
1029.266355	0.149581
1029.435088	0.149941
1029.603803	0.148598
1029.772499	0.151184
1029.941177	0.153233
1030.109837	0.153354
1030.278478	0.153238
1030.447102	0.153140
1030.615707	0.151813
1030.784294	0.152520
1030.952863	0.153983
1031.121413	0.153526
1031.289945	0.151929
1031.458460	0.149120
1031.626955	0.149932
1031.795433	0.150447
1031.963892	0.151710
1032.132334	0.152869
1032.300756	0.152981
1032.469161	0.151434
1032.637548	0.151489
1032.805916	0.150010
1032.974266	0.150006
1033.142598	0.149629
1033.310911	0.149389
1033.479207	0.148708
1033.647484	0.145928
1033.815743	0.143972
1033.983983	0.146153
1034.152206	0.146338
1034.320410	0.150155
1034.488596	0.151746
1034.656764	0.152318
1034.824914	0.153771
1034.993045	0.152841
1035.161158	0.155201
1035.329253	0.155041
1035.497330	0.153564
1035.665388	0.155827
1035.833428	0.153804
1036.001450	0.154406
1036.169454	0.153152
1036.337440	0.152645
1036.505407	0.154555
1036.673356	0.155030
1036.841287	0.155961
1037.009200	0.156427
1037.177094	0.154815
1037.344970	0.154656
1037.512828	0.154303
1037.680668	0.155075
1037.848489	0.153505
1038.016293	0.152408
1038.184078	0.151993
1038.351845	0.151595
1038.519593	0.151904
1038.687324	0.149467
1038.855036	0.147504
1039.022730	0.147092
1039.190406	0.146292
1039.358063	0.146022
1039.525702	0.146369
1039.693323	0.146512
1039.860926	0.147945
1040.028511	0.146491
1040.196077	0.148257
1040.363625	0.149314
1040.531155	0.149357
1040.698667	0.152200
1040.866161	0.152847
1041.033636	0.152996
1041.201093	0.152811
1041.368532	0.151740
1041.535952	0.152639
1041.703355	0.152076
1041.870739	0.151629
1042.038105	0.152114
1042.205452	0.152058
1042.372782	0.152249
1042.540093	0.150481
1042.707386	0.150141
1042.874661	0.150304
1043.041918	0.150400
1043.209156	0.152210
1043.376376	0.153299
1043.543578	0.153209
1043.710762	0.149834
1043.877927	0.148316
1044.045074	0.147045
1044.212203	0.147958
1044.379314	0.147460
1044.546407	0.147943
1044.713481	0.145162
1044.880537	0.144550
1045.047575	0.142871
1045.214595	0.143952
1045.381596	0.144337
1045.548579	0.146549
1045.715544	0.147643
1045.882491	0.147036
1046.049420	0.146190
1046.216330	0.147496
1046.383222	0.149341
1046.550096	0.151044
1046.716951	0.151124
1046.883789	0.151205
1047.050608	0.152254
1047.217409	0.151956
1047.384192	0.152668
1047.550956	0.152619
1047.717703	0.154678
1047.884431	0.154090
1048.051140	0.155005
1048.217832	0.155324
1048.384505	0.157573
1048.551161	0.156149
1048.717798	0.154679
1048.884416	0.156066
1049.051017	0.154637
1049.217599	0.152237
1049.384163	0.151619
1049.550709	0.152558
1049.717237	0.151556
1049.883746	0.150804
1050.050237	0.150727
1050.216710	0.149217
1050.383165	0.147350
1050.549601	0.149891
1050.716019	0.149579
1050.882420	0.150904
1051.048801	0.149626
1051.215165	0.153229
1051.381510	0.151850
1051.547837	0.151821
1051.714146	0.152963
1051.880437	0.153282
1052.046709	0.150303
1052.212964	0.152725
1052.379200	0.150846
1052.545417	0.150664
1052.711617	0.146959
1052.877798	0.147204
1053.043961	0.149018
1053.210106	0.149487
1053.376233	0.150684
1053.542341	0.153019
1053.708432	0.149673
1053.874504	0.148809
1054.040557	0.148935
1054.206593	0.148329
1054.372610	0.150294
1054.538609	0.150062
1054.704590	0.150966
1054.870553	0.149680
1055.036497	0.146942
1055.202424	0.150022
1055.368331	0.152302
1055.534221	0.152750
1055.700093	0.154191
1055.865946	0.153860
1056.031781	0.154418
1056.197598	0.154064
1056.363397	0.154217
1056.529177	0.156464
1056.694939	0.154996
1056.860683	0.156075
1057.026409	0.155006
1057.192116	0.155405
1057.357806	0.153583
1057.523477	0.152960
1057.689130	0.153000
1057.854764	0.154503
1058.020381	0.154448
1058.185979	0.156412
1058.351559	0.155311
1058.517120	0.155398
1058.682664	0.156496
1058.848189	0.157433
1059.013696	0.156945
1059.179185	0.157040
1059.344656	0.154791
1059.510108	0.156513
1059.675542	0.155298
1059.840958	0.154068
1060.006356	0.154453
1060.171735	0.152163
1060.337096	0.151957
1060.502439	0.152920
1060.667764	0.155436
1060.833071	0.157345
1060.998359	0.156144
1061.163629	0.157833
1061.328881	0.159224
1061.494115	0.157357
1061.659330	0.156362
1061.824527	0.156114
1061.989706	0.153895
1062.154867	0.150450
1062.320010	0.149191
1062.485134	0.148983
1062.650240	0.147628
1062.815328	0.146570
1062.980398	0.149931
1063.145449	0.151404
1063.310482	0.151351
1063.475497	0.152687
1063.640494	0.155041
1063.805473	0.154683
1063.970433	0.154460
1064.135375	0.153464
1064.300299	0.152767
1064.465204	0.151326
1064.630092	0.152486
1064.794961	0.153529
1064.959812	0.154501
1065.124645	0.156398
1065.289459	0.156526
1065.454256	0.155830
1065.619034	0.155433
1065.783793	0.157273
1065.948535	0.157886
1066.113258	0.156698
1066.277964	0.156893
1066.442651	0.157969
1066.607319	0.155100
1066.771970	0.155289
1066.936602	0.157882
1067.101216	0.161768
1067.265812	0.162481
1067.430389	0.161611
1067.594949	0.163030
1067.759490	0.164545
1067.924013	0.160998
1068.088518	0.162637
1068.253004	0.163395
1068.417472	0.162329
1068.581922	0.158619
1068.746354	0.157092
1068.910768	0.155199
1069.075163	0.153362
1069.239540	0.151409
1069.403899	0.152907
1069.568240	0.150426
1069.732562	0.150726
1069.896866	0.151758
1070.061152	0.154153
1070.225420	0.155749
1070.389670	0.157448
1070.553901	0.159581
1070.718114	0.159972
1070.882309	0.160323
1071.046486	0.160694
1071.210644	0.160330
1071.374784	0.159198
1071.538906	0.157239
1071.703010	0.155800
1071.867096	0.156104
1072.031163	0.155860
1072.195212	0.155601
1072.359243	0.156798
1072.523256	0.158191
1072.687250	0.160091
1072.851226	0.159547
1073.015184	0.160117
1073.179124	0.161828
1073.343045	0.163369
1073.506949	0.163726
1073.670834	0.165292
1073.834701	0.167578
1073.998549	0.169777
1074.162380	0.166626
1074.326192	0.168937
1074.489986	0.170216
1074.653761	0.169187
1074.817519	0.166342
1074.981258	0.167461
1075.144979	0.166003
1075.308682	0.161870
1075.472367	0.157158
1075.636033	0.157558
1075.799681	0.157055
1075.963311	0.156784
1076.126923	0.156803
1076.290516	0.159542
1076.454092	0.158995
1076.617649	0.158456
1076.781187	0.159663
1076.944708	0.163351
1077.108210	0.166298
1077.271695	0.166834
1077.435160	0.166602
1077.598608	0.166260
1077.762038	0.163803
1077.925449	0.162707
1078.088842	0.164101
1078.252217	0.163531
1078.415573	0.161186
1078.578912	0.159108
1078.742232	0.157642
1078.905534	0.159435
1079.068817	0.161476
1079.232083	0.163883
1079.395330	0.166267
1079.558559	0.166385
1079.721770	0.168474
1079.884962	0.168685
1080.048136	0.169098
1080.211293	0.171338
1080.374430	0.168038
1080.537550	0.164518
1080.700651	0.164881
1080.863735	0.162916
1081.026800	0.162248
1081.189846	0.162278
1081.352875	0.162927
1081.515885	0.163789
1081.678877	0.163625
1081.841851	0.164551
1082.004807	0.166992
1082.167744	0.165853
1082.330663	0.166108
1082.493564	0.165341
1082.656447	0.162511
1082.819312	0.162281
1082.982158	0.162028
1083.144986	0.161206
1083.307796	0.158843
1083.470587	0.160126
1083.633361	0.159810
1083.796116	0.159010
1083.958853	0.159410
1084.121571	0.161635
1084.284272	0.162713
1084.446954	0.161759
1084.609618	0.161041
1084.772264	0.162924
1084.934892	0.161574
1085.097501	0.161734
1085.260092	0.164981
1085.422665	0.166429
1085.585220	0.167177
1085.747756	0.166308
1085.910274	0.167931
1086.072774	0.169763
1086.235256	0.172079
1086.397720	0.172131
1086.560165	0.172562
1086.722592	0.173207
1086.885001	0.172925
1087.047392	0.174401
1087.209764	0.175838
1087.372119	0.175738
1087.534455	0.174652
1087.696772	0.174533
1087.859072	0.172997
1088.021353	0.172249
1088.183616	0.170946
1088.345861	0.171217
1088.508088	0.170904
1088.670296	0.169985
1088.832486	0.169697
1088.994658	0.171453
1089.156812	0.170913
1089.318948	0.173303
1089.481065	0.172435
1089.643164	0.170750
1089.805245	0.168502
1089.967308	0.171373
1090.129352	0.174694
1090.291378	0.175407
1090.453386	0.171915
1090.615376	0.169454
1090.777347	0.169839
1090.939301	0.169331
1091.101236	0.170564
1091.263153	0.177455
1091.425051	0.170047
1091.586932	0.168106
1091.748794	0.168926
1091.910638	0.167528
1092.072463	0.169878
1092.234271	0.171711
1092.396060	0.175409
1092.557831	0.173279
1092.719584	0.171251
1092.881319	0.172867
1093.043035	0.169538
1093.204733	0.166282
1093.366413	0.164914
1093.528075	0.166873
1093.689718	0.163655
1093.851343	0.165535
1094.012950	0.167554
1094.174539	0.166544
1094.336110	0.169322
1094.497662	0.168735
1094.659196	0.169266
1094.820712	0.176664
1094.982210	0.175612
1095.143689	0.174935
1095.305151	0.170875
1095.466594	0.173628
1095.628018	0.174279
1095.789425	0.170582
1095.950813	0.172505
1096.112183	0.174826
1096.273535	0.166664
1096.434869	0.164253
1096.596184	0.165048
1096.757482	0.166506
1096.918761	0.163011
1097.080021	0.157323
1097.241264	0.158767
1097.402488	0.160104
1097.563694	0.158663
1097.724882	0.164417
1097.886052	0.168247
1098.047203	0.168071
1098.208336	0.166580
1098.369451	0.167298
1098.530548	0.173897
1098.691627	0.174258
1098.852687	0.175004
1099.013729	0.175818
1099.174753	0.178507
1099.335758	0.178137
1099.496746	0.180606
1099.657715	0.182322
1099.818666	0.180420
1099.979599	0.176985
1100.140513	0.178783
1100.301409	0.179276
1100.462287	0.180918
1100.623147	0.181922
1100.783989	0.184339
1100.944812	0.181484
1101.105617	0.178937
1101.266404	0.182282
1101.427173	0.183545
1101.587923	0.182979
1101.748656	0.184608
1101.909370	0.185003
1102.070066	0.182303
1102.230743	0.179117
1102.391403	0.180865
1102.552044	0.182352
1102.712667	0.178809
1102.873271	0.180118
1103.033858	0.180003
1103.194426	0.171322
1103.354976	0.168580
1103.515508	0.168280
1103.676021	0.169728
1103.836517	0.168653
1103.996994	0.167460
1104.157453	0.168474
1104.317893	0.166850
1104.478316	0.167984
1104.638720	0.174285
1104.799106	0.177140
1104.959474	0.174723
1105.119823	0.172848
1105.280155	0.174760
1105.440468	0.176125
1105.600763	0.179043
1105.761039	0.180969
1105.921298	0.178700
1106.081538	0.177747
1106.241760	0.176089
1106.401964	0.176747
1106.562149	0.175966
1106.722316	0.178633
1106.882465	0.180309
1107.042596	0.177559
1107.202709	0.177028
1107.362803	0.180084
1107.522879	0.183256
1107.682937	0.185009
1107.842977	0.187151
1108.002999	0.186268
1108.163002	0.184402
1108.322987	0.183920
1108.482954	0.188949
1108.642902	0.189194
1108.802833	0.186679
1108.962745	0.186870
1109.122639	0.184979
1109.282515	0.187925
1109.442372	0.190555
1109.602211	0.189774
1109.762032	0.190121
1109.921835	0.185376
1110.081620	0.186427
1110.241386	0.188615
1110.401134	0.182897
1110.560864	0.184813
1110.720576	0.180270
1110.880269	0.179326
1111.039945	0.175845
1111.199602	0.175849
1111.359240	0.178032
1111.518861	0.176187
1111.678463	0.176941
1111.838047	0.176818
1111.997613	0.174007
1112.157161	0.174744
1112.316690	0.175939
1112.476202	0.178959
1112.635695	0.183315
1112.795169	0.186119
1112.954626	0.184507
1113.114064	0.182106
1113.273484	0.190396
1113.432886	0.193662
1113.592270	0.195107
1113.751635	0.193715
1113.910983	0.191563
1114.070312	0.191206
1114.229622	0.187317
1114.388915	0.190188
1114.548189	0.190997
1114.707445	0.186435
1114.866683	0.188934
1115.025903	0.189746
1115.185104	0.194104
1115.344287	0.196409
1115.503452	0.191459
1115.662599	0.190528
1115.821727	0.191721
1115.980838	0.195339
1116.139930	0.198999
1116.299004	0.193784
1116.458059	0.197980
1116.617097	0.195773
1116.776116	0.197111
1116.935117	0.197702
1117.094099	0.202185
1117.253064	0.202959
1117.412010	0.197387
1117.570938	0.197719
1117.729848	0.203766
1117.888740	0.200067
1118.047613	0.201468
1118.206468	0.201364
1118.365305	0.206280
1118.524124	0.203516
1118.682924	0.202120
1118.841707	0.203054
1119.000471	0.200474
1119.159216	0.200871
1119.317944	0.199975
1119.476653	0.196806
1119.635344	0.193505
1119.794017	0.184941
1119.952672	0.187177
1120.111308	0.189975
1120.269927	0.187472
1120.428527	0.187050
1120.587108	0.181047
1120.745672	0.180185
1120.904217	0.186174
1121.062744	0.188403
1121.221253	0.191125
1121.379744	0.190084
1121.538216	0.191848
1121.696671	0.193402
1121.855107	0.193917
1122.013524	0.196857
1122.171924	0.198212
1122.330305	0.190052
1122.488668	0.190068
1122.647013	0.190337
1122.805340	0.196330
1122.963648	0.193409
1123.121938	0.197175
1123.280210	0.200498
1123.438464	0.198649
1123.596700	0.202394
1123.754917	0.205556
1123.913116	0.205503
1124.071297	0.215406
1124.229459	0.210224
1124.387604	0.206796
1124.545730	0.203002
1124.703838	0.199512
1124.861928	0.200880
1125.019999	0.199364
1125.178052	0.208381
1125.336088	0.211713
1125.494104	0.201104
1125.652103	0.199656
1125.810083	0.200931
1125.968045	0.204706
1126.125989	0.207033
1126.283915	0.208770
1126.441823	0.201292
1126.599712	0.195777
1126.757583	0.198192
1126.915436	0.206098
1127.073270	0.200103
1127.231087	0.196346
1127.388885	0.197664
1127.546665	0.201615
1127.704426	0.203995
1127.862170	0.214031
1128.019895	0.214725
1128.177602	0.216443
1128.335291	0.215299
1128.492961	0.220608
1128.650614	0.234442
1128.808248	0.231763
1128.965864	0.227772
1129.123461	0.226796
1129.281041	0.220084
1129.438602	0.212776
1129.596145	0.201228
1129.753670	0.201286
1129.911176	0.204605
1130.068665	0.196281
1130.226135	0.196118
1130.383587	0.195921
1130.541020	0.190347
1130.698436	0.185617
1130.855833	0.190593
1131.013212	0.192838
1131.170573	0.187679
1131.327915	0.180099
1131.485239	0.174249
1131.642545	0.179390
1131.799833	0.173658
1131.957103	0.181784
1132.114354	0.194108
1132.271588	0.197458
1132.428803	0.209633
1132.585999	0.214884
1132.743178	0.220108
1132.900338	0.224914
1133.057480	0.220470
1133.214604	0.223629
1133.371710	0.215069
1133.528797	0.205317
1133.685866	0.195123
1133.842917	0.183224
1133.999950	0.183606
1134.156964	0.183788
1134.313960	0.183697
1134.470938	0.182876
1134.627898	0.182160
1134.784840	0.182097
1134.941763	0.188090
1135.098668	0.196343
1135.255555	0.201685
1135.412424	0.199008
1135.569274	0.199273
1135.726107	0.197853
1135.882921	0.194917
1136.039716	0.188405
1136.196494	0.188775
1136.353253	0.181081
1136.509995	0.172892
1136.666717	0.172526
1136.823422	0.173717
1136.980109	0.174151
1137.136777	0.177210
1137.293427	0.174664
1137.450059	0.179183
1137.606672	0.181806
1137.763267	0.185824
1137.919844	0.195172
1138.076403	0.189287
1138.232944	0.195259
1138.389466	0.188981
1138.545971	0.191839
1138.702457	0.201444
1138.858924	0.212206
1139.015374	0.215032
1139.171805	0.212627
1139.328218	0.202557
1139.484613	0.213406
1139.640990	0.206439
1139.797348	0.211470
1139.953688	0.207765
1140.110010	0.210001
1140.266314	0.207102
1140.422600	0.204407
1140.578867	0.205450
1140.735116	0.203126
1140.891347	0.193470
1141.047559	0.197640
1141.203754	0.195970
1141.359930	0.186475
1141.516088	0.183494
1141.672228	0.180971
1141.828349	0.182795
1141.984452	0.184112
1142.140537	0.197977
1142.296604	0.201997
1142.452653	0.201633
1142.608683	0.207537
1142.764695	0.219205
1142.920689	0.216243
1143.076665	0.217703
1143.232622	0.215279
1143.388562	0.220604
1143.544483	0.213263
1143.700385	0.211857
1143.856270	0.202675
1144.012136	0.197691
1144.167985	0.202118
1144.323814	0.200060
1144.479626	0.196356
1144.635420	0.193018
1144.791195	0.187464
1144.946952	0.194344
1145.102691	0.201522
1145.258411	0.207896
1145.414113	0.219508
1145.569798	0.213525
1145.725463	0.217092
1145.881111	0.217711
1146.036741	0.215096
1146.192352	0.210486
1146.347945	0.203205
1146.503519	0.203695
1146.659076	0.204914
1146.814614	0.190978
1146.970134	0.193416
1147.125636	0.194685
1147.281120	0.203108
1147.436585	0.202706
1147.592032	0.214648
1147.747461	0.214872
1147.902872	0.204631
1148.058265	0.198536
1148.213639	0.211562
1148.368995	0.213457
1148.524333	0.215577
1148.679653	0.206711
1148.834954	0.211368
1148.990237	0.205533
1149.145502	0.208529
1149.300749	0.211420
1149.455977	0.220521
1149.611188	0.198815
1149.766380	0.198374
1149.921553	0.201841
1150.076709	0.192122
1150.231846	0.198660
1150.386966	0.200639
1150.542066	0.203306
1150.697149	0.214652
1150.852214	0.206707
1151.007260	0.221195
1151.162288	0.216360
1151.317298	0.201086
1151.472289	0.210159
1151.627263	0.203214
1151.782218	0.202052
1151.937155	0.197990
1152.092073	0.180562
1152.246974	0.184981
1152.401856	0.188161
1152.556720	0.189471
1152.711566	0.191993
1152.866393	0.200619
1153.021203	0.200030
1153.175994	0.204828
1153.330767	0.199401
1153.485521	0.212602
1153.640258	0.208029
1153.794976	0.208365
1153.949676	0.206323
1154.104358	0.212252
1154.259021	0.211471
1154.413667	0.221078
1154.568294	0.210801
1154.722903	0.207032
1154.877493	0.202985
1155.032066	0.203143
1155.186620	0.195646
1155.341156	0.196485
1155.495674	0.196262
1155.650173	0.202341
1155.804654	0.199467
1155.959118	0.205318
1156.113562	0.214086
1156.267989	0.208518
1156.422397	0.214740
1156.576788	0.216691
1156.731160	0.212718
1156.885513	0.220564
1157.039849	0.209672
1157.194166	0.220900
1157.348465	0.229144
1157.502746	0.229916
1157.657009	0.232603
1157.811253	0.224896
1157.965479	0.224413
1158.119687	0.232356
1158.273877	0.218249
1158.428048	0.216179
1158.582201	0.196690
1158.736337	0.182534
1158.890453	0.175024
1159.044552	0.179589
1159.198632	0.179556
1159.352694	0.189414
1159.506738	0.181948
1159.660764	0.173876
1159.814771	0.167509
1159.968761	0.174872
1160.122732	0.189609
1160.276685	0.195656
1160.430619	0.198579
1160.584535	0.203851
1160.738434	0.195215
1160.892313	0.200607
1161.046175	0.205667
1161.200019	0.211883
1161.353844	0.205862
1161.507651	0.194300
1161.661440	0.194095
1161.815210	0.186235
1161.968962	0.180767
1162.122697	0.178451
1162.276412	0.172929
1162.430110	0.177390
1162.583789	0.179197
1162.737451	0.187472
1162.891094	0.184074
1163.044718	0.177643
1163.198325	0.183256
1163.351913	0.190248
1163.505483	0.195432
1163.659035	0.202840
1163.812569	0.205877
1163.966084	0.202757
1164.119581	0.191981
1164.273060	0.189896
1164.426521	0.208067
1164.579964	0.206765
1164.733388	0.201421
1164.886794	0.194466
1165.040182	0.199435
1165.193551	0.209586
1165.346903	0.206152
1165.500236	0.208988
1165.653551	0.226683
1165.806848	0.219920
1165.960126	0.207597
1166.113386	0.208912
1166.266628	0.210707
1166.419852	0.209445
1166.573058	0.197526
1166.726245	0.195701
1166.879414	0.194145
1167.032565	0.183362
1167.185698	0.175394
1167.338812	0.172923
1167.491909	0.163085
1167.644987	0.175588
1167.798046	0.169165
1167.951088	0.167964
1168.104111	0.155797
1168.257117	0.171417
1168.410103	0.162721
1168.563072	0.173707
1168.716023	0.184535
1168.868955	0.200023
1169.021869	0.193046
1169.174765	0.190387
1169.327642	0.202054
1169.480501	0.219525
1169.633343	0.202116
1169.786165	0.210392
1169.938970	0.204676
1170.091757	0.215988
1170.244525	0.215227
1170.397275	0.202037
1170.550007	0.205375
1170.702720	0.205308
1170.855415	0.196776
1171.008092	0.203021
1171.160751	0.209189
1171.313392	0.214049
1171.466014	0.080899
1171.618619	0.230389
1171.771205	0.230389
1171.923772	0.230389
