sample name	sample
index	1427
start time	 05-10-2021  12:24:24 PM


Wavelength (nm)	Absorbance
494.344910	0.065408
494.563924	0.065408
494.782919	0.065408
495.001897	0.003569
495.220856	-0.012628
495.439797	-0.020157
495.658719	-0.028126
495.877624	-0.040388
496.096510	-0.044718
496.315378	-0.040869
496.534227	-0.036439
496.753059	-0.033141
496.971872	-0.037108
497.190667	0.024170
497.409444	0.058119
497.628203	0.068862
497.846943	0.073375
498.065665	0.078818
498.284369	0.081496
498.503055	0.084126
498.721723	0.084912
498.940372	0.086056
499.159003	0.087194
499.377616	0.086598
499.596210	0.087069
499.814787	0.087997
500.033345	0.086594
500.251885	0.086353
500.470406	0.086721
500.688910	0.087342
500.907395	0.088083
501.125862	0.088065
501.344311	0.087972
501.562742	0.087696
501.781154	0.087673
501.999548	0.088365
502.217924	0.088588
502.436282	0.088316
502.654621	0.088072
502.872942	0.087953
503.091245	0.088000
503.309530	0.087936
503.527797	0.087677
503.746045	0.087505
503.964275	0.087792
504.182487	0.087657
504.400681	0.087188
504.618856	0.086634
504.837013	0.086624
505.055152	0.086185
505.273273	0.086742
505.491376	0.086373
505.709460	0.086754
505.927526	0.086184
506.145574	0.085872
506.363604	0.086435
506.581615	0.086770
506.799608	0.086968
507.017583	0.087332
507.235540	0.087189
507.453478	0.087948
507.671399	0.087839
507.889301	0.087815
508.107185	0.088219
508.325050	0.088220
508.542898	0.088491
508.760727	0.088462
508.978538	0.088278
509.196330	0.088445
509.414105	0.087936
509.631861	0.088009
509.849599	0.087749
510.067319	0.088066
510.285021	0.087494
510.502704	0.088096
510.720369	0.088072
510.938016	0.088701
511.155645	0.089205
511.373255	0.090222
511.590848	0.090561
511.808422	0.091745
512.025977	0.092015
512.243515	0.092376
512.461034	0.092058
512.678536	0.092508
512.896018	0.092480
513.113483	0.091811
513.330930	0.091134
513.548358	0.091267
513.765768	0.091464
513.983160	0.090862
514.200533	0.090857
514.417889	0.091304
514.635226	0.090718
514.852545	0.091527
515.069845	0.092182
515.287128	0.092408
515.504392	0.092050
515.721638	0.091899
515.938866	0.092466
516.156075	0.092782
516.373267	0.092347
516.590440	0.092054
516.807594	0.090838
517.024731	0.090433
517.241850	0.090631
517.458950	0.091108
517.676032	0.091065
517.893095	0.091123
518.110141	0.090862
518.327168	0.091195
518.544177	0.091788
518.761168	0.091940
518.978141	0.091864
519.195095	0.091185
519.412031	0.091110
519.628949	0.091605
519.845849	0.091197
520.062731	0.090808
520.279594	0.090492
520.496439	0.089792
520.713266	0.089309
520.930074	0.089279
521.146865	0.090042
521.363637	0.089935
521.580391	0.089494
521.797127	0.089900
522.013844	0.091323
522.230543	0.091165
522.447224	0.091417
522.663887	0.092073
522.880532	0.092311
523.097158	0.091849
523.313766	0.091929
523.530356	0.092116
523.746928	0.092349
523.963481	0.091801
524.180017	0.092065
524.396534	0.092569
524.613032	0.093165
524.829513	0.093224
525.045975	0.093824
525.262420	0.094002
525.478845	0.093992
525.695253	0.093377
525.911643	0.093351
526.128014	0.094169
526.344367	0.094166
526.560702	0.093815
526.777018	0.094242
526.993316	0.094181
527.209597	0.094210
527.425858	0.094591
527.642102	0.095348
527.858328	0.095442
528.074535	0.095099
528.290724	0.095282
528.506894	0.095616
528.723047	0.094992
528.939181	0.095334
529.155297	0.095614
529.371395	0.095122
529.587475	0.095137
529.803536	0.095335
530.019579	0.095175
530.235604	0.095260
530.451611	0.095405
530.667600	0.095608
530.883570	0.094825
531.099522	0.094988
531.315456	0.095062
531.531372	0.095170
531.747269	0.095748
531.963148	0.095421
532.179009	0.095558
532.394852	0.095794
532.610676	0.096108
532.826482	0.096805
533.042271	0.096744
533.258040	0.097026
533.473792	0.096717
533.689525	0.096024
533.905240	0.096333
534.120937	0.096638
534.336616	0.096244
534.552277	0.096348
534.767919	0.096713
534.983543	0.096636
535.199149	0.096432
535.414736	0.097473
535.630306	0.097658
535.845857	0.098670
536.061390	0.098490
536.276904	0.098743
536.492401	0.098850
536.707879	0.098820
536.923339	0.098969
537.138781	0.098932
537.354204	0.098694
537.569610	0.099150
537.784997	0.098507
538.000366	0.098422
538.215716	0.097935
538.431049	0.097910
538.646363	0.097617
538.861659	0.097745
539.076937	0.098210
539.292196	0.097958
539.507438	0.097929
539.722661	0.097996
539.937866	0.098288
540.153052	0.099085
540.368221	0.099200
540.583371	0.099556
540.798503	0.099495
541.013617	0.099293
541.228712	0.099051
541.443789	0.098629
541.658848	0.098650
541.873889	0.098779
542.088912	0.098731
542.303916	0.098561
542.518902	0.098843
542.733870	0.099020
542.948820	0.099228
543.163752	0.099718
543.378665	0.100116
543.593560	0.100556
543.808437	0.100414
544.023295	0.100608
544.238136	0.101162
544.452958	0.101124
544.667762	0.101191
544.882548	0.101477
545.097315	0.101467
545.312064	0.101505
545.526795	0.101406
545.741508	0.101674
545.956203	0.101313
546.170879	0.100957
546.385537	0.100889
546.600177	0.101032
546.814799	0.101176
547.029402	0.100846
547.243988	0.100624
547.458555	0.100660
547.673103	0.100906
547.887634	0.101259
548.102146	0.102085
548.316640	0.102358
548.531116	0.102386
548.745574	0.102344
548.960013	0.102780
549.174435	0.102908
549.388838	0.102866
549.603222	0.102603
549.817589	0.102276
550.031937	0.102198
550.246267	0.102209
550.460579	0.102415
550.674873	0.102600
550.889148	0.102927
551.103405	0.103780
551.317644	0.103776
551.531865	0.104081
551.746068	0.104897
551.960252	0.104801
552.174418	0.104620
552.388566	0.104835
552.602696	0.104632
552.816807	0.104393
553.030900	0.104025
553.244975	0.104293
553.459032	0.104633
553.673070	0.104408
553.887091	0.104566
554.101093	0.104811
554.315077	0.104656
554.529042	0.104953
554.742990	0.105297
554.956919	0.105278
555.170830	0.105318
555.384722	0.105111
555.598597	0.105137
555.812453	0.104895
556.026291	0.104850
556.240111	0.105235
556.453913	0.105137
556.667696	0.104691
556.881461	0.104968
557.095208	0.105152
557.308937	0.105209
557.522647	0.105345
557.736339	0.105225
557.950013	0.105443
558.163669	0.104830
558.377307	0.104994
558.590926	0.105309
558.804527	0.105483
559.018110	0.105621
559.231675	0.105769
559.445221	0.105640
559.658749	0.106108
559.872259	0.106136
560.085751	0.106322
560.299225	0.106219
560.512680	0.106227
560.726117	0.105968
560.939536	0.106160
561.152937	0.106212
561.366319	0.106323
561.579683	0.106135
561.793029	0.106029
562.006357	0.106431
562.219667	0.106850
562.432958	0.106961
562.646231	0.107285
562.859486	0.107426
563.072723	0.107490
563.285941	0.107708
563.499141	0.108093
563.712323	0.108317
563.925487	0.108380
564.138632	0.108435
564.351760	0.109114
564.564869	0.109145
564.777960	0.108909
564.991032	0.108825
565.204087	0.109301
565.417123	0.109264
565.630141	0.109447
565.843140	0.109441
566.056122	0.109509
566.269085	0.109110
566.482030	0.109152
566.694957	0.109080
566.907866	0.109006
567.120756	0.108777
567.333628	0.109096
567.546482	0.108942
567.759318	0.109039
567.972135	0.108939
568.184935	0.109064
568.397716	0.109210
568.610478	0.109646
568.823223	0.109933
569.035949	0.109843
569.248657	0.109794
569.461347	0.110084
569.674019	0.110188
569.886672	0.110378
570.099308	0.110586
570.311925	0.110575
570.524523	0.110648
570.737104	0.110726
570.949666	0.110806
571.162210	0.110783
571.374736	0.111009
571.587244	0.111087
571.799733	0.111235
572.012205	0.111215
572.224658	0.111255
572.437092	0.111031
572.649509	0.111184
572.861907	0.111523
573.074287	0.111767
573.286649	0.111665
573.498993	0.111960
573.711318	0.111869
573.923625	0.111940
574.135914	0.112325
574.348185	0.112614
574.560438	0.112915
574.772672	0.112584
574.984888	0.112669
575.197086	0.112724
575.409266	0.112778
575.621427	0.112951
575.833570	0.113146
576.045695	0.113252
576.257802	0.113351
576.469890	0.113348
576.681961	0.113268
576.894013	0.113264
577.106046	0.113485
577.318062	0.113584
577.530059	0.113883
577.742039	0.113828
577.954000	0.113815
578.165942	0.113890
578.377867	0.113865
578.589773	0.114588
578.801661	0.114919
579.013531	0.115448
579.225382	0.115661
579.437216	0.115487
579.649031	0.115679
579.860828	0.115689
580.072606	0.116018
580.284367	0.116146
580.496109	0.116025
580.707833	0.115864
580.919539	0.115328
581.131227	0.115131
581.342896	0.115380
581.554547	0.115727
581.766180	0.115665
581.977795	0.115693
582.189391	0.115697
582.400969	0.115919
582.612529	0.115996
582.824071	0.116357
583.035595	0.116536
583.247100	0.116595
583.458587	0.116633
583.670056	0.116924
583.881506	0.116585
584.092939	0.116959
584.304353	0.117126
584.515749	0.117549
584.727127	0.117344
584.938486	0.117633
585.149828	0.117788
585.361151	0.117915
585.572456	0.118400
585.783742	0.118809
585.995011	0.119160
586.206261	0.119205
586.417493	0.119109
586.628706	0.119788
586.839902	0.120203
587.051079	0.120387
587.262238	0.120566
587.473379	0.120502
587.684502	0.120517
587.895606	0.120316
588.106692	0.120004
588.317760	0.119998
588.528810	0.119619
588.739841	0.119231
588.950855	0.119029
589.161850	0.119033
589.372827	0.118943
589.583785	0.119234
589.794726	0.119212
590.005648	0.119842
590.216552	0.120208
590.427437	0.120343
590.638305	0.120374
590.849154	0.120829
591.059985	0.120524
591.270798	0.120790
591.481592	0.121073
591.692369	0.121277
591.903127	0.121284
592.113867	0.120843
592.324588	0.120801
592.535292	0.121040
592.745977	0.120637
592.956644	0.120916
593.167293	0.120871
593.377923	0.120648
593.588536	0.120673
593.799130	0.120484
594.009706	0.120478
594.220263	0.120412
594.430803	0.120440
594.641324	0.120812
594.851827	0.120854
595.062312	0.120731
595.272778	0.120587
595.483227	0.120566
595.693657	0.120633
595.904069	0.121003
596.114462	0.121308
596.324838	0.121354
596.535195	0.121112
596.745534	0.121057
596.955855	0.121180
597.166157	0.121360
597.376441	0.121374
597.586707	0.121526
597.796955	0.121523
598.007185	0.121924
598.217396	0.121727
598.427589	0.122174
598.637764	0.122348
598.847921	0.122567
599.058060	0.122762
599.268180	0.122852
599.478282	0.122588
599.688366	0.122610
599.898431	0.122506
600.108479	0.122794
600.318508	0.122601
600.528519	0.122628
600.738511	0.122343
600.948486	0.122206
601.158442	0.122226
601.368380	0.122789
601.578300	0.122863
601.788202	0.122712
601.998085	0.122960
602.207950	0.123059
602.417797	0.122953
602.627626	0.123104
602.837436	0.123473
603.047228	0.123284
603.257002	0.123290
603.466758	0.123268
603.676496	0.123416
603.886215	0.123101
604.095916	0.123021
604.305599	0.123217
604.515264	0.123123
604.724910	0.122946
604.934538	0.123356
605.144148	0.123344
605.353740	0.123447
605.563314	0.123503
605.772869	0.123545
605.982406	0.123914
606.191925	0.123929
606.401425	0.123975
606.610908	0.124077
606.820372	0.124149
607.029818	0.124407
607.239246	0.124435
607.448655	0.124495
607.658047	0.124785
607.867420	0.124615
608.076775	0.124726
608.286111	0.125093
608.495430	0.125003
608.704730	0.125047
608.914012	0.124904
609.123275	0.125100
609.332521	0.125198
609.541748	0.125278
609.750957	0.125599
609.960148	0.125643
610.169321	0.125750
610.378475	0.125968
610.587611	0.126282
610.796729	0.126095
611.005829	0.126470
611.214910	0.126552
611.423974	0.126536
611.633019	0.126490
611.842045	0.126763
612.051054	0.126544
612.260044	0.126888
612.469017	0.126744
612.677970	0.127392
612.886906	0.127120
613.095824	0.127231
613.304723	0.127335
613.513604	0.127360
613.722467	0.127558
613.931311	0.127881
614.140138	0.127829
614.348946	0.127663
614.557736	0.127321
614.766507	0.127293
614.975261	0.127270
615.183996	0.127146
615.392713	0.127326
615.601412	0.127016
615.810092	0.127085
616.018754	0.127053
616.227399	0.127236
616.436024	0.127258
616.644632	0.127448
616.853222	0.127585
617.061793	0.128197
617.270346	0.128034
617.478880	0.128199
617.687397	0.128341
617.895895	0.128448
618.104375	0.128729
618.312837	0.129095
618.521281	0.129088
618.729706	0.129100
618.938113	0.128903
619.146502	0.129062
619.354873	0.129292
619.563226	0.129181
619.771560	0.129265
619.979876	0.129113
620.188174	0.128891
620.396453	0.129050
620.604715	0.129135
620.812958	0.129114
621.021183	0.129249
621.229390	0.129274
621.437578	0.129689
621.645748	0.129763
621.853900	0.130025
622.062034	0.130182
622.270150	0.130195
622.478247	0.130436
622.686326	0.130558
622.894387	0.130691
623.102430	0.130899
623.310454	0.130728
623.518461	0.130865
623.726449	0.131013
623.934418	0.131030
624.142370	0.131290
624.350303	0.131174
624.558218	0.131054
624.766115	0.131061
624.973994	0.131026
625.181855	0.130924
625.389697	0.130653
625.597521	0.130522
625.805327	0.130536
626.013114	0.130316
626.220883	0.130199
626.428634	0.130193
626.636367	0.130029
626.844082	0.130038
627.051778	0.130151
627.259457	0.130325
627.467117	0.130268
627.674758	0.130309
627.882382	0.130482
628.089987	0.130624
628.297574	0.130637
628.505143	0.130884
628.712694	0.130863
628.920226	0.130779
629.127740	0.130746
629.335236	0.130934
629.542714	0.130880
629.750174	0.130877
629.957615	0.131039
630.165038	0.131173
630.372443	0.131062
630.579829	0.131047
630.787198	0.131123
630.994548	0.131346
631.201880	0.131365
631.409194	0.131701
631.616489	0.131853
631.823766	0.131743
632.031025	0.132158
632.238266	0.132306
632.445489	0.132323
632.652693	0.132403
632.859879	0.132249
633.067047	0.132184
633.274197	0.132175
633.481329	0.132246
633.688442	0.132325
633.895537	0.131995
634.102614	0.132314
634.309672	0.132524
634.516713	0.132728
634.723735	0.132871
634.930739	0.133020
635.137724	0.133103
635.344692	0.132989
635.551641	0.133030
635.758572	0.133005
635.965485	0.132802
636.172379	0.132756
636.379256	0.132763
636.586114	0.132667
636.792954	0.132791
636.999775	0.132929
637.206579	0.132893
637.413364	0.133134
637.620131	0.133362
637.826880	0.133723
638.033610	0.134000
638.240323	0.134113
638.447017	0.134583
638.653692	0.134927
638.860350	0.135118
639.066990	0.135598
639.273611	0.135625
639.480214	0.135912
639.686798	0.136063
639.893365	0.136234
640.099913	0.136587
640.306443	0.136700
640.512955	0.136419
640.719449	0.136460
640.925924	0.136480
641.132381	0.136649
641.338820	0.136605
641.545241	0.136600
641.751644	0.136493
641.958028	0.136407
642.164394	0.136262
642.370742	0.136411
642.577071	0.136437
642.783383	0.136648
642.989676	0.136748
643.195951	0.136746
643.402207	0.136681
643.608446	0.136789
643.814666	0.136700
644.020868	0.136771
644.227052	0.136935
644.433218	0.136816
644.639365	0.136789
644.845494	0.136643
645.051605	0.136566
645.257698	0.136840
645.463772	0.136769
645.669828	0.136806
645.875866	0.136733
646.081886	0.136527
646.287888	0.136647
646.493871	0.136493
646.699836	0.136621
646.905783	0.136858
647.111712	0.136653
647.317622	0.136792
647.523514	0.136673
647.729388	0.136883
647.935244	0.137100
648.141082	0.137187
648.346901	0.137281
648.552702	0.137226
648.758485	0.137358
648.964250	0.137206
649.169996	0.137074
649.375724	0.137389
649.581434	0.137484
649.787126	0.137548
649.992800	0.137515
650.198455	0.137585
650.404092	0.137912
650.609711	0.137992
650.815311	0.138260
651.020894	0.138426
651.226458	0.138287
651.432004	0.138345
651.637532	0.138316
651.843041	0.138319
652.048532	0.138235
652.254006	0.138140
652.459460	0.138216
652.664897	0.138279
652.870315	0.138326
653.075716	0.138539
653.281097	0.138744
653.486461	0.138960
653.691807	0.139124
653.897134	0.139557
654.102443	0.139783
654.307734	0.139934
654.513006	0.140223
654.718261	0.140562
654.923497	0.140627
655.128715	0.140556
655.333915	0.140617
655.539096	0.140610
655.744259	0.140652
655.949404	0.140596
656.154531	0.140371
656.359640	0.140209
656.564730	0.140176
656.769802	0.140183
656.974856	0.140531
657.179892	0.140655
657.384909	0.140893
657.589908	0.140950
657.794889	0.141051
657.999852	0.141270
658.204797	0.141384
658.409723	0.141576
658.614631	0.141885
658.819521	0.141822
659.024393	0.141791
659.229246	0.141881
659.434081	0.141691
659.638898	0.141969
659.843697	0.142047
660.048478	0.141949
660.253240	0.141856
660.457984	0.141731
660.662710	0.141714
660.867417	0.141777
661.072107	0.141667
661.276778	0.141977
661.481431	0.141846
661.686066	0.141949
661.890682	0.142236
662.095281	0.142383
662.299861	0.142437
662.504422	0.142774
662.708966	0.143031
662.913491	0.143286
663.117999	0.143370
663.322488	0.143491
663.526958	0.143499
663.731411	0.143744
663.935845	0.143620
664.140261	0.143881
664.344659	0.143788
664.549038	0.143611
664.753400	0.143700
664.957743	0.143702
665.162068	0.143960
665.366375	0.144231
665.570663	0.144176
665.774933	0.144421
665.979185	0.144721
666.183419	0.144796
666.387635	0.145021
666.591832	0.144881
666.796011	0.145036
667.000172	0.145025
667.204315	0.145049
667.408439	0.144983
667.612545	0.144970
667.816634	0.144924
668.020703	0.144813
668.224755	0.144925
668.428788	0.145176
668.632803	0.145075
668.836800	0.145118
669.040779	0.145146
669.244739	0.145323
669.448681	0.145525
669.652605	0.145620
669.856511	0.145850
670.060399	0.145944
670.264268	0.146115
670.468119	0.146410
670.671952	0.146484
670.875767	0.146740
671.079563	0.146999
671.283341	0.147106
671.487101	0.147032
671.690843	0.147263
671.894567	0.147536
672.098272	0.147903
672.301959	0.147992
672.505628	0.148140
672.709278	0.147973
672.912911	0.148163
673.116525	0.148282
673.320121	0.148388
673.523699	0.148376
673.727258	0.148309
673.930799	0.147904
674.134322	0.147911
674.337827	0.147849
674.541314	0.147785
674.744782	0.147240
674.948232	0.147127
675.151664	0.147093
675.355078	0.146952
675.558474	0.147071
675.761851	0.147183
675.965210	0.147011
676.168551	0.147060
676.371873	0.147238
676.575178	0.147497
676.778464	0.147394
676.981732	0.147407
677.184981	0.147613
677.388213	0.147451
677.591426	0.147406
677.794621	0.147756
677.997798	0.148009
678.200956	0.148181
678.404097	0.148459
678.607219	0.148912
678.810323	0.149276
679.013408	0.149414
679.216476	0.149832
679.419525	0.150229
679.622556	0.150538
679.825569	0.150553
680.028563	0.150557
680.231540	0.150559
680.434498	0.150614
680.637438	0.150386
680.840359	0.150402
681.043263	0.150321
681.246148	0.150194
681.449015	0.150014
681.651864	0.150127
681.854694	0.150350
682.057506	0.150756
682.260301	0.150781
682.463076	0.151008
682.665834	0.151222
682.868573	0.151296
683.071295	0.151503
683.273998	0.151683
683.476682	0.151789
683.679349	0.151846
683.881997	0.151816
684.084627	0.151864
684.287239	0.151943
684.489833	0.151943
684.692408	0.151994
684.894965	0.152212
685.097504	0.152313
685.300025	0.152419
685.502527	0.152386
685.705012	0.152351
685.907478	0.152450
686.109925	0.152402
686.312355	0.152594
686.514766	0.152508
686.717159	0.152400
686.919534	0.152352
687.121891	0.152221
687.324230	0.152373
687.526550	0.152380
687.728852	0.152464
687.931136	0.152668
688.133401	0.152551
688.335649	0.152764
688.537878	0.152701
688.740089	0.152610
688.942281	0.152712
689.144456	0.152745
689.346612	0.152827
689.548750	0.152754
689.750870	0.152633
689.952971	0.152725
690.155055	0.152733
690.357120	0.152879
690.559167	0.153084
690.761195	0.153294
690.963206	0.153178
691.165198	0.153201
691.367172	0.153336
691.569128	0.153376
691.771065	0.153438
691.972984	0.153461
692.174885	0.153657
692.376768	0.153756
692.578633	0.153545
692.780479	0.153677
692.982308	0.153729
693.184118	0.153650
693.385909	0.153921
693.587683	0.154048
693.789438	0.154341
693.991175	0.154298
694.192894	0.154466
694.394595	0.154789
694.596277	0.155110
694.797941	0.155327
694.999587	0.155591
695.201215	0.155807
695.402824	0.155722
695.604416	0.155693
695.805989	0.155899
696.007543	0.155848
696.209080	0.155773
696.410598	0.155918
696.612099	0.155826
696.813580	0.155771
697.015044	0.155724
697.216490	0.156020
697.417917	0.156099
697.619326	0.156070
697.820717	0.156050
698.022089	0.155967
698.223444	0.155834
698.424780	0.156021
698.626098	0.156241
698.827397	0.156294
699.028679	0.156241
699.229942	0.156202
699.431187	0.156339
699.632414	0.156526
699.833622	0.156793
700.034813	0.156976
700.235985	0.156799
700.437139	0.156826
700.638274	0.156969
700.839392	0.157176
701.040491	0.157440
701.241572	0.157504
701.442635	0.157315
701.643679	0.157412
701.844706	0.157380
702.045714	0.157607
702.246704	0.157568
702.447675	0.157430
702.648629	0.157317
702.849564	0.157057
703.050481	0.156922
703.251380	0.157072
703.452260	0.156963
703.653122	0.156920
703.853966	0.156804
704.054792	0.156872
704.255600	0.156804
704.456389	0.156893
704.657160	0.157080
704.857913	0.157156
705.058648	0.157294
705.259365	0.157422
705.460063	0.157443
705.660743	0.157480
705.861405	0.157306
706.062048	0.157410
706.262674	0.157134
706.463281	0.156910
706.663870	0.157002
706.864441	0.156821
707.064993	0.156639
707.265527	0.156493
707.466043	0.156361
707.666541	0.156530
707.867021	0.156555
708.067482	0.156555
708.267925	0.156749
708.468350	0.156592
708.668757	0.156532
708.869145	0.156730
709.069516	0.156828
709.269868	0.157103
709.470201	0.156785
709.670517	0.156746
709.870814	0.156900
710.071093	0.156960
710.271354	0.156995
710.471597	0.157070
710.671821	0.157158
710.872028	0.156937
711.072216	0.156966
711.272385	0.157319
711.472537	0.157311
711.672670	0.157237
711.872785	0.157287
712.072882	0.157367
712.272961	0.157262
712.473021	0.157349
712.673063	0.157640
712.873087	0.157728
713.073093	0.157801
713.273081	0.158115
713.473050	0.158449
713.673001	0.158553
713.872934	0.158622
714.072849	0.158823
714.272745	0.158909
714.472623	0.159167
714.672483	0.159423
714.872325	0.159576
715.072148	0.159795
715.271954	0.159700
715.471741	0.159803
715.671509	0.159890
715.871260	0.159949
716.070992	0.159685
716.270707	0.159823
716.470403	0.159672
716.670080	0.159413
716.869740	0.159281
717.069381	0.159388
717.269004	0.159386
717.468609	0.159450
717.668195	0.159464
717.867764	0.159659
718.067314	0.159386
718.266846	0.159357
718.466360	0.159523
718.665855	0.159433
718.865332	0.159323
719.064791	0.159156
719.264232	0.159133
719.463655	0.159347
719.663059	0.159151
719.862445	0.159069
720.061813	0.158905
720.261163	0.158756
720.460494	0.158565
720.659807	0.158356
720.859102	0.158173
721.058379	0.158118
721.257638	0.157767
721.456878	0.157968
721.656100	0.158039
721.855304	0.158050
722.054490	0.158344
722.253657	0.158358
722.452806	0.158553
722.651937	0.158596
722.851050	0.158340
723.050145	0.158251
723.249221	0.157872
723.448279	0.157819
723.647319	0.157646
723.846340	0.157240
724.045344	0.157376
724.244329	0.157113
724.443296	0.156865
724.642245	0.156670
724.841175	0.156670
725.040088	0.156757
725.238982	0.156426
725.437857	0.156297
725.636715	0.156285
725.835554	0.156130
726.034376	0.156029
726.233179	0.156127
726.431963	0.156181
726.630730	0.156119
726.829478	0.155823
727.028208	0.155824
727.226920	0.156012
727.425614	0.156101
727.624289	0.155795
727.822946	0.155804
728.021585	0.155842
728.220206	0.155902
728.418808	0.155786
728.617392	0.155947
728.815958	0.155949
729.014506	0.155729
729.213036	0.155650
729.411547	0.155605
729.610040	0.155558
729.808515	0.155503
730.006972	0.155287
730.205410	0.155300
730.403831	0.155163
730.602233	0.155336
730.800616	0.155131
730.998982	0.154772
731.197329	0.154693
731.395658	0.154574
731.593969	0.154414
731.792262	0.154514
731.990536	0.154218
732.188793	0.154280
732.387031	0.154276
732.585250	0.154223
732.783452	0.154369
732.981635	0.154409
733.179800	0.154433
733.377947	0.154221
733.576076	0.154113
733.774186	0.154375
733.972278	0.154239
734.170352	0.153862
734.368408	0.154027
734.566446	0.153886
734.764465	0.153674
734.962466	0.153561
735.160449	0.153582
735.358413	0.153457
735.556360	0.153455
735.754288	0.153175
735.952198	0.153042
736.150090	0.152735
736.347963	0.152785
736.545818	0.152752
736.743655	0.152645
736.941474	0.152662
737.139275	0.152603
737.337057	0.152404
737.534821	0.152400
737.732567	0.152354
737.930295	0.152379
738.128005	0.152231
738.325696	0.152071
738.523369	0.152015
738.721024	0.151709
738.918660	0.151670
739.116279	0.151682
739.313879	0.151669
739.511461	0.151634
739.709024	0.151753
739.906570	0.151506
740.104097	0.151559
740.301606	0.151478
740.499097	0.151582
740.696569	0.151327
740.894024	0.151079
741.091460	0.150925
741.288878	0.150566
741.486277	0.150123
741.683659	0.150188
741.881022	0.150139
742.078367	0.150016
742.275694	0.149806
742.473002	0.149689
742.670293	0.149513
742.867565	0.149650
743.064819	0.149800
743.262054	0.149927
743.459272	0.149942
743.656471	0.149869
743.853652	0.149937
744.050815	0.150092
744.247959	0.150288
744.445085	0.150216
744.642194	0.150162
744.839283	0.150216
745.036355	0.150246
745.233408	0.150146
745.430444	0.150174
745.627461	0.150028
745.824459	0.150010
746.021440	0.150002
746.218402	0.150183
746.415346	0.150019
746.612272	0.149836
746.809180	0.149698
747.006069	0.149453
747.202940	0.149434
747.399793	0.149469
747.596628	0.149455
747.793444	0.149353
747.990243	0.149140
748.187023	0.149316
748.383784	0.149329
748.580528	0.149187
748.777253	0.149202
748.973960	0.148975
749.170649	0.148818
749.367320	0.148460
749.563973	0.148363
749.760607	0.148355
749.957223	0.148059
750.153821	0.148004
750.350400	0.148117
750.546962	0.148068
750.743505	0.148164
750.940030	0.148100
751.136536	0.147897
751.333025	0.147734
751.529495	0.147642
751.725947	0.147560
751.922381	0.147346
752.118796	0.147179
752.315194	0.146790
752.511573	0.146521
752.707934	0.146429
752.904276	0.146482
753.100601	0.146549
753.296907	0.146542
753.493195	0.146525
753.689465	0.146811
753.885716	0.146699
754.081949	0.147200
754.278164	0.147202
754.474361	0.147107
754.670540	0.147147
754.866700	0.146957
755.062843	0.146810
755.258967	0.146832
755.455072	0.146568
755.651160	0.146516
755.847229	0.146090
756.043280	0.145867
756.239313	0.145741
756.435328	0.145746
756.631324	0.145832
756.827302	0.145980
757.023262	0.145676
757.219204	0.145576
757.415127	0.145607
757.611033	0.145738
757.806920	0.146028
758.002788	0.146020
758.198639	0.145803
758.394471	0.145628
758.590286	0.145280
758.786081	0.145184
758.981859	0.145175
759.177619	0.144799
759.373360	0.144473
759.569083	0.144244
759.764788	0.144218
759.960474	0.144173
760.156143	0.143995
760.351793	0.144053
760.547425	0.143899
760.743038	0.143775
760.938634	0.143683
761.134211	0.143559
761.329770	0.143295
761.525311	0.143318
761.720833	0.142957
761.916338	0.142940
762.111824	0.142731
762.307292	0.142787
762.502741	0.142528
762.698173	0.142555
762.893586	0.142775
763.088981	0.142782
763.284358	0.142697
763.479716	0.143051
763.675057	0.143029
763.870379	0.143080
764.065683	0.143131
764.260968	0.143533
764.456236	0.143632
764.651485	0.143581
764.846716	0.143674
765.041929	0.143712
765.237123	0.143795
765.432299	0.144149
765.627457	0.144330
765.822597	0.144205
766.017719	0.143878
766.212822	0.143865
766.407907	0.143811
766.602974	0.143806
766.798023	0.143801
766.993054	0.143570
767.188066	0.143356
767.383060	0.143350
767.578036	0.143501
767.772993	0.143654
767.967933	0.143628
768.162854	0.143723
768.357757	0.143436
768.552642	0.143221
768.747508	0.143177
768.942356	0.143034
769.137186	0.142680
769.331998	0.142537
769.526792	0.142316
769.721567	0.142091
769.916324	0.141855
770.111063	0.142062
770.305784	0.142098
770.500486	0.141959
770.695171	0.141789
770.889837	0.141763
771.084484	0.141775
771.279114	0.141648
771.473725	0.141758
771.668318	0.141786
771.862893	0.141890
772.057450	0.141676
772.251988	0.141485
772.446509	0.141693
772.641011	0.141876
772.835494	0.141819
773.029960	0.141861
773.224407	0.142001
773.418836	0.142101
773.613247	0.141989
773.807640	0.141899
774.002014	0.142008
774.196370	0.141794
774.390708	0.141620
774.585028	0.141394
774.779330	0.141422
774.973613	0.141072
775.167878	0.140969
775.362125	0.140583
775.556354	0.140727
775.750564	0.140802
775.944756	0.140676
776.138930	0.140649
776.333086	0.140595
776.527223	0.140641
776.721343	0.140631
776.915444	0.140425
777.109526	0.140560
777.303591	0.140467
777.497637	0.140522
777.691666	0.140457
777.885676	0.140440
778.079667	0.140564
778.273641	0.140414
778.467596	0.140567
778.661533	0.140687
778.855452	0.140632
779.049352	0.140847
779.243235	0.140769
779.437099	0.141134
779.630945	0.141229
779.824773	0.141379
780.018582	0.141560
780.212373	0.141696
780.406146	0.141712
780.599901	0.141975
780.793638	0.142024
780.987356	0.141911
781.181056	0.141935
781.374738	0.141884
781.568402	0.141901
781.762047	0.141807
781.955674	0.141788
782.149283	0.141949
782.342874	0.141737
782.536447	0.141578
782.730001	0.141778
782.923537	0.141495
783.117055	0.141582
783.310555	0.141560
783.504036	0.141665
783.697499	0.141898
783.890944	0.141952
784.084371	0.142357
784.277780	0.142526
784.471170	0.142682
784.664542	0.143026
784.857896	0.142965
785.051231	0.143373
785.244549	0.143352
785.437848	0.143286
785.631129	0.143360
785.824392	0.143231
786.017636	0.143415
786.210863	0.143361
786.404071	0.143324
786.597260	0.143557
786.790432	0.143181
786.983585	0.143405
787.176721	0.143420
787.369838	0.143405
787.562936	0.143137
787.756017	0.143237
787.949079	0.143325
788.142123	0.143260
788.335149	0.143309
788.528156	0.143405
788.721146	0.143560
788.914117	0.143588
789.107070	0.143540
789.300005	0.143701
789.492921	0.143458
789.685819	0.143564
789.878699	0.143482
790.071561	0.143450
790.264405	0.143480
790.457230	0.143242
790.650037	0.143273
790.842826	0.143265
791.035597	0.143471
791.228349	0.143346
791.421084	0.143282
791.613800	0.143508
791.806497	0.143588
791.999177	0.143671
792.191838	0.143677
792.384481	0.143719
792.577106	0.143846
792.769713	0.144125
792.962301	0.144340
793.154871	0.144491
793.347423	0.144630
793.539957	0.144612
793.732473	0.144642
793.924970	0.144845
794.117449	0.145058
794.309910	0.145200
794.502353	0.145115
794.694777	0.145497
794.887183	0.145602
795.079571	0.145828
795.271941	0.146046
795.464293	0.146516
795.656626	0.146817
795.848941	0.146755
796.041238	0.146991
796.233516	0.147365
796.425777	0.147343
796.618019	0.147235
796.810243	0.147091
797.002449	0.147323
797.194636	0.147366
797.386805	0.147589
797.578956	0.147976
797.771089	0.148054
797.963204	0.147860
798.155300	0.148121
798.347378	0.148563
798.539438	0.148906
798.731480	0.149008
798.923503	0.149023
799.115509	0.148933
799.307496	0.149022
799.499465	0.149288
799.691415	0.149653
799.883348	0.149605
800.075262	0.149495
800.267158	0.149589
800.459035	0.149548
800.650895	0.149559
800.842736	0.149601
801.034559	0.149287
801.226364	0.149163
801.418150	0.149329
801.609919	0.149615
801.801669	0.150082
801.993401	0.150000
802.185114	0.150210
802.376810	0.150402
802.568487	0.150585
802.760146	0.151026
802.951787	0.151037
803.143409	0.151029
803.335014	0.151191
803.526600	0.151024
803.718168	0.151188
803.909717	0.151225
804.101249	0.151207
804.292762	0.151486
804.484257	0.151337
804.675734	0.151534
804.867192	0.151530
805.058632	0.151324
805.250054	0.151616
805.441458	0.151846
805.632844	0.152013
805.824211	0.152217
806.015561	0.152262
806.206891	0.152635
806.398204	0.152945
806.589499	0.153248
806.780775	0.153367
806.972033	0.153518
807.163273	0.153470
807.354495	0.153842
807.545698	0.154040
807.736883	0.154118
807.928050	0.154137
808.119199	0.154184
808.310329	0.154336
808.501441	0.154625
808.692535	0.154691
808.883611	0.155045
809.074669	0.155162
809.265708	0.155462
809.456729	0.155923
809.647732	0.156560
809.838717	0.156838
810.029683	0.157152
810.220632	0.157539
810.411562	0.157913
810.602474	0.158114
810.793367	0.158382
810.984242	0.158549
811.175100	0.158594
811.365938	0.158735
811.556759	0.159092
811.747562	0.158987
811.938346	0.159047
812.129112	0.159073
812.319860	0.159390
812.510589	0.159356
812.701300	0.159318
812.891994	0.159565
813.082668	0.159473
813.273325	0.159644
813.463964	0.160022
813.654584	0.160250
813.845186	0.160432
814.035769	0.160437
814.226335	0.160833
814.416882	0.161285
814.607411	0.161268
814.797922	0.161549
814.988415	0.161423
815.178889	0.161597
815.369345	0.161642
815.559783	0.161743
815.750203	0.162159
815.940605	0.162299
816.130988	0.162280
816.321353	0.162542
816.511700	0.162698
816.702028	0.163117
816.892339	0.163295
817.082631	0.163896
817.272905	0.164213
817.463161	0.164452
817.653398	0.164494
817.843617	0.164908
818.033819	0.165266
818.224001	0.165500
818.414166	0.165674
818.604312	0.165822
818.794440	0.165813
818.984550	0.165994
819.174642	0.166002
819.364716	0.166263
819.554771	0.166337
819.744808	0.166335
819.934827	0.166408
820.124827	0.166594
820.314810	0.166768
820.504774	0.167004
820.694720	0.167328
820.884647	0.167585
821.074557	0.167921
821.264448	0.168264
821.454321	0.168488
821.644176	0.168569
821.834012	0.168632
822.023831	0.168929
822.213631	0.169137
822.403413	0.169395
822.593176	0.169599
822.782922	0.169687
822.972649	0.169501
823.162358	0.169845
823.352049	0.170113
823.541721	0.170353
823.731376	0.170756
823.921012	0.170832
824.110629	0.170818
824.300229	0.170857
824.489811	0.171248
824.679374	0.171941
824.868919	0.172200
825.058445	0.172915
825.247954	0.173365
825.437444	0.173459
825.626916	0.173997
825.816370	0.174219
826.005806	0.174651
826.195223	0.174896
826.384622	0.174982
826.574003	0.175028
826.763366	0.174972
826.952711	0.175113
827.142037	0.174981
827.331345	0.174878
827.520635	0.175219
827.709906	0.175520
827.899160	0.175607
828.088395	0.175578
828.277612	0.175651
828.466810	0.175937
828.655991	0.175935
828.845153	0.176335
829.034297	0.176510
829.223423	0.176595
829.412531	0.176614
829.601620	0.176647
829.790691	0.177128
829.979744	0.177476
830.168779	0.177591
830.357795	0.177799
830.546793	0.177803
830.735773	0.177980
830.924735	0.178303
831.113679	0.178404
831.302604	0.178534
831.491511	0.178569
831.680400	0.178544
831.869271	0.178362
832.058123	0.178527
832.246957	0.178890
832.435773	0.178999
832.624571	0.178885
832.813351	0.179185
833.002112	0.179219
833.190855	0.179288
833.379580	0.179400
833.568287	0.179544
833.756975	0.179674
833.945645	0.179675
834.134297	0.179872
834.322931	0.180132
834.511547	0.180287
834.700144	0.180693
834.888723	0.180951
835.077284	0.181580
835.265826	0.182074
835.454351	0.182475
835.642857	0.182870
835.831345	0.183236
836.019815	0.183761
836.208266	0.184142
836.396699	0.184520
836.585114	0.185106
836.773511	0.185198
836.961890	0.185356
837.150250	0.185715
837.338592	0.186317
837.526916	0.186613
837.715222	0.186748
837.903510	0.186985
838.091779	0.187227
838.280030	0.187188
838.468263	0.187640
838.656477	0.188126
838.844674	0.188320
839.032852	0.188331
839.221012	0.188751
839.409153	0.189091
839.597277	0.189540
839.785382	0.189799
839.973469	0.190064
840.161538	0.190098
840.349589	0.190431
840.537621	0.190451
840.725635	0.190773
840.913631	0.190815
841.101609	0.190837
841.289568	0.190518
841.477509	0.190733
841.665432	0.191146
841.853337	0.191350
842.041224	0.191551
842.229092	0.191994
842.416942	0.192170
842.604774	0.192585
842.792588	0.193052
842.980383	0.193691
843.168160	0.193846
843.355919	0.193921
843.543660	0.194321
843.731382	0.194357
843.919087	0.194667
844.106773	0.194945
844.294441	0.194981
844.482090	0.195128
844.669722	0.194979
844.857335	0.195288
845.044930	0.195880
845.232507	0.196144
845.420065	0.196586
845.607605	0.196581
845.795127	0.196653
845.982631	0.196775
846.170117	0.197321
846.357584	0.197752
846.545033	0.198023
846.732464	0.197895
846.919877	0.198160
847.107272	0.198525
847.294648	0.199177
847.482006	0.199660
847.669346	0.200244
847.856667	0.200703
848.043971	0.200787
848.231256	0.201243
848.418523	0.201519
848.605771	0.201742
848.793002	0.201866
848.980214	0.202094
849.167408	0.202593
849.354584	0.202604
849.541742	0.202328
849.728881	0.202722
849.916002	0.203002
850.103105	0.203294
850.290190	0.203311
850.477256	0.203353
850.664304	0.203516
850.851334	0.203511
851.038346	0.203723
851.225340	0.204002
851.412315	0.204345
851.599272	0.204516
851.786211	0.204931
851.973132	0.205161
852.160034	0.205468
852.346918	0.205544
852.533784	0.205577
852.720632	0.205745
852.907462	0.205877
853.094273	0.206171
853.281066	0.206037
853.467841	0.206169
853.654598	0.206703
853.841336	0.206884
854.028056	0.207410
854.214758	0.207811
854.401442	0.208372
854.588107	0.208753
854.774755	0.208718
854.961384	0.209322
855.147995	0.209584
855.334587	0.209898
855.521162	0.210157
855.707718	0.210252
855.894256	0.210348
856.080775	0.210721
856.267277	0.211085
856.453760	0.211676
856.640225	0.211806
856.826672	0.212134
857.013101	0.212266
857.199511	0.212842
857.385903	0.212778
857.572277	0.212954
857.758633	0.212824
857.944970	0.212963
858.131290	0.213288
858.317591	0.213573
858.503873	0.213903
858.690138	0.214146
858.876384	0.214104
859.062612	0.214638
859.248822	0.215035
859.435014	0.215311
859.621188	0.215636
859.807343	0.215764
859.993480	0.216066
860.179599	0.216287
860.365699	0.216418
860.551781	0.216711
860.737846	0.216745
860.923891	0.217084
861.109919	0.217629
861.295929	0.217926
861.481920	0.218066
861.667893	0.218243
861.853848	0.218576
862.039784	0.218640
862.225702	0.218769
862.411603	0.218981
862.597484	0.218940
862.783348	0.219018
862.969193	0.219258
863.155021	0.219487
863.340830	0.219616
863.526620	0.219630
863.712393	0.220300
863.898147	0.220838
864.083883	0.221336
864.269601	0.221657
864.455301	0.221839
864.640982	0.221661
864.826645	0.221872
865.012290	0.222104
865.197917	0.222063
865.383526	0.221938
865.569116	0.221589
865.754688	0.221696
865.940242	0.221894
866.125777	0.221854
866.311295	0.222086
866.496794	0.221966
866.682275	0.221775
866.867737	0.221663
867.053182	0.221843
867.238608	0.222323
867.424016	0.222070
867.609406	0.222267
867.794778	0.222435
867.980131	0.222693
868.165466	0.223018
868.350783	0.222999
868.536082	0.223223
868.721362	0.223378
868.906625	0.223131
869.091869	0.223640
869.277094	0.223866
869.462302	0.223834
869.647491	0.223840
869.832662	0.224104
870.017815	0.224741
870.202950	0.225292
870.388066	0.225165
870.573165	0.225526
870.758245	0.225396
870.943306	0.225304
871.128350	0.225657
871.313375	0.226224
871.498382	0.226397
871.683371	0.226746
871.868342	0.226963
872.053294	0.227530
872.238229	0.227945
872.423144	0.228294
872.608042	0.228798
872.792922	0.229259
872.977783	0.229401
873.162626	0.229782
873.347451	0.229700
873.532258	0.229834
873.717046	0.230460
873.901816	0.230327
874.086568	0.230762
874.271302	0.231231
874.456017	0.231314
874.640715	0.231304
874.825394	0.231439
875.010055	0.231902
875.194697	0.232250
875.379322	0.232175
875.563928	0.232677
875.748516	0.232587
875.933085	0.232383
876.117637	0.232637
876.302170	0.233018
876.486685	0.233128
876.671182	0.233392
876.855661	0.233406
877.040121	0.233319
877.224563	0.233796
877.408987	0.234298
877.593393	0.234829
877.777780	0.235006
877.962150	0.235027
878.146501	0.235005
878.330833	0.235117
878.515148	0.235333
878.699444	0.235416
878.883722	0.235191
879.067982	0.235069
879.252224	0.234654
879.436447	0.234997
879.620653	0.235017
879.804840	0.235332
879.989008	0.235221
880.173159	0.234834
880.357291	0.235143
880.541405	0.235391
880.725501	0.235730
880.909579	0.236160
881.093638	0.236041
881.277680	0.236393
881.461703	0.236529
881.645707	0.236779
881.829694	0.237348
882.013662	0.237165
882.197612	0.237608
882.381544	0.237576
882.565458	0.237472
882.749353	0.237288
882.933230	0.237158
883.117089	0.237339
883.300930	0.236749
883.484753	0.236585
883.668557	0.236829
883.852343	0.236474
884.036111	0.236485
884.219861	0.236726
884.403592	0.236855
884.587305	0.237117
884.771000	0.236679
884.954677	0.237527
885.138335	0.237423
885.321976	0.237331
885.505598	0.237449
885.689201	0.237101
885.872787	0.236804
886.056354	0.237114
886.239904	0.236638
886.423434	0.236566
886.606947	0.236005
886.790442	0.236371
886.973918	0.236447
887.157376	0.236070
887.340816	0.236588
887.524237	0.236708
887.707641	0.236708
887.891026	0.237293
888.074393	0.237505
888.257741	0.238118
888.441072	0.238366
888.624384	0.238356
888.807678	0.239150
888.990954	0.239171
889.174211	0.239198
889.357451	0.239137
889.540672	0.239077
889.723875	0.239543
889.907059	0.239151
890.090226	0.239144
890.273374	0.239404
890.456504	0.239201
890.639616	0.239148
890.822709	0.239114
891.005785	0.239014
891.188842	0.239302
891.371881	0.238923
891.554901	0.239087
891.737904	0.238902
891.920888	0.238682
892.103854	0.237971
892.286802	0.237952
892.469731	0.238084
892.652643	0.237988
892.835536	0.237089
893.018410	0.237125
893.201267	0.236971
893.384106	0.236661
893.566926	0.236631
893.749728	0.236609
893.932511	0.236311
894.115277	0.236002
894.298024	0.235703
894.480753	0.235667
894.663464	0.235421
894.846157	0.235167
895.028831	0.235000
895.211487	0.235210
895.394125	0.235369
895.576745	0.235521
895.759346	0.235331
895.941930	0.235546
896.124495	0.236039
896.307041	0.236297
896.489570	0.236467
896.672080	0.237251
896.854573	0.237125
897.037046	0.237258
897.219502	0.237091
897.401940	0.237383
897.584359	0.237637
897.766760	0.236910
897.949143	0.236605
898.131507	0.236373
898.313854	0.235603
898.496182	0.235580
898.678492	0.235501
898.860783	0.235086
899.043057	0.234735
899.225312	0.234017
899.407549	0.234312
899.589768	0.234440
899.771968	0.234544
899.954151	0.234133
900.136315	0.233834
900.318461	0.233597
900.500588	0.233559
900.682698	0.233440
900.864789	0.233532
901.046862	0.233243
901.228917	0.232557
901.410953	0.232010
901.592971	0.232335
901.774972	0.232021
901.956953	0.231751
902.138917	0.231886
902.320862	0.231907
902.502790	0.231785
902.684699	0.231602
902.866589	0.231535
903.048462	0.231545
903.230316	0.231074
903.412152	0.230624
903.593970	0.230785
903.775770	0.230566
903.957551	0.230464
904.139314	0.230495
904.321059	0.230396
904.502786	0.230814
904.684494	0.230907
904.866185	0.230701
905.047857	0.230964
905.229510	0.230788
905.411146	0.230822
905.592763	0.230449
905.774363	0.229927
905.955943	0.229794
906.137506	0.229424
906.319051	0.228747
906.500577	0.228913
906.682085	0.228454
906.863575	0.228483
907.045046	0.228100
907.226500	0.227878
907.407935	0.228155
907.589352	0.227911
907.770750	0.227558
907.952131	0.227514
908.133493	0.227502
908.314837	0.227383
908.496163	0.226645
908.677470	0.226020
908.858760	0.225752
909.040031	0.224784
909.221284	0.224648
909.402518	0.224101
909.583735	0.223619
909.764933	0.222979
909.946113	0.222317
910.127275	0.222063
910.308418	0.221980
910.489544	0.221201
910.670651	0.220839
910.851740	0.220724
911.032810	0.220356
911.213863	0.220028
911.394897	0.219842
911.575913	0.219960
911.756911	0.219626
911.937890	0.219616
912.118851	0.219309
912.299794	0.219313
912.480719	0.218810
912.661626	0.218589
912.842514	0.218535
913.023384	0.217766
913.204236	0.217289
913.385070	0.216522
913.565886	0.215852
913.746683	0.216145
913.927462	0.215807
914.108223	0.214805
914.288965	0.214329
914.469690	0.213674
914.650396	0.213310
914.831084	0.212463
915.011754	0.212852
915.192405	0.212653
915.373038	0.212036
915.553653	0.211824
915.734250	0.212130
915.914829	0.211785
916.095389	0.212020
916.275931	0.211761
916.456455	0.211886
916.636961	0.211353
916.817448	0.210895
916.997917	0.210533
917.178368	0.210008
917.358801	0.209481
917.539216	0.209617
917.719612	0.209150
917.899990	0.208692
918.080350	0.208663
918.260692	0.207962
918.441015	0.207585
918.621320	0.207625
918.801607	0.207318
918.981876	0.207122
919.162127	0.206306
919.342359	0.205521
919.522573	0.205594
919.702769	0.205348
919.882947	0.205111
920.063106	0.204965
920.243247	0.204814
920.423370	0.204844
920.603475	0.204031
920.783562	0.203963
920.963630	0.203806
921.143680	0.203655
921.323712	0.203256
921.503725	0.202858
921.683721	0.201596
921.863698	0.200894
922.043657	0.200292
922.223598	0.200041
922.403520	0.199327
922.583424	0.198531
922.763311	0.197455
922.943178	0.196397
923.123028	0.195974
923.302859	0.196284
923.482673	0.195474
923.662467	0.194348
923.842244	0.193958
924.022003	0.193365
924.201743	0.193393
924.381465	0.192519
924.561169	0.191821
924.740854	0.191400
924.920522	0.190839
925.100171	0.190874
925.279802	0.190909
925.459414	0.190100
925.639009	0.189656
925.818585	0.189077
925.998143	0.188772
926.177683	0.188759
926.357205	0.187954
926.536708	0.187745
926.716193	0.186560
926.895660	0.185731
927.075109	0.185290
927.254539	0.184517
927.433951	0.183964
927.613345	0.183863
927.792721	0.183568
927.972079	0.183422
928.151418	0.182511
928.330739	0.181557
928.510042	0.181250
928.689327	0.180978
928.868593	0.181235
929.047841	0.180618
929.227071	0.180179
929.406283	0.178703
929.585476	0.177682
929.764652	0.177218
929.943809	0.177438
930.122948	0.176568
930.302068	0.175843
930.481171	0.175072
930.660255	0.174118
930.839321	0.173686
931.018369	0.174068
931.197398	0.173699
931.376409	0.172826
931.555402	0.171783
931.734377	0.171080
931.913334	0.170588
932.092272	0.169493
932.271192	0.169390
932.450094	0.168290
932.628978	0.167314
932.807844	0.166602
932.986691	0.166082
933.165520	0.165615
933.344331	0.165289
933.523123	0.164912
933.701898	0.165125
933.880654	0.164633
934.059392	0.163901
934.238111	0.163259
934.416813	0.162794
934.595496	0.162098
934.774161	0.161650
934.952808	0.160761
935.131437	0.160060
935.310047	0.159733
935.488639	0.158491
935.667213	0.157672
935.845769	0.156988
936.024306	0.156361
936.202825	0.155718
936.381326	0.154875
936.559809	0.154843
936.738274	0.154838
936.916720	0.153915
937.095148	0.153898
937.273558	0.153437
937.451950	0.152986
937.630323	0.152850
937.808678	0.152373
937.987015	0.152757
938.165334	0.151024
938.343635	0.149797
938.521917	0.148954
938.700181	0.148459
938.878427	0.148708
939.056655	0.147852
939.234864	0.147287
939.413055	0.146294
939.591228	0.145378
939.769383	0.145483
939.947519	0.144688
940.125638	0.144183
940.303738	0.143816
940.481820	0.142167
940.659883	0.141811
940.837929	0.140648
941.015956	0.139987
941.193965	0.138323
941.371955	0.138878
941.549928	0.138768
941.727882	0.137884
941.905818	0.135817
942.083736	0.135954
942.261636	0.135050
942.439517	0.133971
942.617380	0.133784
942.795225	0.133998
942.973052	0.132201
943.150860	0.131124
943.328651	0.130598
943.506423	0.131685
943.684176	0.131019
943.861912	0.130404
944.039629	0.131066
944.217328	0.131191
944.395009	0.131067
944.572672	0.129977
944.750317	0.129956
944.927943	0.128700
945.105551	0.126507
945.283141	0.125232
945.460712	0.123957
945.638265	0.122939
945.815801	0.121599
945.993317	0.120350
946.170816	0.120368
946.348297	0.118496
946.525759	0.118589
946.703203	0.119781
946.880629	0.119947
947.058036	0.118679
947.235425	0.116815
947.412797	0.115597
947.590149	0.115156
947.767484	0.114285
947.944800	0.114862
948.122099	0.113219
948.299379	0.111708
948.476640	0.110720
948.653884	0.110844
948.831109	0.110800
949.008316	0.110696
949.185505	0.110156
949.362676	0.109827
949.539828	0.108450
949.716962	0.107946
949.894078	0.107586
950.071176	0.106827
950.248256	0.107886
950.425317	0.108635
950.602360	0.109397
950.779385	0.109841
950.956391	0.109892
951.133380	0.110119
951.310350	0.110961
951.487302	0.111673
951.664235	0.112567
951.841151	0.110889
952.018048	0.110159
952.194927	0.110185
952.371788	0.107698
952.548631	0.108713
952.725455	0.105907
952.902261	0.104600
953.079049	0.102559
953.255819	0.101423
953.432570	0.100715
953.609303	0.099339
953.786018	0.097347
953.962715	0.098349
954.139394	0.096000
954.316054	0.095571
954.492696	0.096051
954.669320	0.095128
954.845926	0.095129
955.022513	0.094235
955.199083	0.093363
955.375634	0.091732
955.552166	0.089816
955.728681	0.088211
955.905177	0.089071
956.081655	0.088562
956.258115	0.089857
956.434557	0.086662
956.610980	0.088987
956.787385	0.087256
956.963772	0.087406
957.140141	0.089221
957.316492	0.089560
957.492824	0.090730
957.669138	0.089873
957.845434	0.087687
958.021712	0.090708
958.197971	0.089362
958.374212	0.089192
958.550435	0.089258
958.726640	0.087046
958.902826	0.088513
959.078995	0.089268
959.255145	0.088230
959.431277	0.088640
959.607390	0.087246
959.783486	0.085513
959.959563	0.087122
960.135622	0.088867
960.311662	0.088055
960.487685	0.085754
960.663689	0.083727
960.839675	0.084130
961.015643	0.084815
961.191593	0.084538
961.367524	0.086594
961.543437	0.087711
961.719332	0.086396
961.895209	0.085256
962.071067	0.086850
962.246907	0.087185
962.422730	0.087022
962.598533	0.086146
962.774319	0.085965
962.950086	0.085756
963.125835	0.084441
963.301566	0.082896
963.477279	0.084902
963.652973	0.083747
963.828650	0.083534
964.004308	0.083154
964.179947	0.081653
964.355569	0.081317
964.531172	0.079704
964.706757	0.079559
964.882324	0.079651
965.057873	0.079883
965.233403	0.079273
965.408916	0.079845
965.584410	0.080768
965.759885	0.080943
965.935343	0.082031
966.110782	0.081277
966.286203	0.079915
966.461606	0.080673
966.636991	0.079523
966.812357	0.079918
966.987705	0.078820
967.163035	0.078089
967.338347	0.079568
967.513641	0.078386
967.688916	0.078606
967.864173	0.081629
968.039412	0.080341
968.214632	0.080819
968.389835	0.081452
968.565019	0.080300
968.740185	0.080740
968.915333	0.079158
969.090462	0.077880
969.265573	0.079168
969.440667	0.077603
969.615741	0.079624
969.790798	0.080816
969.965836	0.081588
970.140856	0.082117
970.315858	0.077611
970.490842	0.077763
970.665808	0.080146
970.840755	0.080582
971.015684	0.080670
971.190595	0.080105
971.365487	0.077407
971.540362	0.076393
971.715218	0.077118
971.890056	0.081400
972.064875	0.082003
972.239677	0.081423
972.414460	0.081193
972.589225	0.081306
972.763972	0.080901
972.938700	0.082282
973.113411	0.082482
973.288103	0.081898
973.462777	0.081521
973.637432	0.082221
973.812070	0.082400
973.986689	0.082286
974.161290	0.081567
974.335873	0.082655
974.510437	0.082983
974.684984	0.083679
974.859512	0.083376
975.034022	0.083099
975.208513	0.082643
975.382987	0.082142
975.557442	0.080403
975.731879	0.080618
975.906298	0.080036
976.080698	0.078765
976.255080	0.076251
976.429445	0.077625
976.603790	0.078697
976.778118	0.078670
976.952427	0.079062
977.126719	0.082481
977.300992	0.084612
977.475246	0.086087
977.649483	0.086029
977.823701	0.086724
977.997901	0.087337
978.172083	0.084926
978.346247	0.084588
978.520392	0.085962
978.694519	0.081926
978.868628	0.077461
979.042719	0.073561
979.216791	0.074969
979.390845	0.074849
979.564882	0.074258
979.738899	0.074743
979.912899	0.074813
980.086880	0.074353
980.260843	0.076107
980.434788	0.078228
980.608715	0.080410
980.782623	0.079003
980.956514	0.078120
981.130386	0.078159
981.304240	0.079082
981.478075	0.079692
981.651892	0.077237
981.825692	0.075539
981.999472	0.075685
982.173235	0.076522
982.346980	0.077909
982.520706	0.078614
982.694414	0.078202
982.868104	0.077916
983.041775	0.076725
983.215428	0.077626
983.389064	0.080550
983.562680	0.082222
983.736279	0.083310
983.909860	0.083910
984.083422	0.084779
984.256966	0.084742
984.430491	0.085353
984.603999	0.085352
984.777488	0.083791
984.950959	0.083529
985.124412	0.082059
985.297847	0.079935
985.471263	0.079611
985.644661	0.080324
985.818041	0.079557
985.991403	0.079599
986.164747	0.081270
986.338072	0.082354
986.511379	0.083165
986.684668	0.083224
986.857938	0.083120
987.031191	0.082846
987.204425	0.082490
987.377641	0.082828
987.550839	0.082886
987.724018	0.083161
987.897179	0.083283
988.070322	0.081096
988.243447	0.081613
988.416554	0.082044
988.589642	0.081830
988.762712	0.081890
988.935764	0.081092
989.108798	0.081724
989.281813	0.080859
989.454811	0.082564
989.627790	0.082301
989.800751	0.081175
989.973693	0.080620
990.146617	0.079911
990.319524	0.080668
990.492412	0.081455
990.665281	0.080896
990.838133	0.081272
991.010966	0.081563
991.183781	0.081025
991.356578	0.082282
991.529356	0.084174
991.702117	0.085463
991.874859	0.084906
992.047583	0.085411
992.220288	0.084681
992.392976	0.084414
992.565645	0.082590
992.738296	0.083042
992.910929	0.082268
993.083543	0.083761
993.256139	0.082949
993.428718	0.081512
993.601277	0.081154
993.773819	0.081748
993.946342	0.082268
994.118848	0.082496
994.291335	0.081465
994.463803	0.080546
994.636254	0.077694
994.808686	0.078125
994.981100	0.079346
995.153496	0.079451
995.325874	0.078663
995.498233	0.077688
995.670574	0.078687
995.842897	0.081516
996.015202	0.083816
996.187488	0.083712
996.359757	0.082995
996.532007	0.082378
996.704239	0.081597
996.876452	0.081366
997.048648	0.082166
997.220825	0.082544
997.392984	0.081359
997.565124	0.080306
997.737247	0.079031
997.909351	0.080681
998.081437	0.081426
998.253505	0.082452
998.425554	0.082658
998.597586	0.081950
998.769599	0.078653
998.941594	0.078322
999.113571	0.077485
999.285529	0.078233
999.457469	0.077341
999.629391	0.076616
999.801295	0.075392
999.973181	0.074819
1000.145048	0.075822
1000.316897	0.080092
1000.488728	0.080156
1000.660541	0.079042
1000.832335	0.079973
1001.004111	0.080396
1001.175869	0.080271
1001.347609	0.082791
1001.519331	0.083534
1001.691034	0.083469
1001.862719	0.080264
1002.034386	0.078245
1002.206035	0.080957
1002.377665	0.081564
1002.549277	0.081253
1002.720871	0.081319
1002.892447	0.080792
1003.064004	0.081044
1003.235544	0.080017
1003.407065	0.080045
1003.578568	0.082092
1003.750052	0.081257
1003.921519	0.080133
1004.092967	0.078910
1004.264397	0.080959
1004.435809	0.079091
1004.607202	0.079902
1004.778577	0.078822
1004.949934	0.079491
1005.121273	0.079240
1005.292594	0.080001
1005.463896	0.079032
1005.635180	0.081600
1005.806446	0.078926
1005.977694	0.079334
1006.148923	0.078442
1006.320135	0.079864
1006.491328	0.081119
1006.662503	0.082207
1006.833659	0.080091
1007.004798	0.081131
1007.175918	0.080161
1007.347020	0.080277
1007.518103	0.081626
1007.689169	0.082569
1007.860216	0.081348
1008.031245	0.080054
1008.202256	0.079706
1008.373248	0.080645
1008.544223	0.080917
1008.715179	0.080010
1008.886117	0.079597
1009.057036	0.079421
1009.227938	0.078963
1009.398821	0.080728
1009.569686	0.080766
1009.740533	0.080379
1009.911361	0.081392
1010.082172	0.080074
1010.252964	0.079723
1010.423738	0.079938
1010.594493	0.079447
1010.765231	0.079072
1010.935950	0.077676
1011.106651	0.077591
1011.277334	0.078073
1011.447998	0.075925
1011.618645	0.077579
1011.789273	0.078632
1011.959882	0.078524
1012.130474	0.077401
1012.301048	0.076642
1012.471603	0.075811
1012.642140	0.073869
1012.812658	0.073456
1012.983159	0.075424
1013.153641	0.076029
1013.324105	0.075215
1013.494551	0.075869
1013.664979	0.075980
1013.835388	0.077066
1014.005779	0.079344
1014.176152	0.081795
1014.346507	0.082306
1014.516843	0.080598
1014.687162	0.078952
1014.857462	0.080813
1015.027744	0.081839
1015.198007	0.081441
1015.368252	0.081241
1015.538480	0.081313
1015.708689	0.081133
1015.878879	0.080285
1016.049052	0.081585
1016.219206	0.082997
1016.389342	0.079405
1016.559460	0.078675
1016.729559	0.078272
1016.899641	0.078281
1017.069704	0.075993
1017.239749	0.074508
1017.409775	0.074644
1017.579784	0.073907
1017.749774	0.073253
1017.919746	0.073679
1018.089700	0.074762
1018.259635	0.075353
1018.429553	0.073865
1018.599452	0.074308
1018.769333	0.075794
1018.939195	0.074275
1019.109040	0.074469
1019.278866	0.074849
1019.448674	0.076622
1019.618464	0.074743
1019.788235	0.074779
1019.957989	0.075554
1020.127724	0.076525
1020.297441	0.077000
1020.467139	0.077995
1020.636820	0.079619
1020.806482	0.079023
1020.976126	0.078162
1021.145752	0.078398
1021.315359	0.078376
1021.484948	0.079192
1021.654519	0.079130
1021.824072	0.077349
1021.993607	0.077065
1022.163123	0.074352
1022.332621	0.075404
1022.502101	0.076116
1022.671563	0.075938
1022.841007	0.076377
1023.010432	0.074695
1023.179839	0.075587
1023.349228	0.076338
1023.518598	0.078521
1023.687951	0.079254
1023.857285	0.077676
1024.026601	0.076986
1024.195899	0.077679
1024.365178	0.076675
1024.534439	0.078016
1024.703682	0.076343
1024.872907	0.075118
1025.042114	0.072684
1025.211302	0.073314
1025.380472	0.074132
1025.549624	0.072588
1025.718758	0.074100
1025.887873	0.075334
1026.056970	0.075030
1026.226049	0.074395
1026.395110	0.076812
1026.564153	0.078628
1026.733177	0.078098
1026.902183	0.078137
1027.071171	0.078627
1027.240141	0.076968
1027.409092	0.077182
1027.578026	0.077535
1027.746940	0.078170
1027.915837	0.077973
1028.084716	0.075847
1028.253576	0.075247
1028.422418	0.075535
1028.591242	0.076269
1028.760048	0.076263
1028.928835	0.075191
1029.097604	0.074847
1029.266355	0.075881
1029.435088	0.074100
1029.603803	0.075143
1029.772499	0.076354
1029.941177	0.076592
1030.109837	0.076657
1030.278478	0.076014
1030.447102	0.077369
1030.615707	0.077884
1030.784294	0.078230
1030.952863	0.079902
1031.121413	0.081265
1031.289945	0.081676
1031.458460	0.080178
1031.626955	0.080444
1031.795433	0.081176
1031.963892	0.081230
1032.132334	0.078995
1032.300756	0.078799
1032.469161	0.078183
1032.637548	0.077065
1032.805916	0.076451
1032.974266	0.077087
1033.142598	0.076948
1033.310911	0.075933
1033.479207	0.075330
1033.647484	0.077606
1033.815743	0.077580
1033.983983	0.077784
1034.152206	0.077921
1034.320410	0.077836
1034.488596	0.077369
1034.656764	0.078308
1034.824914	0.079540
1034.993045	0.079878
1035.161158	0.079572
1035.329253	0.078245
1035.497330	0.077391
1035.665388	0.076434
1035.833428	0.077349
1036.001450	0.078310
1036.169454	0.077473
1036.337440	0.077738
1036.505407	0.077452
1036.673356	0.076227
1036.841287	0.077708
1037.009200	0.079650
1037.177094	0.079649
1037.344970	0.079163
1037.512828	0.078232
1037.680668	0.077851
1037.848489	0.075186
1038.016293	0.075025
1038.184078	0.075760
1038.351845	0.074970
1038.519593	0.073585
1038.687324	0.073876
1038.855036	0.073146
1039.022730	0.072637
1039.190406	0.073058
1039.358063	0.074918
1039.525702	0.074439
1039.693323	0.073697
1039.860926	0.074107
1040.028511	0.073430
1040.196077	0.072861
1040.363625	0.072718
1040.531155	0.072410
1040.698667	0.072253
1040.866161	0.070911
1041.033636	0.070722
1041.201093	0.070883
1041.368532	0.070124
1041.535952	0.068893
1041.703355	0.069342
1041.870739	0.068198
1042.038105	0.068201
1042.205452	0.067516
1042.372782	0.068572
1042.540093	0.070040
1042.707386	0.071313
1042.874661	0.072752
1043.041918	0.074912
1043.209156	0.075669
1043.376376	0.077492
1043.543578	0.079431
1043.710762	0.080793
1043.877927	0.080338
1044.045074	0.079490
1044.212203	0.079611
1044.379314	0.077974
1044.546407	0.077344
1044.713481	0.076747
1044.880537	0.075769
1045.047575	0.075087
1045.214595	0.075362
1045.381596	0.075546
1045.548579	0.075995
1045.715544	0.075313
1045.882491	0.076124
1046.049420	0.075402
1046.216330	0.075647
1046.383222	0.077147
1046.550096	0.077438
1046.716951	0.076911
1046.883789	0.078382
1047.050608	0.077411
1047.217409	0.077325
1047.384192	0.076809
1047.550956	0.078634
1047.717703	0.076936
1047.884431	0.074777
1048.051140	0.073381
1048.217832	0.072488
1048.384505	0.072471
1048.551161	0.073119
1048.717798	0.072850
1048.884416	0.072370
1049.051017	0.072380
1049.217599	0.074886
1049.384163	0.076343
1049.550709	0.077173
1049.717237	0.078540
1049.883746	0.079442
1050.050237	0.078995
1050.216710	0.078569
1050.383165	0.079373
1050.549601	0.079712
1050.716019	0.079277
1050.882420	0.078261
1051.048801	0.079828
1051.215165	0.079253
1051.381510	0.076435
1051.547837	0.076201
1051.714146	0.077270
1051.880437	0.077135
1052.046709	0.076371
1052.212964	0.075953
1052.379200	0.076198
1052.545417	0.074223
1052.711617	0.074014
1052.877798	0.075720
1053.043961	0.075723
1053.210106	0.076512
1053.376233	0.077406
1053.542341	0.076604
1053.708432	0.076737
1053.874504	0.077149
1054.040557	0.077840
1054.206593	0.077357
1054.372610	0.076940
1054.538609	0.077717
1054.704590	0.077893
1054.870553	0.076912
1055.036497	0.079127
1055.202424	0.077663
1055.368331	0.077024
1055.534221	0.075139
1055.700093	0.075173
1055.865946	0.075212
1056.031781	0.074587
1056.197598	0.073826
1056.363397	0.075150
1056.529177	0.072786
1056.694939	0.074796
1056.860683	0.075154
1057.026409	0.075964
1057.192116	0.077987
1057.357806	0.079205
1057.523477	0.080708
1057.689130	0.080585
1057.854764	0.078052
1058.020381	0.077607
1058.185979	0.076178
1058.351559	0.076260
1058.517120	0.078119
1058.682664	0.078095
1058.848189	0.077108
1059.013696	0.076871
1059.179185	0.076599
1059.344656	0.077452
1059.510108	0.078665
1059.675542	0.080190
1059.840958	0.079469
1060.006356	0.077349
1060.171735	0.077419
1060.337096	0.075934
1060.502439	0.074554
1060.667764	0.075046
1060.833071	0.075868
1060.998359	0.074227
1061.163629	0.073386
1061.328881	0.075026
1061.494115	0.074859
1061.659330	0.073265
1061.824527	0.074398
1061.989706	0.074391
1062.154867	0.074134
1062.320010	0.073598
1062.485134	0.074985
1062.650240	0.074628
1062.815328	0.074794
1062.980398	0.074758
1063.145449	0.074756
1063.310482	0.074945
1063.475497	0.074034
1063.640494	0.073390
1063.805473	0.074118
1063.970433	0.072063
1064.135375	0.073423
1064.300299	0.071765
1064.465204	0.073195
1064.630092	0.072612
1064.794961	0.073571
1064.959812	0.073782
1065.124645	0.075257
1065.289459	0.073302
1065.454256	0.075709
1065.619034	0.075510
1065.783793	0.075630
1065.948535	0.077081
1066.113258	0.079829
1066.277964	0.077440
1066.442651	0.078542
1066.607319	0.078186
1066.771970	0.078147
1066.936602	0.077588
1067.101216	0.077333
1067.265812	0.078087
1067.430389	0.076858
1067.594949	0.075068
1067.759490	0.076090
1067.924013	0.074075
1068.088518	0.073714
1068.253004	0.076145
1068.417472	0.075629
1068.581922	0.074693
1068.746354	0.074092
1068.910768	0.075098
1069.075163	0.075214
1069.239540	0.076730
1069.403899	0.077530
1069.568240	0.077675
1069.732562	0.076339
1069.896866	0.078234
1070.061152	0.076540
1070.225420	0.076222
1070.389670	0.073155
1070.553901	0.072021
1070.718114	0.069986
1070.882309	0.071535
1071.046486	0.069879
1071.210644	0.069969
1071.374784	0.069195
1071.538906	0.069576
1071.703010	0.070155
1071.867096	0.073218
1072.031163	0.075873
1072.195212	0.077075
1072.359243	0.077353
1072.523256	0.080165
1072.687250	0.080002
1072.851226	0.078301
1073.015184	0.082087
1073.179124	0.082390
1073.343045	0.080428
1073.506949	0.078955
1073.670834	0.077836
1073.834701	0.078434
1073.998549	0.079092
1074.162380	0.077563
1074.326192	0.080964
1074.489986	0.079433
1074.653761	0.078311
1074.817519	0.078401
1074.981258	0.080086
1075.144979	0.080810
1075.308682	0.081257
1075.472367	0.077908
1075.636033	0.080589
1075.799681	0.078341
1075.963311	0.079459
1076.126923	0.080339
1076.290516	0.083787
1076.454092	0.082289
1076.617649	0.082548
1076.781187	0.081176
1076.944708	0.081697
1077.108210	0.080582
1077.271695	0.083423
1077.435160	0.080051
1077.598608	0.080869
1077.762038	0.077916
1077.925449	0.077527
1078.088842	0.076617
1078.252217	0.077259
1078.415573	0.076686
1078.578912	0.074922
1078.742232	0.069762
1078.905534	0.073191
1079.068817	0.072188
1079.232083	0.070310
1079.395330	0.070006
1079.558559	0.069907
1079.721770	0.069763
1079.884962	0.072794
1080.048136	0.073735
1080.211293	0.076965
1080.374430	0.076461
1080.537550	0.077516
1080.700651	0.078504
1080.863735	0.080686
1081.026800	0.081524
1081.189846	0.081065
1081.352875	0.078051
1081.515885	0.081332
1081.678877	0.081761
1081.841851	0.082021
1082.004807	0.081613
1082.167744	0.082205
1082.330663	0.080849
1082.493564	0.077372
1082.656447	0.078123
1082.819312	0.079429
1082.982158	0.079024
1083.144986	0.079195
1083.307796	0.078774
1083.470587	0.076503
1083.633361	0.077252
1083.796116	0.075933
1083.958853	0.077541
1084.121571	0.076224
1084.284272	0.076347
1084.446954	0.076865
1084.609618	0.076220
1084.772264	0.074882
1084.934892	0.076321
1085.097501	0.074189
1085.260092	0.074746
1085.422665	0.078173
1085.585220	0.077795
1085.747756	0.077327
1085.910274	0.076083
1086.072774	0.076140
1086.235256	0.079067
1086.397720	0.080247
1086.560165	0.082329
1086.722592	0.081084
1086.885001	0.078972
1087.047392	0.078077
1087.209764	0.077285
1087.372119	0.076716
1087.534455	0.073774
1087.696772	0.069834
1087.859072	0.070412
1088.021353	0.072907
1088.183616	0.074065
1088.345861	0.075545
1088.508088	0.077970
1088.670296	0.079428
1088.832486	0.076559
1088.994658	0.078030
1089.156812	0.080540
1089.318948	0.079541
1089.481065	0.076837
1089.643164	0.075829
1089.805245	0.074165
1089.967308	0.072636
1090.129352	0.071229
1090.291378	0.075231
1090.453386	0.075602
1090.615376	0.074241
1090.777347	0.073076
1090.939301	0.070498
1091.101236	0.070395
1091.263153	0.070228
1091.425051	0.071230
1091.586932	0.074715
1091.748794	0.071025
1091.910638	0.073871
1092.072463	0.073101
1092.234271	0.074859
1092.396060	0.078032
1092.557831	0.079775
1092.719584	0.082920
1092.881319	0.079317
1093.043035	0.079008
1093.204733	0.081728
1093.366413	0.077715
1093.528075	0.079566
1093.689718	0.077874
1093.851343	0.076350
1094.012950	0.075675
1094.174539	0.075029
1094.336110	0.079567
1094.497662	0.076727
1094.659196	0.076981
1094.820712	0.077443
1094.982210	0.077882
1095.143689	0.081198
1095.305151	0.084673
1095.466594	0.083383
1095.628018	0.080382
1095.789425	0.077854
1095.950813	0.077573
1096.112183	0.075207
1096.273535	0.076055
1096.434869	0.074567
1096.596184	0.073231
1096.757482	0.068768
1096.918761	0.069777
1097.080021	0.071915
1097.241264	0.069687
1097.402488	0.070873
1097.563694	0.073083
1097.724882	0.074265
1097.886052	0.073349
1098.047203	0.071462
1098.208336	0.072909
1098.369451	0.073159
1098.530548	0.071850
1098.691627	0.075277
1098.852687	0.075172
1099.013729	0.074483
1099.174753	0.072955
1099.335758	0.075466
1099.496746	0.076833
1099.657715	0.079694
1099.818666	0.079197
1099.979599	0.078577
1100.140513	0.080969
1100.301409	0.080292
1100.462287	0.082372
1100.623147	0.080600
1100.783989	0.080589
1100.944812	0.077275
1101.105617	0.076278
1101.266404	0.075537
1101.427173	0.078228
1101.587923	0.076335
1101.748656	0.077375
1101.909370	0.072209
1102.070066	0.074933
1102.230743	0.074296
1102.391403	0.078890
1102.552044	0.077811
1102.712667	0.077258
1102.873271	0.076985
1103.033858	0.076932
1103.194426	0.075978
1103.354976	0.076860
1103.515508	0.077536
1103.676021	0.077539
1103.836517	0.074966
1103.996994	0.075131
1104.157453	0.079595
1104.317893	0.079585
1104.478316	0.081591
1104.638720	0.082549
1104.799106	0.087465
1104.959474	0.086475
1105.119823	0.082816
1105.280155	0.081072
1105.440468	0.079504
1105.600763	0.075115
1105.761039	0.074672
1105.921298	0.074224
1106.081538	0.073137
1106.241760	0.070937
1106.401964	0.067958
1106.562149	0.073392
1106.722316	0.073976
1106.882465	0.073087
1107.042596	0.076591
1107.202709	0.078190
1107.362803	0.079630
1107.522879	0.081554
1107.682937	0.081524
1107.842977	0.082529
1108.002999	0.079899
1108.163002	0.083285
1108.322987	0.085501
1108.482954	0.083322
1108.642902	0.078161
1108.802833	0.072454
1108.962745	0.072558
1109.122639	0.070815
1109.282515	0.070409
1109.442372	0.067616
1109.602211	0.066532
1109.762032	0.062365
1109.921835	0.061740
1110.081620	0.066860
1110.241386	0.068773
1110.401134	0.064219
1110.560864	0.065256
1110.720576	0.067030
1110.880269	0.071609
1111.039945	0.072072
1111.199602	0.076022
1111.359240	0.073806
1111.518861	0.071424
1111.678463	0.072336
1111.838047	0.075141
1111.997613	0.076204
1112.157161	0.077133
1112.316690	0.075191
1112.476202	0.074944
1112.635695	0.073691
1112.795169	0.079132
1112.954626	0.078231
1113.114064	0.077636
1113.273484	0.076585
1113.432886	0.075601
1113.592270	0.076325
1113.751635	0.077369
1113.910983	0.074436
1114.070312	0.074064
1114.229622	0.072825
1114.388915	0.071922
1114.548189	0.073514
1114.707445	0.073469
1114.866683	0.072714
1115.025903	0.070622
1115.185104	0.067942
1115.344287	0.070892
1115.503452	0.072039
1115.662599	0.071303
1115.821727	0.074993
1115.980838	0.075685
1116.139930	0.079467
1116.299004	0.081072
1116.458059	0.081236
1116.617097	0.080774
1116.776116	0.078698
1116.935117	0.083109
1117.094099	0.083202
1117.253064	0.082661
1117.412010	0.077344
1117.570938	0.074551
1117.729848	0.076196
1117.888740	0.076647
1118.047613	0.078476
1118.206468	0.076244
1118.365305	0.073557
1118.524124	0.077218
1118.682924	0.075834
1118.841707	0.080452
1119.000471	0.080532
1119.159216	0.081609
1119.317944	0.085434
1119.476653	0.085596
1119.635344	0.089323
1119.794017	0.087136
1119.952672	0.084876
1120.111308	0.088947
1120.269927	0.084815
1120.428527	0.083797
1120.587108	0.076130
1120.745672	0.074968
1120.904217	0.078881
1121.062744	0.081034
1121.221253	0.080375
1121.379744	0.076707
1121.538216	0.071291
1121.696671	0.072646
1121.855107	0.068874
1122.013524	0.075419
1122.171924	0.071897
1122.330305	0.068454
1122.488668	0.066772
1122.647013	0.066953
1122.805340	0.071092
1122.963648	0.071556
1123.121938	0.076589
1123.280210	0.077553
1123.438464	0.073783
1123.596700	0.072471
1123.754917	0.068512
1123.913116	0.067565
1124.071297	0.068754
1124.229459	0.065238
1124.387604	0.063531
1124.545730	0.062062
1124.703838	0.064674
1124.861928	0.067303
1125.019999	0.073896
1125.178052	0.081527
1125.336088	0.079933
1125.494104	0.079079
1125.652103	0.078311
1125.810083	0.078977
1125.968045	0.078282
1126.125989	0.079285
1126.283915	0.079355
1126.441823	0.075364
1126.599712	0.079404
1126.757583	0.079604
1126.915436	0.076639
1127.073270	0.077709
1127.231087	0.075547
1127.388885	0.074381
1127.546665	0.070587
1127.704426	0.069726
1127.862170	0.070693
1128.019895	0.064203
1128.177602	0.064620
1128.335291	0.070137
1128.492961	0.075785
1128.650614	0.074208
1128.808248	0.074484
1128.965864	0.077250
1129.123461	0.073282
1129.281041	0.069381
1129.438602	0.065883
1129.596145	0.064045
1129.753670	0.062954
1129.911176	0.052690
1130.068665	0.057196
1130.226135	0.056226
1130.383587	0.056982
1130.541020	0.061842
1130.698436	0.065747
1130.855833	0.070573
1131.013212	0.075584
1131.170573	0.074318
1131.327915	0.074945
1131.485239	0.075744
1131.642545	0.075946
1131.799833	0.078581
1131.957103	0.074630
1132.114354	0.072192
1132.271588	0.070154
1132.428803	0.065422
1132.585999	0.062587
1132.743178	0.069832
1132.900338	0.068794
1133.057480	0.069285
1133.214604	0.065827
1133.371710	0.069110
1133.528797	0.068676
1133.685866	0.068984
1133.842917	0.070862
1133.999950	0.071433
1134.156964	0.067078
1134.313960	0.066311
1134.470938	0.068024
1134.627898	0.066561
1134.784840	0.061383
1134.941763	0.062141
1135.098668	0.060566
1135.255555	0.062342
1135.412424	0.067254
1135.569274	0.072650
1135.726107	0.073187
1135.882921	0.071615
1136.039716	0.072215
1136.196494	0.079626
1136.353253	0.077631
1136.509995	0.075250
1136.666717	0.076273
1136.823422	0.072335
1136.980109	0.070274
1137.136777	0.073625
1137.293427	0.070187
1137.450059	0.072274
1137.606672	0.066749
1137.763267	0.070828
1137.919844	0.077213
1138.076403	0.071713
1138.232944	0.071343
1138.389466	0.071576
1138.545971	0.065306
1138.702457	0.065916
1138.858924	0.060427
1139.015374	0.058023
1139.171805	0.055592
1139.328218	0.050286
1139.484613	0.049070
1139.640990	0.048067
1139.797348	0.046257
1139.953688	0.049943
1140.110010	0.054184
1140.266314	0.057884
1140.422600	0.063979
1140.578867	0.062703
1140.735116	0.057355
1140.891347	0.059450
1141.047559	0.058719
1141.203754	0.056326
1141.359930	0.057047
1141.516088	0.051200
1141.672228	0.048918
1141.828349	0.049018
1141.984452	0.052391
1142.140537	0.055779
1142.296604	0.064444
1142.452653	0.067448
1142.608683	0.065295
1142.764695	0.067460
1142.920689	0.072132
1143.076665	0.074839
1143.232622	0.075429
1143.388562	0.071692
1143.544483	0.071750
1143.700385	0.066148
1143.856270	0.065288
1144.012136	0.066429
1144.167985	0.060080
1144.323814	0.053111
1144.479626	0.057225
1144.635420	0.059973
1144.791195	0.064187
1144.946952	0.063384
1145.102691	0.065945
1145.258411	0.067317
1145.414113	0.070157
1145.569798	0.072800
1145.725463	0.080055
1145.881111	0.079452
1146.036741	0.075461
1146.192352	0.064610
1146.347945	0.068626
1146.503519	0.064902
1146.659076	0.061559
1146.814614	0.062410
1146.970134	0.063202
1147.125636	0.064801
1147.281120	0.064382
1147.436585	0.062467
1147.592032	0.067783
1147.747461	0.065797
1147.902872	0.070045
1148.058265	0.070526
1148.213639	0.065644
1148.368995	0.070033
1148.524333	0.065074
1148.679653	0.057708
1148.834954	0.062510
1148.990237	0.066754
1149.145502	0.063611
1149.300749	0.059444
1149.455977	0.059156
1149.611188	0.064886
1149.766380	0.060086
1149.921553	0.056265
1150.076709	0.061160
1150.231846	0.059229
1150.386966	0.056017
1150.542066	0.065910
1150.697149	0.063223
1150.852214	0.061529
1151.007260	0.057867
1151.162288	0.056414
1151.317298	0.062649
1151.472289	0.059706
1151.627263	0.048576
1151.782218	0.050568
1151.937155	0.045849
1152.092073	0.048832
1152.246974	0.049871
1152.401856	0.051324
1152.556720	0.053465
1152.711566	0.049744
1152.866393	0.053017
1153.021203	0.059988
1153.175994	0.057239
1153.330767	0.053953
1153.485521	0.046914
1153.640258	0.045146
1153.794976	0.042979
1153.949676	0.045038
1154.104358	0.051931
1154.259021	0.047270
1154.413667	0.045761
1154.568294	0.051420
1154.722903	0.049407
1154.877493	0.053113
1155.032066	0.052890
1155.186620	0.054379
1155.341156	0.049835
1155.495674	0.047295
1155.650173	0.056115
1155.804654	0.059277
1155.959118	0.054936
1156.113562	0.058800
1156.267989	0.057460
1156.422397	0.057409
1156.576788	0.054333
1156.731160	0.049603
1156.885513	0.040273
1157.039849	0.035376
1157.194166	0.035258
1157.348465	0.027731
1157.502746	0.023245
1157.657009	0.027465
1157.811253	0.033036
1157.965479	0.032966
1158.119687	0.031008
1158.273877	0.041655
1158.428048	0.038018
1158.582201	0.040400
1158.736337	0.049002
1158.890453	0.049113
1159.044552	0.047882
1159.198632	0.044841
1159.352694	0.045239
1159.506738	0.057390
1159.660764	0.047892
1159.814771	0.048587
1159.968761	0.041413
1160.122732	0.038435
1160.276685	0.045479
1160.430619	0.038050
1160.584535	0.034051
1160.738434	0.037986
1160.892313	0.030396
1161.046175	0.026269
1161.200019	0.028447
1161.353844	0.032035
1161.507651	0.032104
1161.661440	0.029423
1161.815210	0.041740
1161.968962	0.044027
1162.122697	0.039473
1162.276412	0.039938
1162.430110	0.048228
1162.583789	0.044894
1162.737451	0.045317
1162.891094	0.046989
1163.044718	0.051948
1163.198325	0.040911
1163.351913	0.040271
1163.505483	0.038933
1163.659035	0.035051
1163.812569	0.039531
1163.966084	0.042402
1164.119581	0.043182
1164.273060	0.043281
1164.426521	0.039607
1164.579964	0.046790
1164.733388	0.047099
1164.886794	0.052764
1165.040182	0.060787
1165.193551	0.059307
1165.346903	0.057204
1165.500236	0.054306
1165.653551	0.053157
1165.806848	0.049520
1165.960126	0.042558
1166.113386	0.048864
1166.266628	0.047727
1166.419852	0.046549
1166.573058	0.037207
1166.726245	0.039788
1166.879414	0.041479
1167.032565	0.043543
1167.185698	0.043488
1167.338812	0.046063
1167.491909	0.045589
1167.644987	0.051203
1167.798046	0.050540
1167.951088	0.054756
1168.104111	0.051422
1168.257117	0.047162
1168.410103	0.046424
1168.563072	0.051944
1168.716023	0.056659
1168.868955	0.053850
1169.021869	0.052460
1169.174765	0.054928
1169.327642	0.058587
1169.480501	0.058418
1169.633343	0.061047
1169.786165	0.058922
1169.938970	0.055057
1170.091757	0.058160
1170.244525	0.060928
1170.397275	0.049710
1170.550007	0.043868
1170.702720	0.043917
1170.855415	0.044819
1171.008092	0.052092
1171.160751	0.059686
1171.313392	0.065824
1171.466014	0.029252
1171.618619	0.104529
1171.771205	0.104529
1171.923772	0.104529
