sample name	sample
index	548
start time	 03-15-2021  11:25:12 AM


Wavelength (nm)	Absorbance
494.344910	-0.228072
494.563924	-0.228072
494.782919	-0.228072
495.001897	-0.074382
495.220856	-0.286555
495.439797	-0.162323
495.658719	-0.200580
495.877624	-0.102624
496.096510	-0.110462
496.315378	0.015285
496.534227	0.036852
496.753059	0.585764
496.971872	1.104628
497.190667	0.123089
497.409444	0.095411
497.628203	0.095319
497.846943	0.093107
498.065665	0.097122
498.284369	0.094867
498.503055	0.095027
498.721723	0.095338
498.940372	0.094328
499.159003	0.094294
499.377616	0.095343
499.596210	0.095327
499.814787	0.095473
500.033345	0.092710
500.251885	0.093228
500.470406	0.091583
500.688910	0.090147
500.907395	0.090140
501.125862	0.090839
501.344311	0.089416
501.562742	0.089804
501.781154	0.089466
501.999548	0.090018
502.217924	0.089820
502.436282	0.089754
502.654621	0.089622
502.872942	0.089583
503.091245	0.089368
503.309530	0.089767
503.527797	0.089366
503.746045	0.088756
503.964275	0.088288
504.182487	0.087555
504.400681	0.088254
504.618856	0.088230
504.837013	0.088628
505.055152	0.088715
505.273273	0.089458
505.491376	0.089695
505.709460	0.090879
505.927526	0.091164
506.145574	0.091979
506.363604	0.091297
506.581615	0.091406
506.799608	0.091079
507.017583	0.091460
507.235540	0.091661
507.453478	0.091391
507.671399	0.090893
507.889301	0.092327
508.107185	0.091741
508.325050	0.092689
508.542898	0.093871
508.760727	0.094306
508.978538	0.093748
509.196330	0.093678
509.414105	0.094743
509.631861	0.095440
509.849599	0.094407
510.067319	0.095291
510.285021	0.094978
510.502704	0.095096
510.720369	0.095041
510.938016	0.095326
511.155645	0.096113
511.373255	0.095034
511.590848	0.095149
511.808422	0.095516
512.025977	0.095756
512.243515	0.096586
512.461034	0.096028
512.678536	0.096701
512.896018	0.096104
513.113483	0.095613
513.330930	0.097024
513.548358	0.096086
513.765768	0.096941
513.983160	0.096789
514.200533	0.096600
514.417889	0.096841
514.635226	0.097234
514.852545	0.098668
515.069845	0.099140
515.287128	0.098392
515.504392	0.098818
515.721638	0.098268
515.938866	0.098448
516.156075	0.098897
516.373267	0.099517
516.590440	0.098617
516.807594	0.098474
517.024731	0.098469
517.241850	0.099675
517.458950	0.100463
517.676032	0.100739
517.893095	0.100745
518.110141	0.100807
518.327168	0.101067
518.544177	0.101982
518.761168	0.102769
518.978141	0.102639
519.195095	0.101944
519.412031	0.101716
519.628949	0.101606
519.845849	0.101625
520.062731	0.102347
520.279594	0.102345
520.496439	0.101921
520.713266	0.102516
520.930074	0.102970
521.146865	0.103296
521.363637	0.104036
521.580391	0.104569
521.797127	0.104970
522.013844	0.105141
522.230543	0.105590
522.447224	0.106857
522.663887	0.105244
522.880532	0.105060
523.097158	0.105842
523.313766	0.105512
523.530356	0.105764
523.746928	0.106737
523.963481	0.105982
524.180017	0.105904
524.396534	0.105128
524.613032	0.106099
524.829513	0.106115
525.045975	0.106053
525.262420	0.106878
525.478845	0.107368
525.695253	0.107428
525.911643	0.108064
526.128014	0.108171
526.344367	0.108500
526.560702	0.108730
526.777018	0.109666
526.993316	0.109857
527.209597	0.109752
527.425858	0.109718
527.642102	0.109198
527.858328	0.109797
528.074535	0.110641
528.290724	0.110922
528.506894	0.111460
528.723047	0.111367
528.939181	0.110894
529.155297	0.111368
529.371395	0.112077
529.587475	0.112660
529.803536	0.112409
530.019579	0.112049
530.235604	0.112475
530.451611	0.112730
530.667600	0.112810
530.883570	0.113666
531.099522	0.113881
531.315456	0.113167
531.531372	0.113235
531.747269	0.113814
531.963148	0.113628
532.179009	0.113688
532.394852	0.113689
532.610676	0.114202
532.826482	0.114326
533.042271	0.114181
533.258040	0.114633
533.473792	0.114957
533.689525	0.115508
533.905240	0.116368
534.120937	0.116894
534.336616	0.117414
534.552277	0.117710
534.767919	0.117913
534.983543	0.118455
535.199149	0.118886
535.414736	0.119611
535.630306	0.119311
535.845857	0.119332
536.061390	0.119802
536.276904	0.120446
536.492401	0.120565
536.707879	0.120962
536.923339	0.121146
537.138781	0.121734
537.354204	0.122335
537.569610	0.123499
537.784997	0.123996
538.000366	0.123761
538.215716	0.123586
538.431049	0.124046
538.646363	0.124184
538.861659	0.124534
539.076937	0.124790
539.292196	0.124372
539.507438	0.123923
539.722661	0.124336
539.937866	0.125077
540.153052	0.125356
540.368221	0.125245
540.583371	0.125847
540.798503	0.126053
541.013617	0.125773
541.228712	0.125723
541.443789	0.126134
541.658848	0.126064
541.873889	0.125971
542.088912	0.125929
542.303916	0.126282
542.518902	0.126099
542.733870	0.126396
542.948820	0.127138
543.163752	0.127811
543.378665	0.127914
543.593560	0.128327
543.808437	0.128500
544.023295	0.129012
544.238136	0.129151
544.452958	0.129381
544.667762	0.129243
544.882548	0.129280
545.097315	0.129593
545.312064	0.129594
545.526795	0.129633
545.741508	0.130172
545.956203	0.130368
546.170879	0.131203
546.385537	0.131757
546.600177	0.132500
546.814799	0.133180
547.029402	0.133332
547.243988	0.133854
547.458555	0.134567
547.673103	0.134591
547.887634	0.134750
548.102146	0.134728
548.316640	0.135178
548.531116	0.134980
548.745574	0.134887
548.960013	0.134321
549.174435	0.134294
549.388838	0.134358
549.603222	0.134323
549.817589	0.134370
550.031937	0.134004
550.246267	0.133894
550.460579	0.134359
550.674873	0.134478
550.889148	0.135363
551.103405	0.135587
551.317644	0.135462
551.531865	0.135914
551.746068	0.135987
551.960252	0.136662
552.174418	0.136591
552.388566	0.136655
552.602696	0.136644
552.816807	0.136622
553.030900	0.136406
553.244975	0.136909
553.459032	0.137360
553.673070	0.138046
553.887091	0.138234
554.101093	0.138493
554.315077	0.138420
554.529042	0.138315
554.742990	0.138506
554.956919	0.139094
555.170830	0.139014
555.384722	0.138479
555.598597	0.138533
555.812453	0.138282
556.026291	0.138905
556.240111	0.139138
556.453913	0.139447
556.667696	0.139763
556.881461	0.139740
557.095208	0.139986
557.308937	0.140571
557.522647	0.140759
557.736339	0.141460
557.950013	0.141670
558.163669	0.141878
558.377307	0.142272
558.590926	0.142497
558.804527	0.142930
559.018110	0.143067
559.231675	0.143397
559.445221	0.143069
559.658749	0.142936
559.872259	0.142765
560.085751	0.143217
560.299225	0.143262
560.512680	0.143247
560.726117	0.143283
560.939536	0.143192
561.152937	0.142722
561.366319	0.143373
561.579683	0.143695
561.793029	0.144190
562.006357	0.144006
562.219667	0.144015
562.432958	0.143749
562.646231	0.144150
562.859486	0.144518
563.072723	0.144748
563.285941	0.144598
563.499141	0.144083
563.712323	0.143659
563.925487	0.143847
564.138632	0.143976
564.351760	0.144159
564.564869	0.143928
564.777960	0.143897
564.991032	0.144169
565.204087	0.144525
565.417123	0.145200
565.630141	0.145658
565.843140	0.146002
566.056122	0.146305
566.269085	0.146738
566.482030	0.147069
566.694957	0.147301
566.907866	0.147525
567.120756	0.147374
567.333628	0.147376
567.546482	0.147123
567.759318	0.147250
567.972135	0.147284
568.184935	0.147068
568.397716	0.147256
568.610478	0.147200
568.823223	0.147209
569.035949	0.147742
569.248657	0.147576
569.461347	0.147774
569.674019	0.147650
569.886672	0.147425
570.099308	0.147596
570.311925	0.147404
570.524523	0.147703
570.737104	0.147628
570.949666	0.147425
571.162210	0.147573
571.374736	0.147701
571.587244	0.147884
571.799733	0.148423
572.012205	0.149026
572.224658	0.149293
572.437092	0.149377
572.649509	0.149835
572.861907	0.149648
573.074287	0.149662
573.286649	0.149567
573.498993	0.149845
573.711318	0.149724
573.923625	0.149628
574.135914	0.149528
574.348185	0.149590
574.560438	0.149713
574.772672	0.150203
574.984888	0.150556
575.197086	0.150869
575.409266	0.150143
575.621427	0.150350
575.833570	0.150416
576.045695	0.150550
576.257802	0.150704
576.469890	0.150457
576.681961	0.150258
576.894013	0.150552
577.106046	0.150698
577.318062	0.151036
577.530059	0.151144
577.742039	0.151346
577.954000	0.151850
578.165942	0.151617
578.377867	0.151933
578.589773	0.152452
578.801661	0.152351
579.013531	0.152306
579.225382	0.152695
579.437216	0.152673
579.649031	0.153078
579.860828	0.153209
580.072606	0.153609
580.284367	0.153407
580.496109	0.153235
580.707833	0.153741
580.919539	0.153750
581.131227	0.153946
581.342896	0.154385
581.554547	0.154088
581.766180	0.154179
581.977795	0.154656
582.189391	0.155314
582.400969	0.155531
582.612529	0.155170
582.824071	0.155988
583.035595	0.156149
583.247100	0.156162
583.458587	0.156253
583.670056	0.156395
583.881506	0.156334
584.092939	0.155747
584.304353	0.155861
584.515749	0.156189
584.727127	0.155638
584.938486	0.155641
585.149828	0.155644
585.361151	0.155961
585.572456	0.155684
585.783742	0.155543
585.995011	0.156349
586.206261	0.156408
586.417493	0.156460
586.628706	0.156717
586.839902	0.157190
587.051079	0.157283
587.262238	0.157052
587.473379	0.157395
587.684502	0.157272
587.895606	0.157220
588.106692	0.157610
588.317760	0.157682
588.528810	0.157790
588.739841	0.157664
588.950855	0.157665
589.161850	0.158172
589.372827	0.158293
589.583785	0.158372
589.794726	0.158446
590.005648	0.158359
590.216552	0.158458
590.427437	0.158736
590.638305	0.158982
590.849154	0.159226
591.059985	0.159193
591.270798	0.159353
591.481592	0.159746
591.692369	0.159792
591.903127	0.160002
592.113867	0.160072
592.324588	0.160257
592.535292	0.160027
592.745977	0.160269
592.956644	0.160190
593.167293	0.160393
593.377923	0.160373
593.588536	0.160419
593.799130	0.160289
594.009706	0.160787
594.220263	0.161032
594.430803	0.161498
594.641324	0.161570
594.851827	0.161885
595.062312	0.161961
595.272778	0.162697
595.483227	0.162837
595.693657	0.163206
595.904069	0.163003
596.114462	0.162836
596.324838	0.162663
596.535195	0.163025
596.745534	0.163137
596.955855	0.163149
597.166157	0.163091
597.376441	0.163791
597.586707	0.163591
597.796955	0.163944
598.007185	0.163982
598.217396	0.164549
598.427589	0.164627
598.637764	0.164594
598.847921	0.165085
599.058060	0.165028
599.268180	0.164758
599.478282	0.165291
599.688366	0.165323
599.898431	0.165781
600.108479	0.165737
600.318508	0.165646
600.528519	0.165695
600.738511	0.165447
600.948486	0.165466
601.158442	0.165307
601.368380	0.165168
601.578300	0.165282
601.788202	0.165213
601.998085	0.165121
602.207950	0.164999
602.417797	0.165393
602.627626	0.165556
602.837436	0.165798
603.047228	0.166251
603.257002	0.166275
603.466758	0.166182
603.676496	0.166311
603.886215	0.166296
604.095916	0.167000
604.305599	0.167019
604.515264	0.167433
604.724910	0.167560
604.934538	0.167719
605.144148	0.167908
605.353740	0.167670
605.563314	0.167717
605.772869	0.168096
605.982406	0.167677
606.191925	0.167599
606.401425	0.167404
606.610908	0.167434
606.820372	0.167358
607.029818	0.167555
607.239246	0.168133
607.448655	0.168353
607.658047	0.168348
607.867420	0.168422
608.076775	0.168664
608.286111	0.168680
608.495430	0.168593
608.704730	0.168725
608.914012	0.168713
609.123275	0.168935
609.332521	0.168564
609.541748	0.168766
609.750957	0.169071
609.960148	0.169260
610.169321	0.169470
610.378475	0.169700
610.587611	0.170007
610.796729	0.170149
611.005829	0.170067
611.214910	0.170525
611.423974	0.170500
611.633019	0.170612
611.842045	0.170778
612.051054	0.170997
612.260044	0.170888
612.469017	0.171109
612.677970	0.171391
612.886906	0.171593
613.095824	0.171661
613.304723	0.171857
613.513604	0.172020
613.722467	0.172315
613.931311	0.172364
614.140138	0.172901
614.348946	0.173031
614.557736	0.172977
614.766507	0.173082
614.975261	0.173716
615.183996	0.173770
615.392713	0.174020
615.601412	0.174187
615.810092	0.174248
616.018754	0.174285
616.227399	0.174184
616.436024	0.174322
616.644632	0.174481
616.853222	0.173996
617.061793	0.174301
617.270346	0.174154
617.478880	0.174111
617.687397	0.174293
617.895895	0.174560
618.104375	0.174659
618.312837	0.174884
618.521281	0.175136
618.729706	0.175335
618.938113	0.175183
619.146502	0.175636
619.354873	0.175588
619.563226	0.175621
619.771560	0.175434
619.979876	0.175539
620.188174	0.175674
620.396453	0.175631
620.604715	0.175859
620.812958	0.176175
621.021183	0.175930
621.229390	0.175891
621.437578	0.175931
621.645748	0.176003
621.853900	0.175869
622.062034	0.175734
622.270150	0.175792
622.478247	0.175774
622.686326	0.175540
622.894387	0.175766
623.102430	0.176096
623.310454	0.176216
623.518461	0.176500
623.726449	0.176730
623.934418	0.176849
624.142370	0.176803
624.350303	0.176724
624.558218	0.177481
624.766115	0.177803
624.973994	0.177849
625.181855	0.178028
625.389697	0.178069
625.597521	0.178150
625.805327	0.178551
626.013114	0.178780
626.220883	0.179036
626.428634	0.178660
626.636367	0.178563
626.844082	0.178694
627.051778	0.178751
627.259457	0.179261
627.467117	0.179806
627.674758	0.179828
627.882382	0.180192
628.089987	0.180362
628.297574	0.180688
628.505143	0.180863
628.712694	0.180775
628.920226	0.180641
629.127740	0.180490
629.335236	0.180164
629.542714	0.180305
629.750174	0.180280
629.957615	0.180414
630.165038	0.180468
630.372443	0.180553
630.579829	0.180932
630.787198	0.181412
630.994548	0.181327
631.201880	0.181542
631.409194	0.181517
631.616489	0.181704
631.823766	0.181868
632.031025	0.181968
632.238266	0.182213
632.445489	0.182182
632.652693	0.182366
632.859879	0.182808
633.067047	0.183020
633.274197	0.183136
633.481329	0.183212
633.688442	0.183378
633.895537	0.183707
634.102614	0.183907
634.309672	0.184220
634.516713	0.184051
634.723735	0.183918
634.930739	0.184112
635.137724	0.184369
635.344692	0.184500
635.551641	0.184698
635.758572	0.184748
635.965485	0.184533
636.172379	0.184512
636.379256	0.184666
636.586114	0.184938
636.792954	0.185263
636.999775	0.185335
637.206579	0.185502
637.413364	0.185732
637.620131	0.185681
637.826880	0.186124
638.033610	0.186251
638.240323	0.186526
638.447017	0.186600
638.653692	0.186258
638.860350	0.186521
639.066990	0.186602
639.273611	0.186628
639.480214	0.186879
639.686798	0.186772
639.893365	0.187015
640.099913	0.187072
640.306443	0.187281
640.512955	0.187510
640.719449	0.187588
640.925924	0.187865
641.132381	0.187721
641.338820	0.187927
641.545241	0.188173
641.751644	0.188436
641.958028	0.188746
642.164394	0.188854
642.370742	0.189250
642.577071	0.189268
642.783383	0.189396
642.989676	0.189614
643.195951	0.189643
643.402207	0.190070
643.608446	0.190076
643.814666	0.190205
644.020868	0.190187
644.227052	0.190461
644.433218	0.190833
644.639365	0.190835
644.845494	0.190940
645.051605	0.191142
645.257698	0.190989
645.463772	0.191267
645.669828	0.191421
645.875866	0.191774
646.081886	0.191723
646.287888	0.191726
646.493871	0.191883
646.699836	0.192316
646.905783	0.192327
647.111712	0.192500
647.317622	0.192625
647.523514	0.192769
647.729388	0.192793
647.935244	0.192761
648.141082	0.193188
648.346901	0.193491
648.552702	0.193570
648.758485	0.193836
648.964250	0.193917
649.169996	0.194014
649.375724	0.194002
649.581434	0.194211
649.787126	0.194417
649.992800	0.194140
650.198455	0.194115
650.404092	0.194089
650.609711	0.194278
650.815311	0.194619
651.020894	0.194786
651.226458	0.194973
651.432004	0.195100
651.637532	0.195538
651.843041	0.195877
652.048532	0.196169
652.254006	0.196504
652.459460	0.196751
652.664897	0.196870
652.870315	0.197050
653.075716	0.197296
653.281097	0.197501
653.486461	0.197556
653.691807	0.197607
653.897134	0.197559
654.102443	0.197632
654.307734	0.197497
654.513006	0.197687
654.718261	0.197680
654.923497	0.197755
655.128715	0.197739
655.333915	0.197620
655.539096	0.197716
655.744259	0.198042
655.949404	0.198369
656.154531	0.198767
656.359640	0.198809
656.564730	0.199093
656.769802	0.199362
656.974856	0.199648
657.179892	0.199849
657.384909	0.199941
657.589908	0.199888
657.794889	0.200015
657.999852	0.200124
658.204797	0.200363
658.409723	0.200481
658.614631	0.200696
658.819521	0.200912
659.024393	0.201238
659.229246	0.201718
659.434081	0.201931
659.638898	0.202086
659.843697	0.202326
660.048478	0.202404
660.253240	0.202766
660.457984	0.202876
660.662710	0.202974
660.867417	0.203265
661.072107	0.203297
661.276778	0.203723
661.481431	0.203711
661.686066	0.203703
661.890682	0.203926
662.095281	0.203989
662.299861	0.204142
662.504422	0.204327
662.708966	0.204403
662.913491	0.204618
663.117999	0.204451
663.322488	0.204793
663.526958	0.205080
663.731411	0.205281
663.935845	0.205294
664.140261	0.205382
664.344659	0.205555
664.549038	0.205540
664.753400	0.205852
664.957743	0.206202
665.162068	0.206502
665.366375	0.206672
665.570663	0.206960
665.774933	0.207299
665.979185	0.207688
666.183419	0.208081
666.387635	0.208515
666.591832	0.208583
666.796011	0.208840
667.000172	0.208977
667.204315	0.209135
667.408439	0.209189
667.612545	0.209461
667.816634	0.209559
668.020703	0.209719
668.224755	0.209913
668.428788	0.210106
668.632803	0.210221
668.836800	0.210421
669.040779	0.210524
669.244739	0.210620
669.448681	0.210841
669.652605	0.210885
669.856511	0.210824
670.060399	0.210868
670.264268	0.210964
670.468119	0.211140
670.671952	0.211013
670.875767	0.211187
671.079563	0.211539
671.283341	0.211525
671.487101	0.211676
671.690843	0.211722
671.894567	0.211802
672.098272	0.211931
672.301959	0.212089
672.505628	0.212384
672.709278	0.212869
672.912911	0.212900
673.116525	0.213126
673.320121	0.213394
673.523699	0.214023
673.727258	0.214229
673.930799	0.214353
674.134322	0.214490
674.337827	0.214810
674.541314	0.214962
674.744782	0.215206
674.948232	0.215288
675.151664	0.215293
675.355078	0.215419
675.558474	0.215341
675.761851	0.215884
675.965210	0.216094
676.168551	0.216126
676.371873	0.216095
676.575178	0.216196
676.778464	0.216587
676.981732	0.217089
677.184981	0.216961
677.388213	0.217430
677.591426	0.217226
677.794621	0.217436
677.997798	0.217468
678.200956	0.217389
678.404097	0.217462
678.607219	0.217357
678.810323	0.217082
679.013408	0.217293
679.216476	0.217261
679.419525	0.217494
679.622556	0.217629
679.825569	0.217983
680.028563	0.218257
680.231540	0.218476
680.434498	0.218492
680.637438	0.218914
680.840359	0.219125
681.043263	0.219465
681.246148	0.219715
681.449015	0.219598
681.651864	0.219814
681.854694	0.220092
682.057506	0.220222
682.260301	0.220684
682.463076	0.220852
682.665834	0.220698
682.868573	0.220825
683.071295	0.220879
683.273998	0.221515
683.476682	0.221539
683.679349	0.221898
683.881997	0.222167
684.084627	0.222435
684.287239	0.222454
684.489833	0.222958
684.692408	0.222932
684.894965	0.223214
685.097504	0.223117
685.300025	0.223312
685.502527	0.223443
685.705012	0.223486
685.907478	0.223429
686.109925	0.223617
686.312355	0.223568
686.514766	0.223867
686.717159	0.223848
686.919534	0.224183
687.121891	0.224442
687.324230	0.224604
687.526550	0.224785
687.728852	0.224708
687.931136	0.225081
688.133401	0.225366
688.335649	0.225691
688.537878	0.225908
688.740089	0.226093
688.942281	0.226186
689.144456	0.226038
689.346612	0.226013
689.548750	0.226444
689.750870	0.226328
689.952971	0.226384
690.155055	0.226280
690.357120	0.226377
690.559167	0.226323
690.761195	0.226298
690.963206	0.226493
691.165198	0.226741
691.367172	0.226749
691.569128	0.226773
691.771065	0.226743
691.972984	0.226802
692.174885	0.226711
692.376768	0.226882
692.578633	0.226889
692.780479	0.226746
692.982308	0.227085
693.184118	0.227217
693.385909	0.227349
693.587683	0.227581
693.789438	0.227773
693.991175	0.228135
694.192894	0.228288
694.394595	0.228310
694.596277	0.228596
694.797941	0.228775
694.999587	0.228707
695.201215	0.229068
695.402824	0.229223
695.604416	0.229184
695.805989	0.229219
696.007543	0.229294
696.209080	0.229713
696.410598	0.230027
696.612099	0.230069
696.813580	0.230461
697.015044	0.230479
697.216490	0.230286
697.417917	0.230741
697.619326	0.230907
697.820717	0.230794
698.022089	0.230773
698.223444	0.231069
698.424780	0.230978
698.626098	0.230941
698.827397	0.231284
699.028679	0.231487
699.229942	0.231424
699.431187	0.231471
699.632414	0.231587
699.833622	0.231683
700.034813	0.231381
700.235985	0.231335
700.437139	0.231377
700.638274	0.231230
700.839392	0.231455
701.040491	0.231663
701.241572	0.231909
701.442635	0.232013
701.643679	0.232209
701.844706	0.232105
702.045714	0.232177
702.246704	0.232318
702.447675	0.232559
702.648629	0.232611
702.849564	0.232433
703.050481	0.232252
703.251380	0.232355
703.452260	0.232333
703.653122	0.232409
703.853966	0.232639
704.054792	0.232626
704.255600	0.232276
704.456389	0.232130
704.657160	0.232206
704.857913	0.232287
705.058648	0.232250
705.259365	0.231932
705.460063	0.232152
705.660743	0.232067
705.861405	0.232133
706.062048	0.232233
706.262674	0.232610
706.463281	0.232569
706.663870	0.232532
706.864441	0.232510
707.064993	0.232735
707.265527	0.232841
707.466043	0.232901
707.666541	0.232911
707.867021	0.232990
708.067482	0.232818
708.267925	0.232883
708.468350	0.233295
708.668757	0.233537
708.869145	0.233823
709.069516	0.233717
709.269868	0.233710
709.470201	0.233744
709.670517	0.233811
709.870814	0.234109
710.071093	0.234354
710.271354	0.233932
710.471597	0.233786
710.671821	0.233659
710.872028	0.233624
711.072216	0.233602
711.272385	0.233375
711.472537	0.233202
711.672670	0.232885
711.872785	0.232491
712.072882	0.232594
712.272961	0.232628
712.473021	0.232571
712.673063	0.232426
712.873087	0.232581
713.073093	0.232838
713.273081	0.232834
713.473050	0.232989
713.673001	0.233148
713.872934	0.233079
714.072849	0.232905
714.272745	0.232764
714.472623	0.232938
714.672483	0.232908
714.872325	0.232480
715.072148	0.232458
715.271954	0.232274
715.471741	0.232373
715.671509	0.232125
715.871260	0.232189
716.070992	0.232178
716.270707	0.231959
716.470403	0.231640
716.670080	0.231889
716.869740	0.231826
717.069381	0.231468
717.269004	0.231053
717.468609	0.230925
717.668195	0.230723
717.867764	0.230590
718.067314	0.230502
718.266846	0.230471
718.466360	0.230415
718.665855	0.230411
718.865332	0.230575
719.064791	0.230737
719.264232	0.230747
719.463655	0.230673
719.663059	0.230565
719.862445	0.230316
720.061813	0.230084
720.261163	0.230012
720.460494	0.229789
720.659807	0.229683
720.859102	0.229527
721.058379	0.229446
721.257638	0.229351
721.456878	0.229151
721.656100	0.229543
721.855304	0.229534
722.054490	0.229275
722.253657	0.229203
722.452806	0.229133
722.651937	0.229097
722.851050	0.229378
723.050145	0.229404
723.249221	0.229554
723.448279	0.229247
723.647319	0.229285
723.846340	0.229144
724.045344	0.229117
724.244329	0.229212
724.443296	0.229088
724.642245	0.228953
724.841175	0.228615
725.040088	0.228379
725.238982	0.228168
725.437857	0.227855
725.636715	0.227679
725.835554	0.227552
726.034376	0.227151
726.233179	0.226940
726.431963	0.226543
726.630730	0.226729
726.829478	0.226617
727.028208	0.226421
727.226920	0.226211
727.425614	0.226087
727.624289	0.225841
727.822946	0.225681
728.021585	0.225527
728.220206	0.225447
728.418808	0.225094
728.617392	0.225100
728.815958	0.224980
729.014506	0.224869
729.213036	0.224812
729.411547	0.224923
729.610040	0.224864
729.808515	0.224786
730.006972	0.224566
730.205410	0.224443
730.403831	0.224155
730.602233	0.224221
730.800616	0.224226
730.998982	0.224131
731.197329	0.223834
731.395658	0.223715
731.593969	0.223570
731.792262	0.223518
731.990536	0.223372
732.188793	0.223092
732.387031	0.222822
732.585250	0.222670
732.783452	0.222466
732.981635	0.222218
733.179800	0.221870
733.377947	0.221694
733.576076	0.221418
733.774186	0.221272
733.972278	0.221195
734.170352	0.221094
734.368408	0.221201
734.566446	0.221065
734.764465	0.220986
734.962466	0.221138
735.160449	0.221172
735.358413	0.221222
735.556360	0.221117
735.754288	0.221206
735.952198	0.221161
736.150090	0.220792
736.347963	0.220677
736.545818	0.220715
736.743655	0.220483
736.941474	0.220103
737.139275	0.219898
737.337057	0.219665
737.534821	0.219452
737.732567	0.219047
737.930295	0.218698
738.128005	0.218451
738.325696	0.218033
738.523369	0.217971
738.721024	0.217763
738.918660	0.217497
739.116279	0.217472
739.313879	0.217143
739.511461	0.217335
739.709024	0.217546
739.906570	0.217547
740.104097	0.217419
740.301606	0.217141
740.499097	0.216938
740.696569	0.216757
740.894024	0.216447
741.091460	0.216375
741.288878	0.216114
741.486277	0.215770
741.683659	0.215536
741.881022	0.215455
742.078367	0.215388
742.275694	0.215241
742.473002	0.215401
742.670293	0.215385
742.867565	0.215075
743.064819	0.214848
743.262054	0.214451
743.459272	0.214314
743.656471	0.213894
743.853652	0.213477
744.050815	0.213414
744.247959	0.213047
744.445085	0.212727
744.642194	0.212526
744.839283	0.212262
745.036355	0.212307
745.233408	0.211996
745.430444	0.211830
745.627461	0.211873
745.824459	0.211479
746.021440	0.211191
746.218402	0.210963
746.415346	0.211045
746.612272	0.210815
746.809180	0.210549
747.006069	0.210625
747.202940	0.210426
747.399793	0.210158
747.596628	0.210181
747.793444	0.209999
747.990243	0.210075
748.187023	0.209888
748.383784	0.209741
748.580528	0.209393
748.777253	0.209228
748.973960	0.209416
749.170649	0.209352
749.367320	0.209509
749.563973	0.209396
749.760607	0.209197
749.957223	0.209101
750.153821	0.208992
750.350400	0.208955
750.546962	0.208803
750.743505	0.208542
750.940030	0.208288
751.136536	0.208069
751.333025	0.207676
751.529495	0.207478
751.725947	0.207020
751.922381	0.207066
752.118796	0.207248
752.315194	0.207008
752.511573	0.206923
752.707934	0.207249
752.904276	0.206911
753.100601	0.207069
753.296907	0.206767
753.493195	0.206761
753.689465	0.206540
753.885716	0.206245
754.081949	0.206209
754.278164	0.205892
754.474361	0.205672
754.670540	0.205721
754.866700	0.205577
755.062843	0.205775
755.258967	0.205873
755.455072	0.205922
755.651160	0.205925
755.847229	0.205844
756.043280	0.205869
756.239313	0.205600
756.435328	0.205199
756.631324	0.205102
756.827302	0.204806
757.023262	0.204549
757.219204	0.204406
757.415127	0.204467
757.611033	0.204273
757.806920	0.204439
758.002788	0.204120
758.198639	0.204096
758.394471	0.203767
758.590286	0.203910
758.786081	0.203939
758.981859	0.203569
759.177619	0.203503
759.373360	0.203424
759.569083	0.203200
759.764788	0.203348
759.960474	0.203153
760.156143	0.203584
760.351793	0.203377
760.547425	0.203354
760.743038	0.203468
760.938634	0.203063
761.134211	0.202967
761.329770	0.202881
761.525311	0.202525
761.720833	0.202431
761.916338	0.201868
762.111824	0.201704
762.307292	0.201264
762.502741	0.201110
762.698173	0.200904
762.893586	0.200723
763.088981	0.200668
763.284358	0.200478
763.479716	0.200561
763.675057	0.200525
763.870379	0.200233
764.065683	0.200311
764.260968	0.199799
764.456236	0.199751
764.651485	0.199664
764.846716	0.199498
765.041929	0.199764
765.237123	0.199760
765.432299	0.199768
765.627457	0.199996
765.822597	0.199666
766.017719	0.199832
766.212822	0.199677
766.407907	0.199599
766.602974	0.199394
766.798023	0.199308
766.993054	0.199159
767.188066	0.199382
767.383060	0.199246
767.578036	0.199466
767.772993	0.199593
767.967933	0.199775
768.162854	0.199738
768.357757	0.199709
768.552642	0.199450
768.747508	0.199251
768.942356	0.198750
769.137186	0.198693
769.331998	0.198804
769.526792	0.198720
769.721567	0.198554
769.916324	0.198519
770.111063	0.198344
770.305784	0.198371
770.500486	0.198416
770.695171	0.198701
770.889837	0.198723
771.084484	0.198386
771.279114	0.198290
771.473725	0.198064
771.668318	0.198180
771.862893	0.198249
772.057450	0.198115
772.251988	0.198189
772.446509	0.198069
772.641011	0.197906
772.835494	0.197767
773.029960	0.197672
773.224407	0.197760
773.418836	0.197516
773.613247	0.197585
773.807640	0.197696
774.002014	0.197572
774.196370	0.197432
774.390708	0.197553
774.585028	0.197723
774.779330	0.197490
774.973613	0.197308
775.167878	0.197251
775.362125	0.197170
775.556354	0.197070
775.750564	0.196941
775.944756	0.196908
776.138930	0.196535
776.333086	0.196537
776.527223	0.197116
776.721343	0.197374
776.915444	0.197293
777.109526	0.197321
777.303591	0.197349
777.497637	0.197640
777.691666	0.197744
777.885676	0.198096
778.079667	0.198188
778.273641	0.197721
778.467596	0.197497
778.661533	0.197696
778.855452	0.197728
779.049352	0.197804
779.243235	0.197594
779.437099	0.197461
779.630945	0.197246
779.824773	0.197212
780.018582	0.197272
780.212373	0.197362
780.406146	0.197414
780.599901	0.197238
780.793638	0.197280
780.987356	0.197459
781.181056	0.197491
781.374738	0.197369
781.568402	0.197404
781.762047	0.197505
781.955674	0.197619
782.149283	0.197586
782.342874	0.197898
782.536447	0.197819
782.730001	0.197957
782.923537	0.198041
783.117055	0.198447
783.310555	0.198673
783.504036	0.198810
783.697499	0.198878
783.890944	0.198974
784.084371	0.199044
784.277780	0.199006
784.471170	0.198897
784.664542	0.199090
784.857896	0.199233
785.051231	0.199106
785.244549	0.199019
785.437848	0.198947
785.631129	0.199190
785.824392	0.199187
786.017636	0.199519
786.210863	0.199393
786.404071	0.199421
786.597260	0.199282
786.790432	0.199280
786.983585	0.199082
787.176721	0.199378
787.369838	0.199305
787.562936	0.199273
787.756017	0.199140
787.949079	0.199364
788.142123	0.199136
788.335149	0.199077
788.528156	0.199115
788.721146	0.199369
788.914117	0.199486
789.107070	0.199241
789.300005	0.199304
789.492921	0.199357
789.685819	0.199476
789.878699	0.199872
790.071561	0.199917
790.264405	0.200026
790.457230	0.200210
790.650037	0.199951
790.842826	0.200278
791.035597	0.200170
791.228349	0.200129
791.421084	0.200273
791.613800	0.200080
791.806497	0.200115
791.999177	0.200225
792.191838	0.200476
792.384481	0.200799
792.577106	0.200991
792.769713	0.201314
792.962301	0.201754
793.154871	0.201954
793.347423	0.202304
793.539957	0.202871
793.732473	0.203160
793.924970	0.203266
794.117449	0.203265
794.309910	0.203407
794.502353	0.203605
794.694777	0.203541
794.887183	0.203681
795.079571	0.203956
795.271941	0.203903
795.464293	0.203944
795.656626	0.203992
795.848941	0.204152
796.041238	0.204172
796.233516	0.204280
796.425777	0.204290
796.618019	0.203968
796.810243	0.203933
797.002449	0.204190
797.194636	0.204169
797.386805	0.204284
797.578956	0.204487
797.771089	0.204761
797.963204	0.204809
798.155300	0.205131
798.347378	0.205514
798.539438	0.205745
798.731480	0.205898
798.923503	0.206078
799.115509	0.206168
799.307496	0.206324
799.499465	0.206527
799.691415	0.206606
799.883348	0.206778
800.075262	0.207163
800.267158	0.207354
800.459035	0.207392
800.650895	0.207464
800.842736	0.207660
801.034559	0.207847
801.226364	0.207678
801.418150	0.207879
801.609919	0.208029
801.801669	0.208121
801.993401	0.208181
802.185114	0.208505
802.376810	0.208584
802.568487	0.208656
802.760146	0.208827
802.951787	0.209103
803.143409	0.209167
803.335014	0.209128
803.526600	0.209229
803.718168	0.209379
803.909717	0.209143
804.101249	0.209323
804.292762	0.209644
804.484257	0.209935
804.675734	0.210184
804.867192	0.210743
805.058632	0.211242
805.250054	0.211370
805.441458	0.211818
805.632844	0.212472
805.824211	0.213004
806.015561	0.213131
806.206891	0.213332
806.398204	0.213781
806.589499	0.213730
806.780775	0.213811
806.972033	0.214097
807.163273	0.214132
807.354495	0.213874
807.545698	0.214089
807.736883	0.214435
807.928050	0.214520
808.119199	0.214497
808.310329	0.214864
808.501441	0.215057
808.692535	0.215085
808.883611	0.215464
809.074669	0.215801
809.265708	0.215641
809.456729	0.215860
809.647732	0.215885
809.838717	0.216109
810.029683	0.216182
810.220632	0.216406
810.411562	0.216576
810.602474	0.216395
810.793367	0.216793
810.984242	0.217359
811.175100	0.217462
811.365938	0.217983
811.556759	0.218298
811.747562	0.218569
811.938346	0.218425
812.129112	0.218955
812.319860	0.219535
812.510589	0.219755
812.701300	0.219916
812.891994	0.220352
813.082668	0.220700
813.273325	0.220850
813.463964	0.221067
813.654584	0.221699
813.845186	0.221698
814.035769	0.221585
814.226335	0.221843
814.416882	0.221999
814.607411	0.222028
814.797922	0.221986
814.988415	0.222340
815.178889	0.222735
815.369345	0.223289
815.559783	0.223600
815.750203	0.224279
815.940605	0.224440
816.130988	0.225040
816.321353	0.225347
816.511700	0.225688
816.702028	0.225845
816.892339	0.226177
817.082631	0.226204
817.272905	0.226758
817.463161	0.226828
817.653398	0.227047
817.843617	0.226936
818.033819	0.227142
818.224001	0.227512
818.414166	0.227723
818.604312	0.227867
818.794440	0.228212
818.984550	0.228344
819.174642	0.228454
819.364716	0.228816
819.554771	0.229260
819.744808	0.229722
819.934827	0.229743
820.124827	0.230069
820.314810	0.230180
820.504774	0.230168
820.694720	0.230216
820.884647	0.230429
821.074557	0.230689
821.264448	0.230784
821.454321	0.231009
821.644176	0.231583
821.834012	0.231809
822.023831	0.232076
822.213631	0.232629
822.403413	0.233067
822.593176	0.233640
822.782922	0.234177
822.972649	0.234632
823.162358	0.234875
823.352049	0.234978
823.541721	0.235145
823.731376	0.235416
823.921012	0.235504
824.110629	0.235875
824.300229	0.236126
824.489811	0.236035
824.679374	0.236187
824.868919	0.236596
825.058445	0.237146
825.247954	0.237368
825.437444	0.237875
825.626916	0.238128
825.816370	0.238273
826.005806	0.238736
826.195223	0.239167
826.384622	0.239678
826.574003	0.239674
826.763366	0.239671
826.952711	0.240080
827.142037	0.240295
827.331345	0.240629
827.520635	0.241111
827.709906	0.241332
827.899160	0.241468
828.088395	0.241776
828.277612	0.242075
828.466810	0.242749
828.655991	0.243570
828.845153	0.243917
829.034297	0.244209
829.223423	0.244362
829.412531	0.244381
829.601620	0.244685
829.790691	0.245132
829.979744	0.245883
830.168779	0.245719
830.357795	0.245663
830.546793	0.245875
830.735773	0.246418
830.924735	0.246673
831.113679	0.247087
831.302604	0.247741
831.491511	0.247725
831.680400	0.247765
831.869271	0.248542
832.058123	0.249038
832.246957	0.249577
832.435773	0.249653
832.624571	0.250033
832.813351	0.250457
833.002112	0.250518
833.190855	0.250955
833.379580	0.251129
833.568287	0.251394
833.756975	0.251512
833.945645	0.251380
834.134297	0.251622
834.322931	0.251736
834.511547	0.252195
834.700144	0.252444
834.888723	0.253177
835.077284	0.253615
835.265826	0.254134
835.454351	0.254237
835.642857	0.255043
835.831345	0.255803
836.019815	0.256605
836.208266	0.256525
836.396699	0.257073
836.585114	0.257100
836.773511	0.257615
836.961890	0.257676
837.150250	0.258414
837.338592	0.258545
837.526916	0.258479
837.715222	0.258435
837.903510	0.259164
838.091779	0.259396
838.280030	0.259630
838.468263	0.259919
838.656477	0.260320
838.844674	0.260491
839.032852	0.260972
839.221012	0.261641
839.409153	0.262150
839.597277	0.262555
839.785382	0.263076
839.973469	0.262906
840.161538	0.263352
840.349589	0.263487
840.537621	0.263755
840.725635	0.264066
840.913631	0.264546
841.101609	0.265030
841.289568	0.265432
841.477509	0.265557
841.665432	0.266049
841.853337	0.266406
842.041224	0.266898
842.229092	0.266968
842.416942	0.267326
842.604774	0.267330
842.792588	0.267571
842.980383	0.267719
843.168160	0.268257
843.355919	0.269186
843.543660	0.269234
843.731382	0.269576
843.919087	0.270312
844.106773	0.270549
844.294441	0.271105
844.482090	0.271358
844.669722	0.271604
844.857335	0.271679
845.044930	0.271670
845.232507	0.272191
845.420065	0.272560
845.607605	0.273040
845.795127	0.273537
845.982631	0.273456
846.170117	0.274265
846.357584	0.274847
846.545033	0.275353
846.732464	0.276078
846.919877	0.276305
847.107272	0.276999
847.294648	0.277292
847.482006	0.277609
847.669346	0.278166
847.856667	0.278002
848.043971	0.278105
848.231256	0.278480
848.418523	0.278670
848.605771	0.279233
848.793002	0.279338
848.980214	0.279697
849.167408	0.279737
849.354584	0.280235
849.541742	0.280743
849.728881	0.281209
849.916002	0.281606
850.103105	0.281812
850.290190	0.281997
850.477256	0.281869
850.664304	0.282232
850.851334	0.282714
851.038346	0.282690
851.225340	0.282815
851.412315	0.282749
851.599272	0.283369
851.786211	0.283749
851.973132	0.283729
852.160034	0.284025
852.346918	0.284202
852.533784	0.284272
852.720632	0.285142
852.907462	0.285746
853.094273	0.286646
853.281066	0.286530
853.467841	0.286862
853.654598	0.287531
853.841336	0.288384
854.028056	0.288502
854.214758	0.289301
854.401442	0.289569
854.588107	0.289626
854.774755	0.289617
854.961384	0.290189
855.147995	0.290449
855.334587	0.290985
855.521162	0.291252
855.707718	0.291939
855.894256	0.292140
856.080775	0.292475
856.267277	0.293164
856.453760	0.293717
856.640225	0.293704
856.826672	0.294207
857.013101	0.294503
857.199511	0.294716
857.385903	0.294880
857.572277	0.295654
857.758633	0.295890
857.944970	0.296266
858.131290	0.296809
858.317591	0.297479
858.503873	0.297953
858.690138	0.298358
858.876384	0.298606
859.062612	0.299188
859.248822	0.298879
859.435014	0.299338
859.621188	0.299584
859.807343	0.299861
859.993480	0.300237
860.179599	0.300682
860.365699	0.300838
860.551781	0.301724
860.737846	0.301935
860.923891	0.302216
861.109919	0.302260
861.295929	0.302344
861.481920	0.302878
861.667893	0.302701
861.853848	0.302874
862.039784	0.303332
862.225702	0.303239
862.411603	0.303621
862.597484	0.304671
862.783348	0.305204
862.969193	0.305485
863.155021	0.305235
863.340830	0.305889
863.526620	0.305700
863.712393	0.305976
863.898147	0.305737
864.083883	0.305585
864.269601	0.305331
864.455301	0.305393
864.640982	0.305796
864.826645	0.306093
865.012290	0.306257
865.197917	0.306562
865.383526	0.306831
865.569116	0.307488
865.754688	0.307976
865.940242	0.308402
866.125777	0.309029
866.311295	0.309470
866.496794	0.309661
866.682275	0.309937
866.867737	0.310548
867.053182	0.310721
867.238608	0.310964
867.424016	0.311145
867.609406	0.311501
867.794778	0.311531
867.980131	0.311554
868.165466	0.311690
868.350783	0.312098
868.536082	0.312206
868.721362	0.312723
868.906625	0.312974
869.091869	0.313284
869.277094	0.313327
869.462302	0.313562
869.647491	0.313574
869.832662	0.313770
870.017815	0.314128
870.202950	0.314497
870.388066	0.314011
870.573165	0.314021
870.758245	0.314438
870.943306	0.314648
871.128350	0.314955
871.313375	0.315384
871.498382	0.315612
871.683371	0.315924
871.868342	0.316276
872.053294	0.317011
872.238229	0.317438
872.423144	0.317768
872.608042	0.318035
872.792922	0.317970
872.977783	0.318123
873.162626	0.318328
873.347451	0.318131
873.532258	0.317946
873.717046	0.318186
873.901816	0.318599
874.086568	0.318480
874.271302	0.318536
874.456017	0.318546
874.640715	0.319026
874.825394	0.319566
875.010055	0.320077
875.194697	0.320484
875.379322	0.320488
875.563928	0.320826
875.748516	0.321079
875.933085	0.321412
876.117637	0.322308
876.302170	0.321859
876.486685	0.322044
876.671182	0.321892
876.855661	0.321870
877.040121	0.322112
877.224563	0.321767
877.408987	0.321871
877.593393	0.321750
877.777780	0.321193
877.962150	0.321830
878.146501	0.321903
878.330833	0.321641
878.515148	0.321958
878.699444	0.322339
878.883722	0.322667
879.067982	0.322755
879.252224	0.323211
879.436447	0.323487
879.620653	0.323843
879.804840	0.323646
879.989008	0.324115
880.173159	0.324261
880.357291	0.323711
880.541405	0.323788
880.725501	0.323706
880.909579	0.323815
881.093638	0.324256
881.277680	0.323917
881.461703	0.324313
881.645707	0.324982
881.829694	0.325199
882.013662	0.325680
882.197612	0.325639
882.381544	0.325950
882.565458	0.325695
882.749353	0.325463
882.933230	0.325859
883.117089	0.326154
883.300930	0.325513
883.484753	0.325847
883.668557	0.325704
883.852343	0.325918
884.036111	0.326058
884.219861	0.326362
884.403592	0.326640
884.587305	0.326604
884.771000	0.326374
884.954677	0.326609
885.138335	0.326541
885.321976	0.326746
885.505598	0.326917
885.689201	0.326618
885.872787	0.326878
886.056354	0.326789
886.239904	0.326556
886.423434	0.326629
886.606947	0.326421
886.790442	0.325683
886.973918	0.325567
887.157376	0.325901
887.340816	0.326248
887.524237	0.325831
887.707641	0.325883
887.891026	0.326283
888.074393	0.326242
888.257741	0.326464
888.441072	0.326870
888.624384	0.327159
888.807678	0.326743
888.990954	0.327080
889.174211	0.327297
889.357451	0.326895
889.540672	0.326734
889.723875	0.326444
889.907059	0.326370
890.090226	0.326312
890.273374	0.326256
890.456504	0.326198
890.639616	0.325966
890.822709	0.326040
891.005785	0.326131
891.188842	0.326174
891.371881	0.326082
891.554901	0.326606
891.737904	0.326866
891.920888	0.326632
892.103854	0.326405
892.286802	0.326145
892.469731	0.325886
892.652643	0.326323
892.835536	0.326233
893.018410	0.326085
893.201267	0.325614
893.384106	0.325774
893.566926	0.325512
893.749728	0.325697
893.932511	0.325919
894.115277	0.326076
894.298024	0.325496
894.480753	0.325476
894.663464	0.325349
894.846157	0.325544
895.028831	0.324804
895.211487	0.324998
895.394125	0.325036
895.576745	0.324406
895.759346	0.324270
895.941930	0.324935
896.124495	0.324434
896.307041	0.324841
896.489570	0.324757
896.672080	0.324698
896.854573	0.324801
897.037046	0.324498
897.219502	0.324841
897.401940	0.324588
897.584359	0.324263
897.766760	0.324425
897.949143	0.324045
898.131507	0.323960
898.313854	0.323852
898.496182	0.323552
898.678492	0.323077
898.860783	0.322518
899.043057	0.322187
899.225312	0.322210
899.407549	0.321746
899.589768	0.321799
899.771968	0.321240
899.954151	0.321331
900.136315	0.321104
900.318461	0.320743
900.500588	0.320450
900.682698	0.320306
900.864789	0.319490
901.046862	0.319732
901.228917	0.319504
901.410953	0.319515
901.592971	0.318915
901.774972	0.318658
901.956953	0.318742
902.138917	0.318694
902.320862	0.318608
902.502790	0.318135
902.684699	0.317692
902.866589	0.317329
903.048462	0.317045
903.230316	0.316727
903.412152	0.316531
903.593970	0.315543
903.775770	0.315307
903.957551	0.315126
904.139314	0.315068
904.321059	0.314915
904.502786	0.314507
904.684494	0.313938
904.866185	0.313784
905.047857	0.313545
905.229510	0.314373
905.411146	0.314476
905.592763	0.314020
905.774363	0.314083
905.955943	0.313663
906.137506	0.313733
906.319051	0.313622
906.500577	0.313373
906.682085	0.313361
906.863575	0.312776
907.045046	0.312186
907.226500	0.311584
907.407935	0.311124
907.589352	0.311033
907.770750	0.310901
907.952131	0.310875
908.133493	0.310729
908.314837	0.309397
908.496163	0.309246
908.677470	0.308728
908.858760	0.308694
909.040031	0.308069
909.221284	0.307749
909.402518	0.307214
909.583735	0.305988
909.764933	0.305235
909.946113	0.305321
910.127275	0.304811
910.308418	0.304109
910.489544	0.303581
910.670651	0.303162
910.851740	0.301926
911.032810	0.301382
911.213863	0.301566
911.394897	0.301284
911.575913	0.300750
911.756911	0.299805
911.937890	0.300355
912.118851	0.300056
912.299794	0.299925
912.480719	0.299856
912.661626	0.299185
912.842514	0.298717
913.023384	0.298445
913.204236	0.298265
913.385070	0.298191
913.565886	0.297111
913.746683	0.296444
913.927462	0.295756
914.108223	0.295151
914.288965	0.294945
914.469690	0.294649
914.650396	0.293884
914.831084	0.293165
915.011754	0.292668
915.192405	0.292274
915.373038	0.291615
915.553653	0.291212
915.734250	0.290543
915.914829	0.289540
916.095389	0.288444
916.275931	0.288284
916.456455	0.287649
916.636961	0.286869
916.817448	0.285996
916.997917	0.285613
917.178368	0.284486
917.358801	0.284151
917.539216	0.283567
917.719612	0.283068
917.899990	0.282138
918.080350	0.281619
918.260692	0.281421
918.441015	0.280680
918.621320	0.279629
918.801607	0.279304
918.981876	0.278716
919.162127	0.278341
919.342359	0.277748
919.522573	0.276674
919.702769	0.275957
919.882947	0.275180
920.063106	0.274882
920.243247	0.274460
920.423370	0.273519
920.603475	0.272838
920.783562	0.272218
920.963630	0.271706
921.143680	0.270895
921.323712	0.270073
921.503725	0.269661
921.683721	0.268537
921.863698	0.268662
922.043657	0.268375
922.223598	0.267566
922.403520	0.266569
922.583424	0.265520
922.763311	0.265846
922.943178	0.264775
923.123028	0.263772
923.302859	0.263711
923.482673	0.262431
923.662467	0.261502
923.842244	0.260751
924.022003	0.260710
924.201743	0.259812
924.381465	0.258723
924.561169	0.258704
924.740854	0.258108
924.920522	0.257118
925.100171	0.256845
925.279802	0.256583
925.459414	0.256636
925.639009	0.256115
925.818585	0.256074
925.998143	0.255144
926.177683	0.254442
926.357205	0.253329
926.536708	0.252403
926.716193	0.250463
926.895660	0.249658
927.075109	0.248418
927.254539	0.247442
927.433951	0.246790
927.613345	0.245665
927.792721	0.245160
927.972079	0.244511
928.151418	0.244252
928.330739	0.244502
928.510042	0.243585
928.689327	0.242992
928.868593	0.241206
929.047841	0.240161
929.227071	0.239829
929.406283	0.238924
929.585476	0.238276
929.764652	0.237444
929.943809	0.236451
930.122948	0.235731
930.302068	0.235435
930.481171	0.234641
930.660255	0.233384
930.839321	0.232880
931.018369	0.231861
931.197398	0.230894
931.376409	0.230355
931.555402	0.228427
931.734377	0.227699
931.913334	0.226042
932.092272	0.225792
932.271192	0.225005
932.450094	0.223427
932.628978	0.222324
932.807844	0.221499
932.986691	0.220191
933.165520	0.220331
933.344331	0.219490
933.523123	0.218561
933.701898	0.217399
933.880654	0.216273
934.059392	0.215500
934.238111	0.214805
934.416813	0.214192
934.595496	0.213504
934.774161	0.212773
934.952808	0.212048
935.131437	0.211588
935.310047	0.211937
935.488639	0.211749
935.667213	0.210733
935.845769	0.210343
936.024306	0.209607
936.202825	0.209290
936.381326	0.207987
936.559809	0.206713
936.738274	0.205352
936.916720	0.203120
937.095148	0.202757
937.273558	0.202456
937.451950	0.200928
937.630323	0.199960
937.808678	0.198048
937.987015	0.197026
938.165334	0.196028
938.343635	0.194644
938.521917	0.194380
938.700181	0.192746
938.878427	0.192517
939.056655	0.191210
939.234864	0.189797
939.413055	0.189149
939.591228	0.189350
939.769383	0.189010
939.947519	0.188013
940.125638	0.186878
940.303738	0.185704
940.481820	0.184637
940.659883	0.184818
940.837929	0.184012
941.015956	0.182589
941.193965	0.181341
941.371955	0.179494
941.549928	0.178633
941.727882	0.178412
941.905818	0.177845
942.083736	0.176467
942.261636	0.175597
942.439517	0.174092
942.617380	0.173619
942.795225	0.172289
942.973052	0.171496
943.150860	0.170507
943.328651	0.168860
943.506423	0.168040
943.684176	0.167526
943.861912	0.165718
944.039629	0.165861
944.217328	0.163592
944.395009	0.162885
944.572672	0.162780
944.750317	0.162647
944.927943	0.161598
945.105551	0.160314
945.283141	0.158657
945.460712	0.157727
945.638265	0.156776
945.815801	0.157722
945.993317	0.155882
946.170816	0.153848
946.348297	0.153096
946.525759	0.151720
946.703203	0.150655
946.880629	0.149694
947.058036	0.148863
947.235425	0.146805
947.412797	0.144912
947.590149	0.145594
947.767484	0.144230
947.944800	0.142840
948.122099	0.142943
948.299379	0.143433
948.476640	0.142597
948.653884	0.142508
948.831109	0.142465
949.008316	0.141845
949.185505	0.139352
949.362676	0.139412
949.539828	0.139563
949.716962	0.137395
949.894078	0.135393
950.071176	0.134097
950.248256	0.133201
950.425317	0.132198
950.602360	0.131033
950.779385	0.131997
950.956391	0.130752
951.133380	0.129486
951.310350	0.128451
951.487302	0.126689
951.664235	0.126080
951.841151	0.123779
952.018048	0.122262
952.194927	0.120802
952.371788	0.116562
952.548631	0.115494
952.725455	0.114929
952.902261	0.114845
953.079049	0.114951
953.255819	0.114132
953.432570	0.113431
953.609303	0.113260
953.786018	0.113540
953.962715	0.114395
954.139394	0.113121
954.316054	0.111513
954.492696	0.111809
954.669320	0.110100
954.845926	0.108664
955.022513	0.106700
955.199083	0.103954
955.375634	0.103497
955.552166	0.103597
955.728681	0.104204
955.905177	0.103058
956.081655	0.100229
956.258115	0.100160
956.434557	0.101554
956.610980	0.101862
956.787385	0.103037
956.963772	0.102237
957.140141	0.102043
957.316492	0.099354
957.492824	0.099604
957.669138	0.099960
957.845434	0.099023
958.021712	0.096368
958.197971	0.096866
958.374212	0.097671
958.550435	0.097587
958.726640	0.094773
958.902826	0.097293
959.078995	0.095260
959.255145	0.095843
959.431277	0.094443
959.607390	0.094176
959.783486	0.093277
959.959563	0.090556
960.135622	0.088651
960.311662	0.091973
960.487685	0.089829
960.663689	0.087664
960.839675	0.087319
961.015643	0.088591
961.191593	0.089652
961.367524	0.089582
961.543437	0.088428
961.719332	0.089737
961.895209	0.088265
962.071067	0.088932
962.246907	0.092694
962.422730	0.091403
962.598533	0.088078
962.774319	0.087336
962.950086	0.087399
963.125835	0.088271
963.301566	0.085503
963.477279	0.084516
963.652973	0.082186
963.828650	0.079482
964.004308	0.078003
964.179947	0.078850
964.355569	0.079736
964.531172	0.078340
964.706757	0.077661
964.882324	0.077320
965.057873	0.075365
965.233403	0.077017
965.408916	0.078140
965.584410	0.079277
965.759885	0.079266
965.935343	0.076147
966.110782	0.075387
966.286203	0.075898
966.461606	0.077551
966.636991	0.078745
966.812357	0.079682
966.987705	0.077582
967.163035	0.075394
967.338347	0.078824
967.513641	0.079168
967.688916	0.081784
967.864173	0.080772
968.039412	0.079869
968.214632	0.078196
968.389835	0.075463
968.565019	0.075426
968.740185	0.078282
968.915333	0.075665
969.090462	0.077106
969.265573	0.074810
969.440667	0.073980
969.615741	0.075248
969.790798	0.076656
969.965836	0.080132
970.140856	0.082118
970.315858	0.081907
970.490842	0.082863
970.665808	0.081389
970.840755	0.083101
971.015684	0.087169
971.190595	0.085886
971.365487	0.085842
971.540362	0.082260
971.715218	0.081575
971.890056	0.081812
972.064875	0.082005
972.239677	0.082267
972.414460	0.079594
972.589225	0.076050
972.763972	0.076450
972.938700	0.076944
973.113411	0.079059
973.288103	0.080652
973.462777	0.080465
973.637432	0.079486
973.812070	0.077665
973.986689	0.080845
974.161290	0.081866
974.335873	0.081160
974.510437	0.081090
974.684984	0.079379
974.859512	0.077292
975.034022	0.077269
975.208513	0.077297
975.382987	0.081032
975.557442	0.080190
975.731879	0.077607
975.906298	0.077733
976.080698	0.077577
976.255080	0.082251
976.429445	0.082889
976.603790	0.080403
976.778118	0.079819
976.952427	0.077500
977.126719	0.077730
977.300992	0.078608
977.475246	0.076937
977.649483	0.077169
977.823701	0.074251
977.997901	0.075405
978.172083	0.075196
978.346247	0.077002
978.520392	0.078534
978.694519	0.079118
978.868628	0.081339
979.042719	0.084291
979.216791	0.084513
979.390845	0.083794
979.564882	0.082733
979.738899	0.083849
979.912899	0.080811
980.086880	0.080502
980.260843	0.080756
980.434788	0.080117
980.608715	0.081146
980.782623	0.080223
980.956514	0.081880
981.130386	0.083330
981.304240	0.083760
981.478075	0.085955
981.651892	0.084126
981.825692	0.082515
981.999472	0.082025
982.173235	0.081178
982.346980	0.082929
982.520706	0.080254
982.694414	0.079257
982.868104	0.080191
983.041775	0.080293
983.215428	0.082780
983.389064	0.081395
983.562680	0.081941
983.736279	0.079090
983.909860	0.078150
984.083422	0.078922
984.256966	0.079746
984.430491	0.077309
984.603999	0.078174
984.777488	0.079499
984.950959	0.080308
985.124412	0.082651
985.297847	0.084767
985.471263	0.084777
985.644661	0.086453
985.818041	0.084308
985.991403	0.085895
986.164747	0.084960
986.338072	0.082361
986.511379	0.084220
986.684668	0.084075
986.857938	0.082030
987.031191	0.082447
987.204425	0.080172
987.377641	0.081417
987.550839	0.081133
987.724018	0.080967
987.897179	0.083386
988.070322	0.083650
988.243447	0.083243
988.416554	0.083772
988.589642	0.083145
988.762712	0.083172
988.935764	0.082032
989.108798	0.082919
989.281813	0.081216
989.454811	0.080417
989.627790	0.078490
989.800751	0.075791
989.973693	0.076177
990.146617	0.077862
990.319524	0.077947
990.492412	0.078642
990.665281	0.077195
990.838133	0.078254
991.010966	0.078689
991.183781	0.078419
991.356578	0.079902
991.529356	0.082025
991.702117	0.081008
991.874859	0.081414
992.047583	0.080384
992.220288	0.082139
992.392976	0.083589
992.565645	0.082856
992.738296	0.082809
992.910929	0.083548
993.083543	0.082410
993.256139	0.081826
993.428718	0.081896
993.601277	0.081998
993.773819	0.081591
993.946342	0.079132
994.118848	0.079002
994.291335	0.078997
994.463803	0.078338
994.636254	0.078787
994.808686	0.080203
994.981100	0.081458
995.153496	0.084182
995.325874	0.082837
995.498233	0.086336
995.670574	0.087261
995.842897	0.088604
996.015202	0.087778
996.187488	0.087035
996.359757	0.087059
996.532007	0.085923
996.704239	0.085105
996.876452	0.086601
997.048648	0.086706
997.220825	0.084337
997.392984	0.083947
997.565124	0.083162
997.737247	0.084351
997.909351	0.082566
998.081437	0.081934
998.253505	0.082067
998.425554	0.080910
998.597586	0.079654
998.769599	0.081745
998.941594	0.083209
999.113571	0.085768
999.285529	0.085916
999.457469	0.088142
999.629391	0.089497
999.801295	0.090052
999.973181	0.091940
1000.145048	0.091987
1000.316897	0.091246
1000.488728	0.091612
1000.660541	0.091687
1000.832335	0.090810
1001.004111	0.087066
1001.175869	0.087667
1001.347609	0.085073
1001.519331	0.083916
1001.691034	0.085300
1001.862719	0.085910
1002.034386	0.085624
1002.206035	0.086578
1002.377665	0.085437
1002.549277	0.087107
1002.720871	0.086642
1002.892447	0.088145
1003.064004	0.088467
1003.235544	0.087171
1003.407065	0.084532
1003.578568	0.083225
1003.750052	0.080961
1003.921519	0.082562
1004.092967	0.081863
1004.264397	0.081778
1004.435809	0.082936
1004.607202	0.082539
1004.778577	0.082562
1004.949934	0.083492
1005.121273	0.084284
1005.292594	0.084535
1005.463896	0.084065
1005.635180	0.085645
1005.806446	0.085873
1005.977694	0.083572
1006.148923	0.084067
1006.320135	0.083194
1006.491328	0.084846
1006.662503	0.083076
1006.833659	0.083509
1007.004798	0.083843
1007.175918	0.084416
1007.347020	0.083289
1007.518103	0.084327
1007.689169	0.085466
1007.860216	0.085985
1008.031245	0.084171
1008.202256	0.085765
1008.373248	0.087097
1008.544223	0.088421
1008.715179	0.087610
1008.886117	0.086642
1009.057036	0.087670
1009.227938	0.087522
1009.398821	0.087237
1009.569686	0.088813
1009.740533	0.087766
1009.911361	0.086421
1010.082172	0.086035
1010.252964	0.085984
1010.423738	0.087200
1010.594493	0.085453
1010.765231	0.084620
1010.935950	0.084492
1011.106651	0.083684
1011.277334	0.084559
1011.447998	0.081888
1011.618645	0.080395
1011.789273	0.082293
1011.959882	0.082301
1012.130474	0.082422
1012.301048	0.081650
1012.471603	0.082941
1012.642140	0.080614
1012.812658	0.082061
1012.983159	0.084789
1013.153641	0.084315
1013.324105	0.082781
1013.494551	0.083905
1013.664979	0.084219
1013.835388	0.085332
1014.005779	0.085034
1014.176152	0.086192
1014.346507	0.082431
1014.516843	0.082116
1014.687162	0.081860
1014.857462	0.080018
1015.027744	0.078901
1015.198007	0.078369
1015.368252	0.077893
1015.538480	0.078423
1015.708689	0.080759
1015.878879	0.082554
1016.049052	0.083537
1016.219206	0.084123
1016.389342	0.085085
1016.559460	0.086200
1016.729559	0.087564
1016.899641	0.086107
1017.069704	0.084834
1017.239749	0.084740
1017.409775	0.082069
1017.579784	0.081663
1017.749774	0.082664
1017.919746	0.083800
1018.089700	0.082783
1018.259635	0.084836
1018.429553	0.086304
1018.599452	0.085373
1018.769333	0.084169
1018.939195	0.088534
1019.109040	0.089563
1019.278866	0.088630
1019.448674	0.087264
1019.618464	0.087071
1019.788235	0.084315
1019.957989	0.083566
1020.127724	0.085871
1020.297441	0.087246
1020.467139	0.085940
1020.636820	0.084505
1020.806482	0.084478
1020.976126	0.084799
1021.145752	0.084898
1021.315359	0.086709
1021.484948	0.087589
1021.654519	0.087922
1021.824072	0.086651
1021.993607	0.086747
1022.163123	0.087617
1022.332621	0.087384
1022.502101	0.087666
1022.671563	0.086556
1022.841007	0.083825
1023.010432	0.083283
1023.179839	0.082514
1023.349228	0.082332
1023.518598	0.081508
1023.687951	0.081451
1023.857285	0.082160
1024.026601	0.082002
1024.195899	0.081571
1024.365178	0.080009
1024.534439	0.080560
1024.703682	0.078637
1024.872907	0.077591
1025.042114	0.077110
1025.211302	0.076490
1025.380472	0.075013
1025.549624	0.073389
1025.718758	0.075611
1025.887873	0.078015
1026.056970	0.078315
1026.226049	0.080011
1026.395110	0.081693
1026.564153	0.081580
1026.733177	0.082181
1026.902183	0.083535
1027.071171	0.082879
1027.240141	0.082550
1027.409092	0.082850
1027.578026	0.082405
1027.746940	0.081731
1027.915837	0.083078
1028.084716	0.084773
1028.253576	0.082506
1028.422418	0.081750
1028.591242	0.084991
1028.760048	0.084708
1028.928835	0.084329
1029.097604	0.082784
1029.266355	0.082453
1029.435088	0.081040
1029.603803	0.080521
1029.772499	0.081364
1029.941177	0.083379
1030.109837	0.084438
1030.278478	0.085646
1030.447102	0.087801
1030.615707	0.089365
1030.784294	0.089553
1030.952863	0.091281
1031.121413	0.089753
1031.289945	0.090657
1031.458460	0.087624
1031.626955	0.084992
1031.795433	0.083321
1031.963892	0.080907
1032.132334	0.081397
1032.300756	0.082181
1032.469161	0.081769
1032.637548	0.082738
1032.805916	0.083723
1032.974266	0.084069
1033.142598	0.085346
1033.310911	0.085114
1033.479207	0.087031
1033.647484	0.087122
1033.815743	0.087965
1033.983983	0.086217
1034.152206	0.088341
1034.320410	0.087977
1034.488596	0.090944
1034.656764	0.089879
1034.824914	0.091006
1034.993045	0.089697
1035.161158	0.090548
1035.329253	0.088977
1035.497330	0.088027
1035.665388	0.086131
1035.833428	0.086403
1036.001450	0.085976
1036.169454	0.086744
1036.337440	0.085918
1036.505407	0.085208
1036.673356	0.082333
1036.841287	0.083721
1037.009200	0.083601
1037.177094	0.082299
1037.344970	0.082640
1037.512828	0.081525
1037.680668	0.081135
1037.848489	0.079295
1038.016293	0.079110
1038.184078	0.082170
1038.351845	0.080864
1038.519593	0.082033
1038.687324	0.081546
1038.855036	0.078598
1039.022730	0.076782
1039.190406	0.077088
1039.358063	0.081218
1039.525702	0.082462
1039.693323	0.081642
1039.860926	0.082816
1040.028511	0.081559
1040.196077	0.083300
1040.363625	0.085320
1040.531155	0.086818
1040.698667	0.085605
1040.866161	0.083645
1041.033636	0.084481
1041.201093	0.084075
1041.368532	0.083426
1041.535952	0.085847
1041.703355	0.088249
1041.870739	0.088043
1042.038105	0.088424
1042.205452	0.089248
1042.372782	0.089597
1042.540093	0.086948
1042.707386	0.087756
1042.874661	0.086355
1043.041918	0.087122
1043.209156	0.086542
1043.376376	0.084817
1043.543578	0.084421
1043.710762	0.084827
1043.877927	0.084312
1044.045074	0.087242
1044.212203	0.085181
1044.379314	0.085084
1044.546407	0.083753
1044.713481	0.081822
1044.880537	0.083789
1045.047575	0.084194
1045.214595	0.084258
1045.381596	0.085036
1045.548579	0.083346
1045.715544	0.085528
1045.882491	0.085247
1046.049420	0.085674
1046.216330	0.087161
1046.383222	0.086961
1046.550096	0.085306
1046.716951	0.085256
1046.883789	0.085053
1047.050608	0.084233
1047.217409	0.083741
1047.384192	0.085364
1047.550956	0.084787
1047.717703	0.083926
1047.884431	0.082260
1048.051140	0.085171
1048.217832	0.085856
1048.384505	0.085973
1048.551161	0.086759
1048.717798	0.084922
1048.884416	0.083500
1049.051017	0.083034
1049.217599	0.083222
1049.384163	0.082959
1049.550709	0.081639
1049.717237	0.080739
1049.883746	0.081309
1050.050237	0.081641
1050.216710	0.081925
1050.383165	0.082844
1050.549601	0.082858
1050.716019	0.083885
1050.882420	0.086092
1051.048801	0.088018
1051.215165	0.088845
1051.381510	0.087540
1051.547837	0.088453
1051.714146	0.087328
1051.880437	0.086356
1052.046709	0.086640
1052.212964	0.084564
1052.379200	0.083675
1052.545417	0.080298
1052.711617	0.081248
1052.877798	0.083438
1053.043961	0.081798
1053.210106	0.082382
1053.376233	0.083453
1053.542341	0.083894
1053.708432	0.085135
1053.874504	0.085158
1054.040557	0.085938
1054.206593	0.086457
1054.372610	0.083516
1054.538609	0.084424
1054.704590	0.086697
1054.870553	0.088498
1055.036497	0.088189
1055.202424	0.088150
1055.368331	0.088082
1055.534221	0.087966
1055.700093	0.085705
1055.865946	0.086789
1056.031781	0.087308
1056.197598	0.086417
1056.363397	0.085353
1056.529177	0.084839
1056.694939	0.085221
1056.860683	0.084864
1057.026409	0.085674
1057.192116	0.086247
1057.357806	0.087631
1057.523477	0.087296
1057.689130	0.086482
1057.854764	0.087337
1058.020381	0.086186
1058.185979	0.084016
1058.351559	0.085953
1058.517120	0.085369
1058.682664	0.083863
1058.848189	0.084214
1059.013696	0.083561
1059.179185	0.084222
1059.344656	0.082377
1059.510108	0.082336
1059.675542	0.082351
1059.840958	0.082698
1060.006356	0.082894
1060.171735	0.085327
1060.337096	0.085314
1060.502439	0.085092
1060.667764	0.083550
1060.833071	0.084753
1060.998359	0.086553
1061.163629	0.087748
1061.328881	0.085016
1061.494115	0.085366
1061.659330	0.086534
1061.824527	0.085236
1061.989706	0.084376
1062.154867	0.085363
1062.320010	0.085308
1062.485134	0.087857
1062.650240	0.087085
1062.815328	0.087607
1062.980398	0.089316
1063.145449	0.086969
1063.310482	0.087956
1063.475497	0.089145
1063.640494	0.090098
1063.805473	0.088532
1063.970433	0.086398
1064.135375	0.089342
1064.300299	0.091658
1064.465204	0.089314
1064.630092	0.091070
1064.794961	0.090284
1064.959812	0.090530
1065.124645	0.089781
1065.289459	0.091808
1065.454256	0.092127
1065.619034	0.089774
1065.783793	0.090018
1065.948535	0.092183
1066.113258	0.088251
1066.277964	0.088116
1066.442651	0.090437
1066.607319	0.090515
1066.771970	0.089662
1066.936602	0.088772
1067.101216	0.088644
1067.265812	0.087558
1067.430389	0.086722
1067.594949	0.090127
1067.759490	0.089478
1067.924013	0.089688
1068.088518	0.090293
1068.253004	0.091101
1068.417472	0.094561
1068.581922	0.093821
1068.746354	0.091975
1068.910768	0.090682
1069.075163	0.089509
1069.239540	0.092346
1069.403899	0.090833
1069.568240	0.090529
1069.732562	0.089382
1069.896866	0.087400
1070.061152	0.086923
1070.225420	0.088092
1070.389670	0.088376
1070.553901	0.087874
1070.718114	0.085875
1070.882309	0.083815
1071.046486	0.085637
1071.210644	0.084494
1071.374784	0.082944
1071.538906	0.085505
1071.703010	0.084258
1071.867096	0.087759
1072.031163	0.087202
1072.195212	0.086244
1072.359243	0.087527
1072.523256	0.085345
1072.687250	0.086552
1072.851226	0.089071
1073.015184	0.091859
1073.179124	0.093758
1073.343045	0.089932
1073.506949	0.089666
1073.670834	0.091954
1073.834701	0.094247
1073.998549	0.096257
1074.162380	0.099169
1074.326192	0.096579
1074.489986	0.095993
1074.653761	0.094730
1074.817519	0.096383
1074.981258	0.098073
1075.144979	0.096337
1075.308682	0.094851
1075.472367	0.093375
1075.636033	0.093108
1075.799681	0.093205
1075.963311	0.091157
1076.126923	0.091178
1076.290516	0.094246
1076.454092	0.095772
1076.617649	0.099851
1076.781187	0.099821
1076.944708	0.101555
1077.108210	0.099271
1077.271695	0.098875
1077.435160	0.097535
1077.598608	0.100476
1077.762038	0.096868
1077.925449	0.093085
1078.088842	0.090820
1078.252217	0.092300
1078.415573	0.090456
1078.578912	0.090709
1078.742232	0.093230
1078.905534	0.093085
1079.068817	0.092468
1079.232083	0.092057
1079.395330	0.095208
1079.558559	0.094151
1079.721770	0.094331
1079.884962	0.096024
1080.048136	0.096033
1080.211293	0.094120
1080.374430	0.094079
1080.537550	0.095292
1080.700651	0.096488
1080.863735	0.094970
1081.026800	0.094581
1081.189846	0.090249
1081.352875	0.089611
1081.515885	0.090665
1081.678877	0.091783
1081.841851	0.091861
1082.004807	0.091023
1082.167744	0.089227
1082.330663	0.094111
1082.493564	0.093243
1082.656447	0.095008
1082.819312	0.093635
1082.982158	0.094076
1083.144986	0.092787
1083.307796	0.093772
1083.470587	0.090627
1083.633361	0.094264
1083.796116	0.089352
1083.958853	0.091371
1084.121571	0.090256
1084.284272	0.092735
1084.446954	0.091728
1084.609618	0.092484
1084.772264	0.093291
1084.934892	0.092949
1085.097501	0.086637
1085.260092	0.089189
1085.422665	0.089291
1085.585220	0.090238
1085.747756	0.087382
1085.910274	0.089982
1086.072774	0.092818
1086.235256	0.094640
1086.397720	0.096682
1086.560165	0.101757
1086.722592	0.101545
1086.885001	0.100836
1087.047392	0.103604
1087.209764	0.102964
1087.372119	0.100770
1087.534455	0.095515
1087.696772	0.094909
1087.859072	0.096311
1088.021353	0.096303
1088.183616	0.093158
1088.345861	0.093427
1088.508088	0.091239
1088.670296	0.094354
1088.832486	0.095776
1088.994658	0.099091
1089.156812	0.099809
1089.318948	0.097731
1089.481065	0.094669
1089.643164	0.098193
1089.805245	0.101237
1089.967308	0.099735
1090.129352	0.101421
1090.291378	0.101169
1090.453386	0.102402
1090.615376	0.100326
1090.777347	0.101338
1090.939301	0.103865
1091.101236	0.100319
1091.263153	0.097794
1091.425051	0.101823
1091.586932	0.100303
1091.748794	0.098370
1091.910638	0.096104
1092.072463	0.096851
1092.234271	0.096262
1092.396060	0.095618
1092.557831	0.099278
1092.719584	0.100947
1092.881319	0.100964
1093.043035	0.098845
1093.204733	0.099610
1093.366413	0.099337
1093.528075	0.099121
1093.689718	0.100568
1093.851343	0.101635
1094.012950	0.101788
1094.174539	0.099418
1094.336110	0.098338
1094.497662	0.101954
1094.659196	0.100732
1094.820712	0.101033
1094.982210	0.100075
1095.143689	0.099133
1095.305151	0.096604
1095.466594	0.095753
1095.628018	0.098359
1095.789425	0.098634
1095.950813	0.098572
1096.112183	0.102196
1096.273535	0.105161
1096.434869	0.105183
1096.596184	0.106988
1096.757482	0.106232
1096.918761	0.104507
1097.080021	0.105768
1097.241264	0.107871
1097.402488	0.104634
1097.563694	0.104983
1097.724882	0.100582
1097.886052	0.103954
1098.047203	0.102934
1098.208336	0.106342
1098.369451	0.107857
1098.530548	0.105947
1098.691627	0.104258
1098.852687	0.107579
1099.013729	0.102155
1099.174753	0.102039
1099.335758	0.098466
1099.496746	0.101247
1099.657715	0.101052
1099.818666	0.101117
1099.979599	0.097324
1100.140513	0.095017
1100.301409	0.095069
1100.462287	0.100466
1100.623147	0.105397
1100.783989	0.107358
1100.944812	0.105457
1101.105617	0.105161
1101.266404	0.105269
1101.427173	0.114605
1101.587923	0.118871
1101.748656	0.116482
1101.909370	0.114925
1102.070066	0.117328
1102.230743	0.115656
1102.391403	0.117716
1102.552044	0.118612
1102.712667	0.119398
1102.873271	0.113607
1103.033858	0.116158
1103.194426	0.117416
1103.354976	0.116365
1103.515508	0.109710
1103.676021	0.108788
1103.836517	0.107071
1103.996994	0.111406
1104.157453	0.107658
1104.317893	0.105919
1104.478316	0.100756
1104.638720	0.100472
1104.799106	0.100989
1104.959474	0.106086
1105.119823	0.110730
1105.280155	0.112315
1105.440468	0.111448
1105.600763	0.115211
1105.761039	0.116101
1105.921298	0.115577
1106.081538	0.115517
1106.241760	0.112606
1106.401964	0.108797
1106.562149	0.108312
1106.722316	0.109453
1106.882465	0.108637
1107.042596	0.110974
1107.202709	0.111530
1107.362803	0.111878
1107.522879	0.113920
1107.682937	0.119218
1107.842977	0.120632
1108.002999	0.119340
1108.163002	0.115207
1108.322987	0.114695
1108.482954	0.111682
1108.642902	0.109446
1108.802833	0.111986
1108.962745	0.111627
1109.122639	0.108141
1109.282515	0.105609
1109.442372	0.104758
1109.602211	0.105890
1109.762032	0.103402
1109.921835	0.106523
1110.081620	0.111791
1110.241386	0.111446
1110.401134	0.109865
1110.560864	0.107675
1110.720576	0.107563
1110.880269	0.110869
1111.039945	0.110334
1111.199602	0.112041
1111.359240	0.110227
1111.518861	0.104651
1111.678463	0.103518
1111.838047	0.107443
1111.997613	0.111234
1112.157161	0.114509
1112.316690	0.114786
1112.476202	0.118628
1112.635695	0.115457
1112.795169	0.111763
1112.954626	0.118045
1113.114064	0.117607
1113.273484	0.118194
1113.432886	0.116491
1113.592270	0.114443
1113.751635	0.112004
1113.910983	0.107713
1114.070312	0.112449
1114.229622	0.117783
1114.388915	0.109883
1114.548189	0.115011
1114.707445	0.107691
1114.866683	0.108107
1115.025903	0.108337
1115.185104	0.109774
1115.344287	0.112517
1115.503452	0.112005
1115.662599	0.108078
1115.821727	0.114827
1115.980838	0.112474
1116.139930	0.116566
1116.299004	0.119097
1116.458059	0.118519
1116.617097	0.118217
1116.776116	0.120523
1116.935117	0.122175
1117.094099	0.119628
1117.253064	0.113426
1117.412010	0.107180
1117.570938	0.104169
1117.729848	0.102942
1117.888740	0.104130
1118.047613	0.104242
1118.206468	0.098839
1118.365305	0.095130
1118.524124	0.095229
1118.682924	0.102010
1118.841707	0.106271
1119.000471	0.109684
1119.159216	0.109523
1119.317944	0.110680
1119.476653	0.110833
1119.635344	0.109445
1119.794017	0.112218
1119.952672	0.119559
1120.111308	0.117620
1120.269927	0.117615
1120.428527	0.116191
1120.587108	0.113925
1120.745672	0.114370
1120.904217	0.111452
1121.062744	0.114973
1121.221253	0.113923
1121.379744	0.110164
1121.538216	0.112653
1121.696671	0.112574
1121.855107	0.114821
1122.013524	0.120551
1122.171924	0.119168
1122.330305	0.123000
1122.488668	0.126046
1122.647013	0.125271
1122.805340	0.131127
1122.963648	0.123323
1123.121938	0.124699
1123.280210	0.121794
1123.438464	0.116955
1123.596700	0.121514
1123.754917	0.120301
1123.913116	0.117255
1124.071297	0.114987
1124.229459	0.113284
1124.387604	0.122711
1124.545730	0.121779
1124.703838	0.128772
1124.861928	0.136579
1125.019999	0.130394
1125.178052	0.128785
1125.336088	0.128430
1125.494104	0.126189
1125.652103	0.124811
1125.810083	0.122441
1125.968045	0.131976
1126.125989	0.125944
1126.283915	0.123718
1126.441823	0.123843
1126.599712	0.125096
1126.757583	0.129504
1126.915436	0.129425
1127.073270	0.135201
1127.231087	0.132910
1127.388885	0.117241
1127.546665	0.117053
1127.704426	0.113083
1127.862170	0.116715
1128.019895	0.115006
1128.177602	0.109442
1128.335291	0.114754
1128.492961	0.108329
1128.650614	0.110205
1128.808248	0.121394
1128.965864	0.122001
1129.123461	0.119270
1129.281041	0.125017
1129.438602	0.130042
1129.596145	0.135057
1129.753670	0.128538
1129.911176	0.128968
1130.068665	0.130853
1130.226135	0.119430
1130.383587	0.120408
1130.541020	0.121341
1130.698436	0.114612
1130.855833	0.110864
1131.013212	0.105873
1131.170573	0.112759
1131.327915	0.109864
1131.485239	0.109221
1131.642545	0.115164
1131.799833	0.110315
1131.957103	0.120194
1132.114354	0.122369
1132.271588	0.119899
1132.428803	0.120498
1132.585999	0.122722
1132.743178	0.118864
1132.900338	0.119353
1133.057480	0.110192
1133.214604	0.114835
1133.371710	0.108913
1133.528797	0.108369
1133.685866	0.112642
1133.842917	0.113029
1133.999950	0.121800
1134.156964	0.130802
1134.313960	0.129341
1134.470938	0.139134
1134.627898	0.140455
1134.784840	0.144560
1134.941763	0.152416
1135.098668	0.152384
1135.255555	0.151210
1135.412424	0.133955
1135.569274	0.127977
1135.726107	0.126952
1135.882921	0.132146
1136.039716	0.131579
1136.196494	0.128695
1136.353253	0.121694
1136.509995	0.119254
1136.666717	0.124188
1136.823422	0.127102
1136.980109	0.131307
1137.136777	0.133467
1137.293427	0.126290
1137.450059	0.128412
1137.606672	0.126852
1137.763267	0.131489
1137.919844	0.125801
1138.076403	0.129350
1138.232944	0.134467
1138.389466	0.134796
1138.545971	0.130910
1138.702457	0.134536
1138.858924	0.133045
1139.015374	0.135474
1139.171805	0.129729
1139.328218	0.133955
1139.484613	0.123796
1139.640990	0.112699
1139.797348	0.109430
1139.953688	0.111593
1140.110010	0.112851
1140.266314	0.116269
1140.422600	0.113754
1140.578867	0.115723
1140.735116	0.119564
1140.891347	0.122493
1141.047559	0.129966
1141.203754	0.135003
1141.359930	0.133433
1141.516088	0.128023
1141.672228	0.114796
1141.828349	0.118814
1141.984452	0.120796
1142.140537	0.124490
1142.296604	0.133513
1142.452653	0.129307
1142.608683	0.129680
1142.764695	0.132160
1142.920689	0.136205
1143.076665	0.141424
1143.232622	0.133706
1143.388562	0.123228
1143.544483	0.121261
1143.700385	0.114985
1143.856270	0.109009
1144.012136	0.109164
1144.167985	0.104923
1144.323814	0.108798
1144.479626	0.115964
1144.635420	0.122878
1144.791195	0.136309
1144.946952	0.131724
1145.102691	0.133384
1145.258411	0.143455
1145.414113	0.150207
1145.569798	0.148171
1145.725463	0.142560
1145.881111	0.138247
1146.036741	0.133215
1146.192352	0.123076
1146.347945	0.128165
1146.503519	0.128452
1146.659076	0.129135
1146.814614	0.127210
1146.970134	0.129245
1147.125636	0.137326
1147.281120	0.136943
1147.436585	0.145207
1147.592032	0.156843
1147.747461	0.150827
1147.902872	0.145357
1148.058265	0.145081
1148.213639	0.137439
1148.368995	0.134788
1148.524333	0.141460
1148.679653	0.142804
1148.834954	0.134562
1148.990237	0.129929
1149.145502	0.137122
1149.300749	0.130158
1149.455977	0.135797
1149.611188	0.133479
1149.766380	0.144786
1149.921553	0.132233
1150.076709	0.129254
1150.231846	0.136701
1150.386966	0.137326
1150.542066	0.140003
1150.697149	0.143899
1150.852214	0.143512
1151.007260	0.150187
1151.162288	0.142054
1151.317298	0.139502
1151.472289	0.150148
1151.627263	0.147580
1151.782218	0.139111
1151.937155	0.128493
1152.092073	0.135271
1152.246974	0.133447
1152.401856	0.128095
1152.556720	0.133275
1152.711566	0.137474
1152.866393	0.132149
1153.021203	0.122548
1153.175994	0.127433
1153.330767	0.129615
1153.485521	0.134072
1153.640258	0.144108
1153.794976	0.150362
1153.949676	0.147332
1154.104358	0.137541
1154.259021	0.137837
1154.413667	0.142461
1154.568294	0.133799
1154.722903	0.138088
1154.877493	0.131344
1155.032066	0.114928
1155.186620	0.108259
1155.341156	0.106934
1155.495674	0.112878
1155.650173	0.099701
1155.804654	0.105889
1155.959118	0.116000
1156.113562	0.116710
1156.267989	0.123219
1156.422397	0.124061
1156.576788	0.132631
1156.731160	0.133133
1156.885513	0.130993
1157.039849	0.139033
1157.194166	0.127525
1157.348465	0.125995
1157.502746	0.125496
1157.657009	0.118649
1157.811253	0.126773
1157.965479	0.112171
1158.119687	0.117800
1158.273877	0.124189
1158.428048	0.116528
1158.582201	0.125518
1158.736337	0.126809
1158.890453	0.123710
1159.044552	0.129265
1159.198632	0.123235
1159.352694	0.129334
1159.506738	0.125355
1159.660764	0.126985
1159.814771	0.141941
1159.968761	0.121896
1160.122732	0.125792
1160.276685	0.130125
1160.430619	0.133141
1160.584535	0.132406
1160.738434	0.136362
1160.892313	0.135563
1161.046175	0.124632
1161.200019	0.126420
1161.353844	0.149467
1161.507651	0.144611
1161.661440	0.139924
1161.815210	0.133491
1161.968962	0.137642
1162.122697	0.142763
1162.276412	0.137249
1162.430110	0.147982
1162.583789	0.143378
1162.737451	0.139876
1162.891094	0.143263
1163.044718	0.137451
1163.198325	0.137572
1163.351913	0.138746
1163.505483	0.129382
1163.659035	0.130849
1163.812569	0.121135
1163.966084	0.114914
1164.119581	0.113454
1164.273060	0.110687
1164.426521	0.118821
1164.579964	0.112413
1164.733388	0.108141
1164.886794	0.114223
1165.040182	0.114715
1165.193551	0.118401
1165.346903	0.131839
1165.500236	0.129732
1165.653551	0.133501
1165.806848	0.118867
1165.960126	0.121064
1166.113386	0.111012
1166.266628	0.116902
1166.419852	0.114102
1166.573058	0.128776
1166.726245	0.111283
1166.879414	0.115514
1167.032565	0.108761
1167.185698	0.125856
1167.338812	0.117048
1167.491909	0.139952
1167.644987	0.126677
1167.798046	0.133269
1167.951088	0.123285
1168.104111	0.152076
1168.257117	0.151949
1168.410103	0.149086
1168.563072	0.126203
1168.716023	0.139321
1168.868955	0.121279
1169.021869	0.116844
1169.174765	0.113560
1169.327642	0.116789
1169.480501	0.098372
1169.633343	0.106146
1169.786165	0.111999
1169.938970	0.125908
1170.091757	0.129945
1170.244525	0.150656
1170.397275	0.169855
1170.550007	0.175944
1170.702720	0.165444
1170.855415	0.162314
1171.008092	0.153161
1171.160751	0.151639
1171.313392	0.154665
1171.466014	0.081168
1171.618619	0.139267
1171.771205	0.139267
1171.923772	0.139267
