sample name	sample
index	893
start time	 04-08-2021  03:08:33 PM


Wavelength (nm)	Absorbance
494.344910	NaN
494.563924	NaN
494.782919	NaN
495.001897	NaN
495.220856	NaN
495.439797	-0.564363
495.658719	-0.112475
495.877624	0.232906
496.096510	0.262884
496.315378	0.153320
496.534227	NaN
496.753059	0.672115
496.971872	0.363967
497.190667	0.141307
497.409444	0.140275
497.628203	0.140945
497.846943	0.138627
498.065665	0.139307
498.284369	0.138972
498.503055	0.139499
498.721723	0.140750
498.940372	0.140308
499.159003	0.140519
499.377616	0.140668
499.596210	0.139755
499.814787	0.139828
500.033345	0.140064
500.251885	0.140594
500.470406	0.139642
500.688910	0.139664
500.907395	0.140080
501.125862	0.141162
501.344311	0.142051
501.562742	0.141618
501.781154	0.142762
501.999548	0.143117
502.217924	0.143990
502.436282	0.143654
502.654621	0.143029
502.872942	0.142391
503.091245	0.142682
503.309530	0.141712
503.527797	0.142123
503.746045	0.141836
503.964275	0.141592
504.182487	0.141145
504.400681	0.141519
504.618856	0.141714
504.837013	0.143178
505.055152	0.142477
505.273273	0.143163
505.491376	0.143071
505.709460	0.143154
505.927526	0.143125
506.145574	0.143045
506.363604	0.144030
506.581615	0.144797
506.799608	0.144852
507.017583	0.145558
507.235540	0.145452
507.453478	0.146153
507.671399	0.145875
507.889301	0.146288
508.107185	0.146213
508.325050	0.146129
508.542898	0.146298
508.760727	0.146088
508.978538	0.146222
509.196330	0.146966
509.414105	0.146884
509.631861	0.147611
509.849599	0.147982
510.067319	0.148547
510.285021	0.148263
510.502704	0.148122
510.720369	0.148899
510.938016	0.149083
511.155645	0.148990
511.373255	0.149048
511.590848	0.147932
511.808422	0.147700
512.025977	0.146911
512.243515	0.147037
512.461034	0.146934
512.678536	0.146573
512.896018	0.147138
513.113483	0.147404
513.330930	0.147680
513.548358	0.149756
513.765768	0.150420
513.983160	0.151791
514.200533	0.151828
514.417889	0.153008
514.635226	0.153697
514.852545	0.153729
515.069845	0.153680
515.287128	0.153945
515.504392	0.153444
515.721638	0.154628
515.938866	0.155052
516.156075	0.155021
516.373267	0.154219
516.590440	0.154288
516.807594	0.154483
517.024731	0.153932
517.241850	0.154357
517.458950	0.154492
517.676032	0.153733
517.893095	0.153258
518.110141	0.154147
518.327168	0.154232
518.544177	0.154293
518.761168	0.153933
518.978141	0.154913
519.195095	0.155560
519.412031	0.155562
519.628949	0.155755
519.845849	0.156590
520.062731	0.156867
520.279594	0.157364
520.496439	0.157206
520.713266	0.157870
520.930074	0.157727
521.146865	0.157610
521.363637	0.158327
521.580391	0.158412
521.797127	0.158082
522.013844	0.158434
522.230543	0.158712
522.447224	0.158615
522.663887	0.158460
522.880532	0.159737
523.097158	0.160070
523.313766	0.159256
523.530356	0.159767
523.746928	0.160215
523.963481	0.160319
524.180017	0.160645
524.396534	0.161686
524.613032	0.161406
524.829513	0.161050
525.045975	0.161123
525.262420	0.162089
525.478845	0.162357
525.695253	0.162194
525.911643	0.162344
526.128014	0.161862
526.344367	0.162147
526.560702	0.162645
526.777018	0.162402
526.993316	0.162798
527.209597	0.162430
527.425858	0.163001
527.642102	0.163265
527.858328	0.164419
528.074535	0.165908
528.290724	0.166227
528.506894	0.167530
528.723047	0.168741
528.939181	0.168712
529.155297	0.170106
529.371395	0.169998
529.587475	0.170797
529.803536	0.170372
530.019579	0.170410
530.235604	0.170379
530.451611	0.170180
530.667600	0.169782
530.883570	0.170639
531.099522	0.170434
531.315456	0.170748
531.531372	0.171007
531.747269	0.171658
531.963148	0.172059
532.179009	0.172200
532.394852	0.172337
532.610676	0.172886
532.826482	0.172160
533.042271	0.172728
533.258040	0.173095
533.473792	0.173515
533.689525	0.173578
533.905240	0.173502
534.120937	0.174004
534.336616	0.174652
534.552277	0.174841
534.767919	0.175676
534.983543	0.175804
535.199149	0.176643
535.414736	0.177004
535.630306	0.177577
535.845857	0.177991
536.061390	0.178747
536.276904	0.179310
536.492401	0.179764
536.707879	0.180530
536.923339	0.180470
537.138781	0.180123
537.354204	0.180230
537.569610	0.179978
537.784997	0.180197
538.000366	0.179821
538.215716	0.179878
538.431049	0.180004
538.646363	0.180393
538.861659	0.180803
539.076937	0.181220
539.292196	0.181430
539.507438	0.181909
539.722661	0.182716
539.937866	0.183819
540.153052	0.183956
540.368221	0.184352
540.583371	0.183904
540.798503	0.184354
541.013617	0.184676
541.228712	0.185128
541.443789	0.184960
541.658848	0.185180
541.873889	0.185120
542.088912	0.185776
542.303916	0.186060
542.518902	0.186695
542.733870	0.187076
542.948820	0.186694
543.163752	0.186823
543.378665	0.187663
543.593560	0.187680
543.808437	0.187387
544.023295	0.187489
544.238136	0.188098
544.452958	0.188630
544.667762	0.189095
544.882548	0.189762
545.097315	0.189780
545.312064	0.189967
545.526795	0.190491
545.741508	0.191120
545.956203	0.191388
546.170879	0.191147
546.385537	0.191062
546.600177	0.190899
546.814799	0.191711
547.029402	0.192090
547.243988	0.192394
547.458555	0.192289
547.673103	0.192855
547.887634	0.192874
548.102146	0.193468
548.316640	0.193944
548.531116	0.193954
548.745574	0.193455
548.960013	0.194012
549.174435	0.194058
549.388838	0.194539
549.603222	0.194577
549.817589	0.194945
550.031937	0.194615
550.246267	0.194276
550.460579	0.194966
550.674873	0.195424
550.889148	0.195622
551.103405	0.195979
551.317644	0.195677
551.531865	0.195932
551.746068	0.195702
551.960252	0.196174
552.174418	0.197260
552.388566	0.197166
552.602696	0.197375
552.816807	0.197479
553.030900	0.197328
553.244975	0.197709
553.459032	0.197937
553.673070	0.198582
553.887091	0.198919
554.101093	0.198957
554.315077	0.199043
554.529042	0.199375
554.742990	0.199845
554.956919	0.200589
555.170830	0.201043
555.384722	0.201140
555.598597	0.200939
555.812453	0.201036
556.026291	0.201200
556.240111	0.201825
556.453913	0.201951
556.667696	0.202139
556.881461	0.201678
557.095208	0.201741
557.308937	0.201206
557.522647	0.201529
557.736339	0.201246
557.950013	0.201417
558.163669	0.201260
558.377307	0.201258
558.590926	0.200996
558.804527	0.201409
559.018110	0.201927
559.231675	0.202963
559.445221	0.203789
559.658749	0.204547
559.872259	0.204328
560.085751	0.205038
560.299225	0.205569
560.512680	0.206209
560.726117	0.206511
560.939536	0.206356
561.152937	0.206411
561.366319	0.206177
561.579683	0.206409
561.793029	0.207154
562.006357	0.207310
562.219667	0.207311
562.432958	0.207221
562.646231	0.207762
562.859486	0.208028
563.072723	0.208057
563.285941	0.208160
563.499141	0.208247
563.712323	0.208435
563.925487	0.208424
564.138632	0.208577
564.351760	0.208856
564.564869	0.208849
564.777960	0.209052
564.991032	0.209264
565.204087	0.209596
565.417123	0.209786
565.630141	0.209980
565.843140	0.210118
566.056122	0.210381
566.269085	0.210628
566.482030	0.210933
566.694957	0.210928
566.907866	0.211025
567.120756	0.211355
567.333628	0.211449
567.546482	0.211355
567.759318	0.211252
567.972135	0.211307
568.184935	0.211529
568.397716	0.211415
568.610478	0.211975
568.823223	0.212294
569.035949	0.212519
569.248657	0.212663
569.461347	0.212768
569.674019	0.213323
569.886672	0.213250
570.099308	0.213464
570.311925	0.213835
570.524523	0.213686
570.737104	0.213462
570.949666	0.213515
571.162210	0.213763
571.374736	0.213785
571.587244	0.214321
571.799733	0.214556
572.012205	0.214891
572.224658	0.214928
572.437092	0.214778
572.649509	0.215368
572.861907	0.215351
573.074287	0.215498
573.286649	0.215817
573.498993	0.215625
573.711318	0.216345
573.923625	0.215983
574.135914	0.216409
574.348185	0.216816
574.560438	0.216828
574.772672	0.216721
574.984888	0.217305
575.197086	0.217428
575.409266	0.217538
575.621427	0.217506
575.833570	0.217519
576.045695	0.217624
576.257802	0.217421
576.469890	0.217875
576.681961	0.217849
576.894013	0.217435
577.106046	0.217472
577.318062	0.217569
577.530059	0.217441
577.742039	0.217769
577.954000	0.217532
578.165942	0.217998
578.377867	0.217968
578.589773	0.218994
578.801661	0.219244
579.013531	0.219326
579.225382	0.219526
579.437216	0.219869
579.649031	0.219822
579.860828	0.220500
580.072606	0.220427
580.284367	0.220811
580.496109	0.220354
580.707833	0.220560
580.919539	0.220751
581.131227	0.220551
581.342896	0.220626
581.554547	0.221202
581.766180	0.220825
581.977795	0.221446
582.189391	0.221314
582.400969	0.221470
582.612529	0.221659
582.824071	0.221615
583.035595	0.222130
583.247100	0.222414
583.458587	0.222690
583.670056	0.222986
583.881506	0.223149
584.092939	0.223311
584.304353	0.223281
584.515749	0.223465
584.727127	0.223992
584.938486	0.224303
585.149828	0.224102
585.361151	0.223926
585.572456	0.224172
585.783742	0.223738
585.995011	0.223858
586.206261	0.223925
586.417493	0.223755
586.628706	0.223452
586.839902	0.223281
587.051079	0.223592
587.262238	0.223753
587.473379	0.223549
587.684502	0.224297
587.895606	0.224325
588.106692	0.224708
588.317760	0.225160
588.528810	0.225506
588.739841	0.225842
588.950855	0.225583
589.161850	0.225265
589.372827	0.225401
589.583785	0.225496
589.794726	0.225692
590.005648	0.225519
590.216552	0.225420
590.427437	0.225451
590.638305	0.225471
590.849154	0.226201
591.059985	0.226940
591.270798	0.227342
591.481592	0.227483
591.692369	0.227601
591.903127	0.228106
592.113867	0.228484
592.324588	0.228981
592.535292	0.228947
592.745977	0.228833
592.956644	0.228708
593.167293	0.228586
593.377923	0.228679
593.588536	0.228940
593.799130	0.228977
594.009706	0.229074
594.220263	0.229431
594.430803	0.230130
594.641324	0.230277
594.851827	0.230450
595.062312	0.231075
595.272778	0.231485
595.483227	0.231975
595.693657	0.232239
595.904069	0.232273
596.114462	0.231979
596.324838	0.232258
596.535195	0.232100
596.745534	0.232299
596.955855	0.231849
597.166157	0.231884
597.376441	0.231999
597.586707	0.232353
597.796955	0.232685
598.007185	0.232916
598.217396	0.232780
598.427589	0.233420
598.637764	0.233342
598.847921	0.233692
599.058060	0.233293
599.268180	0.232815
599.478282	0.232918
599.688366	0.233026
599.898431	0.233202
600.108479	0.233097
600.318508	0.233102
600.528519	0.233579
600.738511	0.234010
600.948486	0.234616
601.158442	0.235055
601.368380	0.235288
601.578300	0.235330
601.788202	0.235163
601.998085	0.235367
602.207950	0.235304
602.417797	0.235313
602.627626	0.235201
602.837436	0.235144
603.047228	0.235136
603.257002	0.234944
603.466758	0.235138
603.676496	0.235799
603.886215	0.235900
604.095916	0.236319
604.305599	0.236250
604.515264	0.236617
604.724910	0.236563
604.934538	0.236751
605.144148	0.236858
605.353740	0.236713
605.563314	0.236464
605.772869	0.236716
605.982406	0.237163
606.191925	0.237644
606.401425	0.237735
606.610908	0.237926
606.820372	0.238006
607.029818	0.238283
607.239246	0.238332
607.448655	0.238829
607.658047	0.238835
607.867420	0.238535
608.076775	0.238543
608.286111	0.238729
608.495430	0.239008
608.704730	0.239214
608.914012	0.239590
609.123275	0.240025
609.332521	0.239929
609.541748	0.240029
609.750957	0.240311
609.960148	0.240466
610.169321	0.240419
610.378475	0.240453
610.587611	0.240622
610.796729	0.240394
611.005829	0.240308
611.214910	0.240554
611.423974	0.240558
611.633019	0.240719
611.842045	0.241018
612.051054	0.241142
612.260044	0.241111
612.469017	0.241129
612.677970	0.241119
612.886906	0.241477
613.095824	0.241581
613.304723	0.241479
613.513604	0.241411
613.722467	0.241318
613.931311	0.241441
614.140138	0.241648
614.348946	0.241777
614.557736	0.242080
614.766507	0.242096
614.975261	0.242248
615.183996	0.242812
615.392713	0.242761
615.601412	0.242896
615.810092	0.243279
616.018754	0.243594
616.227399	0.243717
616.436024	0.244007
616.644632	0.244263
616.853222	0.244240
617.061793	0.244183
617.270346	0.244330
617.478880	0.244425
617.687397	0.244278
617.895895	0.244297
618.104375	0.244308
618.312837	0.244575
618.521281	0.244408
618.729706	0.244605
618.938113	0.244763
619.146502	0.244839
619.354873	0.245107
619.563226	0.245375
619.771560	0.245705
619.979876	0.245859
620.188174	0.245810
620.396453	0.246307
620.604715	0.246293
620.812958	0.246509
621.021183	0.246977
621.229390	0.246848
621.437578	0.246665
621.645748	0.246579
621.853900	0.246948
622.062034	0.246962
622.270150	0.246977
622.478247	0.247229
622.686326	0.247420
622.894387	0.247243
623.102430	0.247457
623.310454	0.247691
623.518461	0.247960
623.726449	0.248006
623.934418	0.248302
624.142370	0.248363
624.350303	0.248649
624.558218	0.248713
624.766115	0.249064
624.973994	0.249480
625.181855	0.249524
625.389697	0.249499
625.597521	0.249729
625.805327	0.249627
626.013114	0.249588
626.220883	0.249601
626.428634	0.249791
626.636367	0.249649
626.844082	0.249745
627.051778	0.250061
627.259457	0.250237
627.467117	0.250204
627.674758	0.250468
627.882382	0.250801
628.089987	0.251122
628.297574	0.251255
628.505143	0.251536
628.712694	0.251712
628.920226	0.251800
629.127740	0.251893
629.335236	0.252225
629.542714	0.252398
629.750174	0.252520
629.957615	0.252402
630.165038	0.252522
630.372443	0.252725
630.579829	0.252478
630.787198	0.252741
630.994548	0.252822
631.201880	0.252705
631.409194	0.252568
631.616489	0.252980
631.823766	0.253151
632.031025	0.253340
632.238266	0.253434
632.445489	0.253645
632.652693	0.253733
632.859879	0.254001
633.067047	0.254408
633.274197	0.254638
633.481329	0.254363
633.688442	0.254251
633.895537	0.254537
634.102614	0.254800
634.309672	0.255023
634.516713	0.255230
634.723735	0.255235
634.930739	0.255242
635.137724	0.255393
635.344692	0.255509
635.551641	0.255916
635.758572	0.255961
635.965485	0.256094
636.172379	0.256263
636.379256	0.256280
636.586114	0.256815
636.792954	0.257092
636.999775	0.257541
637.206579	0.257982
637.413364	0.258058
637.620131	0.258048
637.826880	0.258368
638.033610	0.258326
638.240323	0.258579
638.447017	0.258531
638.653692	0.258736
638.860350	0.258540
639.066990	0.258611
639.273611	0.258813
639.480214	0.259448
639.686798	0.259338
639.893365	0.259654
640.099913	0.259930
640.306443	0.260053
640.512955	0.260061
640.719449	0.260525
640.925924	0.260761
641.132381	0.261083
641.338820	0.260727
641.545241	0.261231
641.751644	0.261532
641.958028	0.261696
642.164394	0.261701
642.370742	0.262008
642.577071	0.262060
642.783383	0.262004
642.989676	0.262051
643.195951	0.262295
643.402207	0.262043
643.608446	0.262098
643.814666	0.262151
644.020868	0.262350
644.227052	0.262630
644.433218	0.262938
644.639365	0.263286
644.845494	0.263612
645.051605	0.263874
645.257698	0.264191
645.463772	0.264000
645.669828	0.264058
645.875866	0.264447
646.081886	0.264281
646.287888	0.264120
646.493871	0.264232
646.699836	0.264004
646.905783	0.264124
647.111712	0.264283
647.317622	0.264999
647.523514	0.265355
647.729388	0.265145
647.935244	0.265388
648.141082	0.265859
648.346901	0.265944
648.552702	0.266332
648.758485	0.266643
648.964250	0.267015
649.169996	0.267334
649.375724	0.267385
649.581434	0.267731
649.787126	0.268171
649.992800	0.268423
650.198455	0.268766
650.404092	0.269126
650.609711	0.269253
650.815311	0.269443
651.020894	0.269518
651.226458	0.269671
651.432004	0.270110
651.637532	0.270080
651.843041	0.269910
652.048532	0.270010
652.254006	0.270191
652.459460	0.270371
652.664897	0.270243
652.870315	0.270068
653.075716	0.270388
653.281097	0.270535
653.486461	0.270823
653.691807	0.271058
653.897134	0.271475
654.102443	0.271518
654.307734	0.271688
654.513006	0.271955
654.718261	0.272260
654.923497	0.272590
655.128715	0.272397
655.333915	0.272447
655.539096	0.272626
655.744259	0.272649
655.949404	0.272955
656.154531	0.272961
656.359640	0.273153
656.564730	0.273593
656.769802	0.273724
656.974856	0.274391
657.179892	0.274286
657.384909	0.274490
657.589908	0.274566
657.794889	0.274678
657.999852	0.275057
658.204797	0.275285
658.409723	0.275425
658.614631	0.275597
658.819521	0.275560
659.024393	0.276042
659.229246	0.276419
659.434081	0.276903
659.638898	0.277257
659.843697	0.277497
660.048478	0.277837
660.253240	0.277773
660.457984	0.277869
660.662710	0.278239
660.867417	0.278599
661.072107	0.278985
661.276778	0.279018
661.481431	0.279003
661.686066	0.279326
661.890682	0.279405
662.095281	0.279678
662.299861	0.279995
662.504422	0.280358
662.708966	0.280504
662.913491	0.280710
663.117999	0.280878
663.322488	0.281341
663.526958	0.281451
663.731411	0.281995
663.935845	0.282458
664.140261	0.282625
664.344659	0.282652
664.549038	0.282587
664.753400	0.282514
664.957743	0.282823
665.162068	0.282966
665.366375	0.283065
665.570663	0.283102
665.774933	0.283249
665.979185	0.283448
666.183419	0.283622
666.387635	0.283869
666.591832	0.284142
666.796011	0.284131
667.000172	0.284206
667.204315	0.284547
667.408439	0.284643
667.612545	0.284670
667.816634	0.284983
668.020703	0.284893
668.224755	0.285374
668.428788	0.285776
668.632803	0.286171
668.836800	0.286462
669.040779	0.286807
669.244739	0.286922
669.448681	0.287220
669.652605	0.287307
669.856511	0.287850
670.060399	0.287935
670.264268	0.288019
670.468119	0.288057
670.671952	0.287948
670.875767	0.287810
671.079563	0.288377
671.283341	0.288597
671.487101	0.288841
671.690843	0.289007
671.894567	0.289211
672.098272	0.289414
672.301959	0.289796
672.505628	0.290113
672.709278	0.290449
672.912911	0.290722
673.116525	0.290954
673.320121	0.291096
673.523699	0.291388
673.727258	0.291562
673.930799	0.291659
674.134322	0.291981
674.337827	0.292342
674.541314	0.292453
674.744782	0.292360
674.948232	0.292295
675.151664	0.292353
675.355078	0.292620
675.558474	0.293142
675.761851	0.293444
675.965210	0.293617
676.168551	0.293742
676.371873	0.294109
676.575178	0.294298
676.778464	0.294841
676.981732	0.295196
677.184981	0.295284
677.388213	0.295267
677.591426	0.295331
677.794621	0.295290
677.997798	0.295472
678.200956	0.295481
678.404097	0.295684
678.607219	0.295815
678.810323	0.296031
679.013408	0.296319
679.216476	0.296547
679.419525	0.296687
679.622556	0.297152
679.825569	0.297361
680.028563	0.297719
680.231540	0.298126
680.434498	0.298261
680.637438	0.298502
680.840359	0.298633
681.043263	0.298953
681.246148	0.299480
681.449015	0.299522
681.651864	0.299832
681.854694	0.300043
682.057506	0.300016
682.260301	0.300053
682.463076	0.300401
682.665834	0.300419
682.868573	0.300476
683.071295	0.300610
683.273998	0.300999
683.476682	0.301213
683.679349	0.301180
683.881997	0.301298
684.084627	0.301596
684.287239	0.301552
684.489833	0.301770
684.692408	0.301960
684.894965	0.302116
685.097504	0.302240
685.300025	0.302581
685.502527	0.302800
685.705012	0.303109
685.907478	0.303357
686.109925	0.303668
686.312355	0.304085
686.514766	0.304158
686.717159	0.304346
686.919534	0.304581
687.121891	0.304758
687.324230	0.305225
687.526550	0.305272
687.728852	0.305770
687.931136	0.305923
688.133401	0.306195
688.335649	0.306536
688.537878	0.306666
688.740089	0.306890
688.942281	0.307007
689.144456	0.306943
689.346612	0.307409
689.548750	0.307451
689.750870	0.307617
689.952971	0.307659
690.155055	0.307877
690.357120	0.308272
690.559167	0.308346
690.761195	0.308323
690.963206	0.308615
691.165198	0.308599
691.367172	0.308385
691.569128	0.308436
691.771065	0.308678
691.972984	0.308644
692.174885	0.308614
692.376768	0.308630
692.578633	0.308787
692.780479	0.308741
692.982308	0.308999
693.184118	0.309321
693.385909	0.309440
693.587683	0.309513
693.789438	0.309711
693.991175	0.310114
694.192894	0.310258
694.394595	0.310445
694.596277	0.310464
694.797941	0.310533
694.999587	0.310525
695.201215	0.310926
695.402824	0.310850
695.604416	0.311145
695.805989	0.310948
696.007543	0.311198
696.209080	0.311421
696.410598	0.311823
696.612099	0.311924
696.813580	0.312307
697.015044	0.312398
697.216490	0.312814
697.417917	0.312998
697.619326	0.313477
697.820717	0.313757
698.022089	0.314076
698.223444	0.314200
698.424780	0.314575
698.626098	0.314788
698.827397	0.315169
699.028679	0.315096
699.229942	0.315397
699.431187	0.315245
699.632414	0.315153
699.833622	0.315179
700.034813	0.315454
700.235985	0.315493
700.437139	0.315444
700.638274	0.315276
700.839392	0.315356
701.040491	0.315310
701.241572	0.315552
701.442635	0.315852
701.643679	0.315865
701.844706	0.315968
702.045714	0.315712
702.246704	0.315866
702.447675	0.316186
702.648629	0.316432
702.849564	0.316320
703.050481	0.316427
703.251380	0.316265
703.452260	0.316440
703.653122	0.316376
703.853966	0.316668
704.054792	0.316633
704.255600	0.316059
704.456389	0.316100
704.657160	0.316243
704.857913	0.316153
705.058648	0.316551
705.259365	0.316299
705.460063	0.316523
705.660743	0.316688
705.861405	0.317003
706.062048	0.317644
706.262674	0.317719
706.463281	0.317744
706.663870	0.317832
706.864441	0.317630
707.064993	0.318050
707.265527	0.317809
707.466043	0.317873
707.666541	0.317835
707.867021	0.317921
708.067482	0.318061
708.267925	0.317818
708.468350	0.317794
708.668757	0.317563
708.869145	0.317384
709.069516	0.317488
709.269868	0.317486
709.470201	0.317690
709.670517	0.317375
709.870814	0.317330
710.071093	0.317392
710.271354	0.317592
710.471597	0.317945
710.671821	0.317843
710.872028	0.317937
711.072216	0.317984
711.272385	0.317649
711.472537	0.317681
711.672670	0.317426
711.872785	0.317660
712.072882	0.317268
712.272961	0.317180
712.473021	0.317494
712.673063	0.317372
712.873087	0.317168
713.073093	0.317109
713.273081	0.316832
713.473050	0.316984
713.673001	0.316561
713.872934	0.316564
714.072849	0.316460
714.272745	0.316041
714.472623	0.316043
714.672483	0.316071
714.872325	0.316184
715.072148	0.316325
715.271954	0.316158
715.471741	0.316547
715.671509	0.316748
715.871260	0.316683
716.070992	0.316752
716.270707	0.316897
716.470403	0.316808
716.670080	0.316727
716.869740	0.316733
717.069381	0.316849
717.269004	0.316829
717.468609	0.316704
717.668195	0.316697
717.867764	0.316955
718.067314	0.316731
718.266846	0.316478
718.466360	0.316231
718.665855	0.316164
718.865332	0.316063
719.064791	0.315820
719.264232	0.315634
719.463655	0.315635
719.663059	0.315196
719.862445	0.314877
720.061813	0.314875
720.261163	0.315158
720.460494	0.315180
720.659807	0.315048
720.859102	0.314790
721.058379	0.314891
721.257638	0.314662
721.456878	0.314558
721.656100	0.314698
721.855304	0.314610
722.054490	0.314474
722.253657	0.314306
722.452806	0.314331
722.651937	0.314505
722.851050	0.314266
723.050145	0.314228
723.249221	0.314144
723.448279	0.314232
723.647319	0.314446
723.846340	0.314251
724.045344	0.314188
724.244329	0.313985
724.443296	0.313951
724.642245	0.313771
724.841175	0.313743
725.040088	0.313547
725.238982	0.313028
725.437857	0.312716
725.636715	0.312524
725.835554	0.312394
726.034376	0.312211
726.233179	0.311938
726.431963	0.311956
726.630730	0.312176
726.829478	0.312254
727.028208	0.312460
727.226920	0.312492
727.425614	0.312367
727.624289	0.312312
727.822946	0.312126
728.021585	0.312048
728.220206	0.311964
728.418808	0.311467
728.617392	0.311307
728.815958	0.311009
729.014506	0.310819
729.213036	0.310879
729.411547	0.310379
729.610040	0.310516
729.808515	0.310484
730.006972	0.310365
730.205410	0.310175
730.403831	0.309905
730.602233	0.309729
730.800616	0.309418
730.998982	0.309023
731.197329	0.309021
731.395658	0.308554
731.593969	0.308238
731.792262	0.308080
731.990536	0.307806
732.188793	0.307962
732.387031	0.307699
732.585250	0.307574
732.783452	0.307350
732.981635	0.307256
733.179800	0.307227
733.377947	0.307065
733.576076	0.306600
733.774186	0.306710
733.972278	0.306300
734.170352	0.306385
734.368408	0.306233
734.566446	0.306100
734.764465	0.306001
734.962466	0.305843
735.160449	0.305735
735.358413	0.305899
735.556360	0.305388
735.754288	0.305347
735.952198	0.304958
736.150090	0.304683
736.347963	0.304311
736.545818	0.304282
736.743655	0.303869
736.941474	0.303656
737.139275	0.303319
737.337057	0.303188
737.534821	0.303016
737.732567	0.303093
737.930295	0.303117
738.128005	0.303232
738.325696	0.302755
738.523369	0.302752
738.721024	0.302653
738.918660	0.302744
739.116279	0.302575
739.313879	0.302534
739.511461	0.302324
739.709024	0.301697
739.906570	0.301495
740.104097	0.301201
740.301606	0.300830
740.499097	0.300554
740.696569	0.300143
740.894024	0.300058
741.091460	0.299472
741.288878	0.299182
741.486277	0.299274
741.683659	0.299153
741.881022	0.299266
742.078367	0.299362
742.275694	0.299039
742.473002	0.298791
742.670293	0.298539
742.867565	0.298323
743.064819	0.297976
743.262054	0.297801
743.459272	0.297503
743.656471	0.296953
743.853652	0.296454
744.050815	0.296307
744.247959	0.296105
744.445085	0.295779
744.642194	0.295607
744.839283	0.295366
745.036355	0.295038
745.233408	0.294776
745.430444	0.294644
745.627461	0.294183
745.824459	0.294127
746.021440	0.293956
746.218402	0.293873
746.415346	0.293628
746.612272	0.293499
746.809180	0.293134
747.006069	0.292831
747.202940	0.292639
747.399793	0.292887
747.596628	0.292496
747.793444	0.292083
747.990243	0.291799
748.187023	0.291440
748.383784	0.291160
748.580528	0.291181
748.777253	0.291093
748.973960	0.290963
749.170649	0.290712
749.367320	0.290582
749.563973	0.290400
749.760607	0.290108
749.957223	0.290274
750.153821	0.290162
750.350400	0.289898
750.546962	0.289824
750.743505	0.289709
750.940030	0.289402
751.136536	0.289258
751.333025	0.289112
751.529495	0.289142
751.725947	0.288825
751.922381	0.288761
752.118796	0.288626
752.315194	0.288454
752.511573	0.288095
752.707934	0.287955
752.904276	0.287425
753.100601	0.287206
753.296907	0.286739
753.493195	0.286667
753.689465	0.286227
753.885716	0.286400
754.081949	0.285956
754.278164	0.285919
754.474361	0.285915
754.670540	0.285932
754.866700	0.285855
755.062843	0.285877
755.258967	0.285782
755.455072	0.285487
755.651160	0.284845
755.847229	0.284651
756.043280	0.284339
756.239313	0.283908
756.435328	0.283767
756.631324	0.283658
756.827302	0.283439
757.023262	0.283098
757.219204	0.283138
757.415127	0.283058
757.611033	0.282948
757.806920	0.282674
758.002788	0.282442
758.198639	0.282380
758.394471	0.281986
758.590286	0.281723
758.786081	0.281340
758.981859	0.281465
759.177619	0.281199
759.373360	0.281061
759.569083	0.281006
759.764788	0.281010
759.960474	0.280633
760.156143	0.280589
760.351793	0.280481
760.547425	0.280412
760.743038	0.279832
760.938634	0.279628
761.134211	0.279151
761.329770	0.278928
761.525311	0.278707
761.720833	0.278765
761.916338	0.278852
762.111824	0.278589
762.307292	0.278542
762.502741	0.278411
762.698173	0.278497
762.893586	0.278787
763.088981	0.278755
763.284358	0.278629
763.479716	0.278484
763.675057	0.277979
763.870379	0.278102
764.065683	0.277870
764.260968	0.277829
764.456236	0.277350
764.651485	0.276972
764.846716	0.276815
765.041929	0.276675
765.237123	0.276681
765.432299	0.276666
765.627457	0.276342
765.822597	0.276172
766.017719	0.276028
766.212822	0.276199
766.407907	0.276218
766.602974	0.276229
766.798023	0.276333
766.993054	0.276012
767.188066	0.276014
767.383060	0.276170
767.578036	0.276249
767.772993	0.275967
767.967933	0.275569
768.162854	0.275486
768.357757	0.275312
768.552642	0.275124
768.747508	0.274876
768.942356	0.274723
769.137186	0.274498
769.331998	0.274160
769.526792	0.274233
769.721567	0.274361
769.916324	0.274205
770.111063	0.273853
770.305784	0.273784
770.500486	0.273584
770.695171	0.273306
770.889837	0.273398
771.084484	0.273680
771.279114	0.273666
771.473725	0.273638
771.668318	0.273564
771.862893	0.273751
772.057450	0.273622
772.251988	0.273844
772.446509	0.273760
772.641011	0.273681
772.835494	0.273369
773.029960	0.273350
773.224407	0.273384
773.418836	0.273403
773.613247	0.273347
773.807640	0.273403
774.002014	0.273367
774.196370	0.273610
774.390708	0.273461
774.585028	0.273603
774.779330	0.273566
774.973613	0.273361
775.167878	0.273500
775.362125	0.273320
775.556354	0.273195
775.750564	0.272849
775.944756	0.272609
776.138930	0.272499
776.333086	0.272251
776.527223	0.272192
776.721343	0.272251
776.915444	0.272254
777.109526	0.272699
777.303591	0.272771
777.497637	0.272655
777.691666	0.272714
777.885676	0.272692
778.079667	0.272822
778.273641	0.272736
778.467596	0.272756
778.661533	0.272577
778.855452	0.272056
779.049352	0.272078
779.243235	0.272438
779.437099	0.272576
779.630945	0.272697
779.824773	0.272857
780.018582	0.273167
780.212373	0.273148
780.406146	0.273090
780.599901	0.273491
780.793638	0.272990
780.987356	0.273020
781.181056	0.273231
781.374738	0.273094
781.568402	0.272842
781.762047	0.272809
781.955674	0.272801
782.149283	0.272811
782.342874	0.272738
782.536447	0.273175
782.730001	0.273280
782.923537	0.273340
783.117055	0.273346
783.310555	0.273415
783.504036	0.273172
783.697499	0.273148
783.890944	0.273231
784.084371	0.273315
784.277780	0.273445
784.471170	0.273512
784.664542	0.273151
784.857896	0.273149
785.051231	0.273379
785.244549	0.273635
785.437848	0.273499
785.631129	0.273617
785.824392	0.273598
786.017636	0.273626
786.210863	0.273377
786.404071	0.273572
786.597260	0.273881
786.790432	0.273975
786.983585	0.273950
787.176721	0.274434
787.369838	0.274608
787.562936	0.274871
787.756017	0.274985
787.949079	0.275164
788.142123	0.275002
788.335149	0.274873
788.528156	0.274783
788.721146	0.274757
788.914117	0.274741
789.107070	0.274341
789.300005	0.273968
789.492921	0.274037
789.685819	0.274065
789.878699	0.274270
790.071561	0.274404
790.264405	0.274374
790.457230	0.274868
790.650037	0.275089
790.842826	0.275774
791.035597	0.276232
791.228349	0.276568
791.421084	0.276938
791.613800	0.277191
791.806497	0.277453
791.999177	0.277836
792.191838	0.277863
792.384481	0.277788
792.577106	0.277678
792.769713	0.277906
792.962301	0.277424
793.154871	0.277796
793.347423	0.278147
793.539957	0.278161
793.732473	0.278152
793.924970	0.278067
794.117449	0.278235
794.309910	0.278377
794.502353	0.278354
794.694777	0.278855
794.887183	0.278958
795.079571	0.278729
795.271941	0.278930
795.464293	0.279264
795.656626	0.279668
795.848941	0.280008
796.041238	0.280597
796.233516	0.280834
796.425777	0.281047
796.618019	0.281058
796.810243	0.281414
797.002449	0.281607
797.194636	0.281859
797.386805	0.282024
797.578956	0.282337
797.771089	0.282059
797.963204	0.282333
798.155300	0.282419
798.347378	0.282378
798.539438	0.282456
798.731480	0.282706
798.923503	0.282716
799.115509	0.282721
799.307496	0.282886
799.499465	0.283242
799.691415	0.283254
799.883348	0.283751
800.075262	0.284202
800.267158	0.284492
800.459035	0.284551
800.650895	0.284944
800.842736	0.285533
801.034559	0.285841
801.226364	0.286054
801.418150	0.286427
801.609919	0.286686
801.801669	0.286716
801.993401	0.287082
802.185114	0.287555
802.376810	0.287582
802.568487	0.287615
802.760146	0.287442
802.951787	0.287623
803.143409	0.287603
803.335014	0.287400
803.526600	0.287731
803.718168	0.287854
803.909717	0.288060
804.101249	0.288341
804.292762	0.288224
804.484257	0.288675
804.675734	0.289002
804.867192	0.289245
805.058632	0.289858
805.250054	0.290224
805.441458	0.290518
805.632844	0.290837
805.824211	0.291189
806.015561	0.291702
806.206891	0.291939
806.398204	0.292509
806.589499	0.292868
806.780775	0.292976
806.972033	0.293298
807.163273	0.293617
807.354495	0.294033
807.545698	0.294256
807.736883	0.294439
807.928050	0.294739
808.119199	0.294800
808.310329	0.294993
808.501441	0.295147
808.692535	0.295265
808.883611	0.295442
809.074669	0.295437
809.265708	0.295904
809.456729	0.296678
809.647732	0.297336
809.838717	0.297670
810.029683	0.298020
810.220632	0.298556
810.411562	0.299092
810.602474	0.299639
810.793367	0.299926
810.984242	0.300332
811.175100	0.300366
811.365938	0.300487
811.556759	0.300535
811.747562	0.300978
811.938346	0.301268
812.129112	0.301416
812.319860	0.301427
812.510589	0.301867
812.701300	0.302056
812.891994	0.302367
813.082668	0.302696
813.273325	0.303262
813.463964	0.303510
813.654584	0.303656
813.845186	0.303969
814.035769	0.304650
814.226335	0.305213
814.416882	0.305439
814.607411	0.305703
814.797922	0.305823
814.988415	0.306365
815.178889	0.306907
815.369345	0.307684
815.559783	0.308150
815.750203	0.308315
815.940605	0.308509
816.130988	0.309078
816.321353	0.309730
816.511700	0.310065
816.702028	0.310159
816.892339	0.310631
817.082631	0.310718
817.272905	0.311116
817.463161	0.311643
817.653398	0.311845
817.843617	0.311908
818.033819	0.311905
818.224001	0.312206
818.414166	0.312583
818.604312	0.312840
818.794440	0.313273
818.984550	0.313805
819.174642	0.313930
819.364716	0.314758
819.554771	0.315430
819.744808	0.316089
819.934827	0.316931
820.124827	0.317432
820.314810	0.317828
820.504774	0.318260
820.694720	0.318796
820.884647	0.319328
821.074557	0.319576
821.264448	0.320010
821.454321	0.320436
821.644176	0.320598
821.834012	0.321004
822.023831	0.321447
822.213631	0.321817
822.403413	0.321820
822.593176	0.322258
822.782922	0.322509
822.972649	0.322926
823.162358	0.323380
823.352049	0.323787
823.541721	0.324090
823.731376	0.324558
823.921012	0.324895
824.110629	0.325704
824.300229	0.325866
824.489811	0.326171
824.679374	0.326343
824.868919	0.326477
825.058445	0.326917
825.247954	0.327073
825.437444	0.327196
825.626916	0.327292
825.816370	0.327346
826.005806	0.327885
826.195223	0.328677
826.384622	0.329420
826.574003	0.329682
826.763366	0.329803
826.952711	0.330410
827.142037	0.331056
827.331345	0.331782
827.520635	0.331932
827.709906	0.332338
827.899160	0.332360
828.088395	0.332545
828.277612	0.333032
828.466810	0.334016
828.655991	0.334243
828.845153	0.334663
829.034297	0.335060
829.223423	0.335690
829.412531	0.336341
829.601620	0.336875
829.790691	0.336983
829.979744	0.337796
830.168779	0.338133
830.357795	0.338847
830.546793	0.339697
830.735773	0.340311
830.924735	0.341373
831.113679	0.341960
831.302604	0.342387
831.491511	0.343140
831.680400	0.343554
831.869271	0.343804
832.058123	0.344204
832.246957	0.344359
832.435773	0.344808
832.624571	0.344877
832.813351	0.345528
833.002112	0.346124
833.190855	0.346775
833.379580	0.347097
833.568287	0.347503
833.756975	0.347833
833.945645	0.347893
834.134297	0.348661
834.322931	0.348957
834.511547	0.348806
834.700144	0.349239
834.888723	0.349662
835.077284	0.350219
835.265826	0.350336
835.454351	0.351154
835.642857	0.352203
835.831345	0.352667
836.019815	0.353294
836.208266	0.354242
836.396699	0.354775
836.585114	0.355040
836.773511	0.355247
836.961890	0.356218
837.150250	0.356843
837.338592	0.357183
837.526916	0.357174
837.715222	0.357752
837.903510	0.358060
838.091779	0.358395
838.280030	0.359061
838.468263	0.359678
838.656477	0.360316
838.844674	0.360515
839.032852	0.361050
839.221012	0.361946
839.409153	0.362362
839.597277	0.362760
839.785382	0.363522
839.973469	0.363837
840.161538	0.364648
840.349589	0.364909
840.537621	0.365191
840.725635	0.365578
840.913631	0.365855
841.101609	0.366317
841.289568	0.366881
841.477509	0.367245
841.665432	0.368083
841.853337	0.368216
842.041224	0.368639
842.229092	0.369559
842.416942	0.370428
842.604774	0.371049
842.792588	0.371506
842.980383	0.372308
843.168160	0.373427
843.355919	0.373651
843.543660	0.374464
843.731382	0.375218
843.919087	0.375640
844.106773	0.375657
844.294441	0.375940
844.482090	0.376547
844.669722	0.376771
844.857335	0.376774
845.044930	0.377360
845.232507	0.377590
845.420065	0.378237
845.607605	0.378366
845.795127	0.378979
845.982631	0.379635
846.170117	0.380125
846.357584	0.380627
846.545033	0.381074
846.732464	0.381838
846.919877	0.382563
847.107272	0.383309
847.294648	0.384244
847.482006	0.384636
847.669346	0.385044
847.856667	0.385522
848.043971	0.386240
848.231256	0.386817
848.418523	0.387239
848.605771	0.387842
848.793002	0.387911
848.980214	0.388342
849.167408	0.389228
849.354584	0.389667
849.541742	0.390382
849.728881	0.390258
849.916002	0.390640
850.103105	0.390899
850.290190	0.391183
850.477256	0.391810
850.664304	0.392252
850.851334	0.392525
851.038346	0.393258
851.225340	0.393722
851.412315	0.394256
851.599272	0.394730
851.786211	0.395138
851.973132	0.395796
852.160034	0.396257
852.346918	0.396636
852.533784	0.396851
852.720632	0.397383
852.907462	0.397865
853.094273	0.398893
853.281066	0.399356
853.467841	0.400358
853.654598	0.400967
853.841336	0.401639
854.028056	0.402374
854.214758	0.403026
854.401442	0.403316
854.588107	0.404152
854.774755	0.404868
854.961384	0.405717
855.147995	0.405600
855.334587	0.405917
855.521162	0.406158
855.707718	0.406480
855.894256	0.407112
856.080775	0.407311
856.267277	0.406959
856.453760	0.406922
856.640225	0.407147
856.826672	0.407709
857.013101	0.407875
857.199511	0.408518
857.385903	0.408890
857.572277	0.409115
857.758633	0.409929
857.944970	0.411028
858.131290	0.411743
858.317591	0.411863
858.503873	0.412370
858.690138	0.413310
858.876384	0.413542
859.062612	0.414132
859.248822	0.414980
859.435014	0.415737
859.621188	0.416138
859.807343	0.416314
859.993480	0.416982
860.179599	0.417520
860.365699	0.417857
860.551781	0.418584
860.737846	0.419247
860.923891	0.419670
861.109919	0.420037
861.295929	0.420214
861.481920	0.421029
861.667893	0.421421
861.853848	0.422330
862.039784	0.422848
862.225702	0.422926
862.411603	0.423293
862.597484	0.423872
862.783348	0.424632
862.969193	0.424817
863.155021	0.425549
863.340830	0.426098
863.526620	0.426538
863.712393	0.426866
863.898147	0.427642
864.083883	0.427738
864.269601	0.427876
864.455301	0.428040
864.640982	0.428690
864.826645	0.428935
865.012290	0.429834
865.197917	0.430446
865.383526	0.431126
865.569116	0.431427
865.754688	0.432294
865.940242	0.432772
866.125777	0.433268
866.311295	0.434162
866.496794	0.434369
866.682275	0.434692
866.867737	0.434787
867.053182	0.435210
867.238608	0.435607
867.424016	0.436049
867.609406	0.436772
867.794778	0.436838
867.980131	0.437078
868.165466	0.437389
868.350783	0.437180
868.536082	0.437446
868.721362	0.437636
868.906625	0.437725
869.091869	0.437795
869.277094	0.437646
869.462302	0.437718
869.647491	0.437964
869.832662	0.438049
870.017815	0.438821
870.202950	0.439542
870.388066	0.439785
870.573165	0.440506
870.758245	0.441053
870.943306	0.441482
871.128350	0.441958
871.313375	0.442325
871.498382	0.443041
871.683371	0.443509
871.868342	0.443404
872.053294	0.444158
872.238229	0.444692
872.423144	0.445100
872.608042	0.445514
872.792922	0.446470
872.977783	0.446783
873.162626	0.447207
873.347451	0.447220
873.532258	0.447453
873.717046	0.447404
873.901816	0.447621
874.086568	0.447917
874.271302	0.447857
874.456017	0.448066
874.640715	0.448059
874.825394	0.448167
875.010055	0.448651
875.194697	0.449226
875.379322	0.449702
875.563928	0.449883
875.748516	0.450103
875.933085	0.450526
876.117637	0.450472
876.302170	0.451465
876.486685	0.451930
876.671182	0.452014
876.855661	0.451738
877.040121	0.451961
877.224563	0.452642
877.408987	0.453066
877.593393	0.453081
877.777780	0.452977
877.962150	0.452643
878.146501	0.452676
878.330833	0.453218
878.515148	0.454186
878.699444	0.454427
878.883722	0.454232
879.067982	0.454344
879.252224	0.454803
879.436447	0.455267
879.620653	0.455813
879.804840	0.456652
879.989008	0.456558
880.173159	0.456141
880.357291	0.456480
880.541405	0.456791
880.725501	0.456469
880.909579	0.456988
881.093638	0.457082
881.277680	0.457350
881.461703	0.456948
881.645707	0.457234
881.829694	0.457876
882.013662	0.457712
882.197612	0.457232
882.381544	0.458135
882.565458	0.458490
882.749353	0.458545
882.933230	0.458379
883.117089	0.458798
883.300930	0.458938
883.484753	0.458467
883.668557	0.458383
883.852343	0.459270
884.036111	0.459409
884.219861	0.459243
884.403592	0.459768
884.587305	0.459517
884.771000	0.459789
884.954677	0.460306
885.138335	0.460850
885.321976	0.461059
885.505598	0.461209
885.689201	0.461112
885.872787	0.461496
886.056354	0.461761
886.239904	0.462208
886.423434	0.461725
886.606947	0.461323
886.790442	0.461311
886.973918	0.461326
887.157376	0.460908
887.340816	0.461177
887.524237	0.460920
887.707641	0.461023
887.891026	0.460890
888.074393	0.460767
888.257741	0.460575
888.441072	0.460777
888.624384	0.460730
888.807678	0.460303
888.990954	0.460259
889.174211	0.460165
889.357451	0.460174
889.540672	0.460470
889.723875	0.460736
889.907059	0.460887
890.090226	0.460367
890.273374	0.461157
890.456504	0.461062
890.639616	0.461135
890.822709	0.461250
891.005785	0.461148
891.188842	0.461464
891.371881	0.460927
891.554901	0.461368
891.737904	0.461782
891.920888	0.461465
892.103854	0.461863
892.286802	0.461779
892.469731	0.461867
892.652643	0.461387
892.835536	0.460962
893.018410	0.461580
893.201267	0.461638
893.384106	0.461854
893.566926	0.461704
893.749728	0.461730
893.932511	0.461627
894.115277	0.461780
894.298024	0.462020
894.480753	0.461413
894.663464	0.461677
894.846157	0.460953
895.028831	0.460650
895.211487	0.460708
895.394125	0.461339
895.576745	0.461095
895.759346	0.460239
895.941930	0.459695
896.124495	0.459758
896.307041	0.458665
896.489570	0.458948
896.672080	0.458469
896.854573	0.458217
897.037046	0.457662
897.219502	0.457371
897.401940	0.457642
897.584359	0.457844
897.766760	0.458413
897.949143	0.458419
898.131507	0.457952
898.313854	0.458314
898.496182	0.457836
898.678492	0.457625
898.860783	0.457201
899.043057	0.456637
899.225312	0.456519
899.407549	0.455957
899.589768	0.455725
899.771968	0.455822
899.954151	0.455607
900.136315	0.455013
900.318461	0.455295
900.500588	0.455246
900.682698	0.455101
900.864789	0.454210
901.046862	0.453703
901.228917	0.453842
901.410953	0.453594
901.592971	0.453092
901.774972	0.453346
901.956953	0.451891
902.138917	0.450947
902.320862	0.450624
902.502790	0.450609
902.684699	0.450504
902.866589	0.450026
903.048462	0.450081
903.230316	0.449648
903.412152	0.449483
903.593970	0.449721
903.775770	0.450019
903.957551	0.449574
904.139314	0.449606
904.321059	0.448821
904.502786	0.448162
904.684494	0.447690
904.866185	0.446797
905.047857	0.446449
905.229510	0.445447
905.411146	0.445210
905.592763	0.445119
905.774363	0.444667
905.955943	0.444477
906.137506	0.444698
906.319051	0.443841
906.500577	0.443625
906.682085	0.442182
906.863575	0.442090
907.045046	0.440826
907.226500	0.440385
907.407935	0.439529
907.589352	0.439228
907.770750	0.438333
907.952131	0.437221
908.133493	0.436670
908.314837	0.437238
908.496163	0.436403
908.677470	0.436733
908.858760	0.435875
909.040031	0.435380
909.221284	0.434982
909.402518	0.434776
909.583735	0.435036
909.764933	0.434867
909.946113	0.433660
910.127275	0.433471
910.308418	0.433085
910.489544	0.433348
910.670651	0.433378
910.851740	0.432640
911.032810	0.432472
911.213863	0.432273
911.394897	0.432005
911.575913	0.431780
911.756911	0.431465
911.937890	0.430845
912.118851	0.429631
912.299794	0.429259
912.480719	0.428537
912.661626	0.427104
912.842514	0.425649
913.023384	0.424929
913.204236	0.424603
913.385070	0.424050
913.565886	0.423327
913.746683	0.423208
913.927462	0.421913
914.108223	0.421663
914.288965	0.421709
914.469690	0.421606
914.650396	0.420494
914.831084	0.419915
915.011754	0.419467
915.192405	0.419013
915.373038	0.418099
915.553653	0.417719
915.734250	0.417713
915.914829	0.416932
916.095389	0.415408
916.275931	0.414657
916.456455	0.413601
916.636961	0.412708
916.817448	0.411954
916.997917	0.411519
917.178368	0.411304
917.358801	0.409714
917.539216	0.408679
917.719612	0.408566
917.899990	0.407731
918.080350	0.406978
918.260692	0.406078
918.441015	0.405446
918.621320	0.404335
918.801607	0.403399
918.981876	0.402745
919.162127	0.402189
919.342359	0.401654
919.522573	0.401506
919.702769	0.401029
919.882947	0.399894
920.063106	0.398730
920.243247	0.398293
920.423370	0.397450
920.603475	0.396173
920.783562	0.395351
920.963630	0.394024
921.143680	0.393531
921.323712	0.392987
921.503725	0.392682
921.683721	0.392163
921.863698	0.391605
922.043657	0.390885
922.223598	0.390398
922.403520	0.389358
922.583424	0.388487
922.763311	0.387488
922.943178	0.386881
923.123028	0.386669
923.302859	0.385077
923.482673	0.383842
923.662467	0.382528
923.842244	0.381999
924.022003	0.381066
924.201743	0.381269
924.381465	0.380150
924.561169	0.379171
924.740854	0.377872
924.920522	0.377817
925.100171	0.376842
925.279802	0.376514
925.459414	0.375276
925.639009	0.374947
925.818585	0.373490
925.998143	0.372466
926.177683	0.371591
926.357205	0.370841
926.536708	0.369443
926.716193	0.368525
926.895660	0.367427
927.075109	0.366484
927.254539	0.365645
927.433951	0.364831
927.613345	0.364342
927.792721	0.363243
927.972079	0.361655
928.151418	0.361075
928.330739	0.360263
928.510042	0.358354
928.689327	0.357864
928.868593	0.356353
929.047841	0.355570
929.227071	0.354425
929.406283	0.352655
929.585476	0.352434
929.764652	0.351931
929.943809	0.350466
930.122948	0.350350
930.302068	0.350106
930.481171	0.349651
930.660255	0.348600
930.839321	0.347186
931.018369	0.346868
931.197398	0.345990
931.376409	0.345122
931.555402	0.345449
931.734377	0.344695
931.913334	0.343578
932.092272	0.342109
932.271192	0.341428
932.450094	0.340581
932.628978	0.339095
932.807844	0.337602
932.986691	0.336242
933.165520	0.334277
933.344331	0.332874
933.523123	0.330797
933.701898	0.329859
933.880654	0.327958
934.059392	0.327327
934.238111	0.326472
934.416813	0.324971
934.595496	0.323102
934.774161	0.322478
934.952808	0.321328
935.131437	0.320674
935.310047	0.319947
935.488639	0.319085
935.667213	0.318018
935.845769	0.317939
936.024306	0.317166
936.202825	0.316557
936.381326	0.315086
936.559809	0.313844
936.738274	0.312026
936.916720	0.311185
937.095148	0.310185
937.273558	0.308145
937.451950	0.306653
937.630323	0.305504
937.808678	0.304181
937.987015	0.303655
938.165334	0.302403
938.343635	0.302174
938.521917	0.301266
938.700181	0.300595
938.878427	0.299824
939.056655	0.297525
939.234864	0.297236
939.413055	0.296356
939.591228	0.295126
939.769383	0.294198
939.947519	0.293453
940.125638	0.290921
940.303738	0.289132
940.481820	0.287621
940.659883	0.288434
940.837929	0.286526
941.015956	0.284986
941.193965	0.283147
941.371955	0.282941
941.549928	0.279969
941.727882	0.279770
941.905818	0.279522
942.083736	0.279330
942.261636	0.275633
942.439517	0.273938
942.617380	0.273283
942.795225	0.272365
942.973052	0.270357
943.150860	0.270476
943.328651	0.268981
943.506423	0.267475
943.684176	0.265828
943.861912	0.265739
944.039629	0.264517
944.217328	0.261932
944.395009	0.261917
944.572672	0.260305
944.750317	0.257721
944.927943	0.257184
945.105551	0.256895
945.283141	0.255876
945.460712	0.254190
945.638265	0.252041
945.815801	0.251616
945.993317	0.248817
946.170816	0.248057
946.348297	0.248262
946.525759	0.246572
946.703203	0.243371
946.880629	0.242654
947.058036	0.242675
947.235425	0.242717
947.412797	0.241927
947.590149	0.241370
947.767484	0.239071
947.944800	0.235791
948.122099	0.234441
948.299379	0.233304
948.476640	0.231809
948.653884	0.229556
948.831109	0.228443
949.008316	0.227583
949.185505	0.224372
949.362676	0.224671
949.539828	0.225096
949.716962	0.224425
949.894078	0.223036
950.071176	0.221859
950.248256	0.220759
950.425317	0.217944
950.602360	0.217115
950.779385	0.217659
950.956391	0.214629
951.133380	0.212859
951.310350	0.210399
951.487302	0.208763
951.664235	0.206599
951.841151	0.204939
952.018048	0.206564
952.194927	0.204634
952.371788	0.203962
952.548631	0.204548
952.725455	0.203445
952.902261	0.202187
953.079049	0.202580
953.255819	0.201243
953.432570	0.199899
953.609303	0.197419
953.786018	0.196533
953.962715	0.194028
954.139394	0.193022
954.316054	0.192764
954.492696	0.191660
954.669320	0.188870
954.845926	0.189573
955.022513	0.189107
955.199083	0.188565
955.375634	0.186456
955.552166	0.185011
955.728681	0.184136
955.905177	0.181337
956.081655	0.178416
956.258115	0.177788
956.434557	0.176437
956.610980	0.173860
956.787385	0.171919
956.963772	0.171965
957.140141	0.170562
957.316492	0.167587
957.492824	0.167250
957.669138	0.166454
957.845434	0.166300
958.021712	0.164199
958.197971	0.163600
958.374212	0.162792
958.550435	0.159727
958.726640	0.158997
958.902826	0.158088
959.078995	0.158776
959.255145	0.159692
959.431277	0.156208
959.607390	0.154474
959.783486	0.153678
959.959563	0.151823
960.135622	0.152498
960.311662	0.149928
960.487685	0.150916
960.663689	0.149748
960.839675	0.149848
961.015643	0.149296
961.191593	0.149900
961.367524	0.151763
961.543437	0.150923
961.719332	0.150324
961.895209	0.150916
962.071067	0.151042
962.246907	0.146775
962.422730	0.145428
962.598533	0.146452
962.774319	0.143924
962.950086	0.140891
963.125835	0.142129
963.301566	0.140129
963.477279	0.140544
963.652973	0.139348
963.828650	0.141460
964.004308	0.142170
964.179947	0.141445
964.355569	0.142938
964.531172	0.143168
964.706757	0.141435
964.882324	0.144454
965.057873	0.142452
965.233403	0.139875
965.408916	0.139067
965.584410	0.137292
965.759885	0.138676
965.935343	0.136948
966.110782	0.137053
966.286203	0.137492
966.461606	0.134244
966.636991	0.136517
966.812357	0.136424
966.987705	0.136196
967.163035	0.140119
967.338347	0.138259
967.513641	0.138431
967.688916	0.138018
967.864173	0.138033
968.039412	0.140631
968.214632	0.140164
968.389835	0.140471
968.565019	0.139045
968.740185	0.135359
968.915333	0.135131
969.090462	0.135540
969.265573	0.136470
969.440667	0.134373
969.615741	0.133365
969.790798	0.134135
969.965836	0.132939
970.140856	0.131770
970.315858	0.131096
970.490842	0.131674
970.665808	0.131768
970.840755	0.133356
971.015684	0.133707
971.190595	0.134560
971.365487	0.135079
971.540362	0.137307
971.715218	0.140767
971.890056	0.142108
972.064875	0.143852
972.239677	0.144516
972.414460	0.142711
972.589225	0.143682
972.763972	0.141252
972.938700	0.137236
973.113411	0.136929
973.288103	0.134689
973.462777	0.136358
973.637432	0.134774
973.812070	0.133651
973.986689	0.133852
974.161290	0.134010
974.335873	0.135676
974.510437	0.139921
974.684984	0.138713
974.859512	0.139522
975.034022	0.136421
975.208513	0.134707
975.382987	0.138436
975.557442	0.138330
975.731879	0.139824
975.906298	0.137788
976.080698	0.134342
976.255080	0.135794
976.429445	0.134208
976.603790	0.137017
976.778118	0.138432
976.952427	0.134735
977.126719	0.134883
977.300992	0.134937
977.475246	0.136597
977.649483	0.137596
977.823701	0.136069
977.997901	0.139979
978.172083	0.138692
978.346247	0.137836
978.520392	0.138476
978.694519	0.137329
978.868628	0.137743
979.042719	0.136909
979.216791	0.139121
979.390845	0.143559
979.564882	0.142746
979.738899	0.142443
979.912899	0.142218
980.086880	0.143368
980.260843	0.143063
980.434788	0.140264
980.608715	0.139602
980.782623	0.139690
980.956514	0.135718
981.130386	0.134671
981.304240	0.133170
981.478075	0.133648
981.651892	0.132395
981.825692	0.132559
981.999472	0.133672
982.173235	0.133398
982.346980	0.130365
982.520706	0.132118
982.694414	0.133500
982.868104	0.133783
983.041775	0.133425
983.215428	0.133597
983.389064	0.133633
983.562680	0.134312
983.736279	0.136259
983.909860	0.135543
984.083422	0.135873
984.256966	0.136170
984.430491	0.136213
984.603999	0.136111
984.777488	0.135696
984.950959	0.134997
985.124412	0.136743
985.297847	0.135925
985.471263	0.138880
985.644661	0.137349
985.818041	0.135029
985.991403	0.134951
986.164747	0.136845
986.338072	0.136742
986.511379	0.137777
986.684668	0.135485
986.857938	0.136268
987.031191	0.136511
987.204425	0.135343
987.377641	0.135404
987.550839	0.134979
987.724018	0.132642
987.897179	0.131857
988.070322	0.132107
988.243447	0.131364
988.416554	0.129369
988.589642	0.128024
988.762712	0.131037
988.935764	0.130934
989.108798	0.130406
989.281813	0.131844
989.454811	0.132619
989.627790	0.132012
989.800751	0.133293
989.973693	0.133376
990.146617	0.133766
990.319524	0.132195
990.492412	0.133414
990.665281	0.134180
990.838133	0.134978
991.010966	0.135909
991.183781	0.135567
991.356578	0.135670
991.529356	0.136404
991.702117	0.135241
991.874859	0.133601
992.047583	0.133680
992.220288	0.132571
992.392976	0.132741
992.565645	0.132320
992.738296	0.133431
992.910929	0.133220
993.083543	0.133607
993.256139	0.133426
993.428718	0.135577
993.601277	0.136257
993.773819	0.137243
993.946342	0.136035
994.118848	0.134703
994.291335	0.131999
994.463803	0.133174
994.636254	0.133491
994.808686	0.134654
994.981100	0.133909
995.153496	0.132590
995.325874	0.132817
995.498233	0.133211
995.670574	0.135156
995.842897	0.136942
996.015202	0.134332
996.187488	0.133470
996.359757	0.131479
996.532007	0.131367
996.704239	0.131289
996.876452	0.132179
997.048648	0.133202
997.220825	0.132814
997.392984	0.133466
997.565124	0.136530
997.737247	0.135902
997.909351	0.138515
998.081437	0.137587
998.253505	0.137369
998.425554	0.137146
998.597586	0.134775
998.769599	0.133609
998.941594	0.133504
999.113571	0.131821
999.285529	0.133215
999.457469	0.133562
999.629391	0.135688
999.801295	0.136223
999.973181	0.136404
1000.145048	0.139519
1000.316897	0.140498
1000.488728	0.140441
1000.660541	0.139141
1000.832335	0.136407
1001.004111	0.135376
1001.175869	0.133769
1001.347609	0.133669
1001.519331	0.133496
1001.691034	0.131467
1001.862719	0.132151
1002.034386	0.130776
1002.206035	0.131973
1002.377665	0.135092
1002.549277	0.134859
1002.720871	0.135491
1002.892447	0.136258
1003.064004	0.136938
1003.235544	0.136438
1003.407065	0.135287
1003.578568	0.136811
1003.750052	0.136683
1003.921519	0.135613
1004.092967	0.136773
1004.264397	0.135855
1004.435809	0.135671
1004.607202	0.134515
1004.778577	0.133836
1004.949934	0.135082
1005.121273	0.133191
1005.292594	0.133981
1005.463896	0.132268
1005.635180	0.131163
1005.806446	0.131755
1005.977694	0.131274
1006.148923	0.132101
1006.320135	0.134199
1006.491328	0.132256
1006.662503	0.133488
1006.833659	0.133082
1007.004798	0.135243
1007.175918	0.134608
1007.347020	0.134820
1007.518103	0.134351
1007.689169	0.131620
1007.860216	0.129926
1008.031245	0.131157
1008.202256	0.132823
1008.373248	0.132572
1008.544223	0.133764
1008.715179	0.134647
1008.886117	0.134795
1009.057036	0.133757
1009.227938	0.136270
1009.398821	0.136220
1009.569686	0.134745
1009.740533	0.132462
1009.911361	0.130936
1010.082172	0.128243
1010.252964	0.127467
1010.423738	0.127110
1010.594493	0.127226
1010.765231	0.128288
1010.935950	0.127850
1011.106651	0.129240
1011.277334	0.130551
1011.447998	0.131133
1011.618645	0.132532
1011.789273	0.132817
1011.959882	0.133275
1012.130474	0.135051
1012.301048	0.133943
1012.471603	0.133738
1012.642140	0.132700
1012.812658	0.131710
1012.983159	0.132055
1013.153641	0.131428
1013.324105	0.131982
1013.494551	0.131875
1013.664979	0.132648
1013.835388	0.132099
1014.005779	0.132751
1014.176152	0.134508
1014.346507	0.136746
1014.516843	0.136101
1014.687162	0.137162
1014.857462	0.136923
1015.027744	0.136571
1015.198007	0.132893
1015.368252	0.133153
1015.538480	0.135957
1015.708689	0.135610
1015.878879	0.133745
1016.049052	0.133793
1016.219206	0.133654
1016.389342	0.132791
1016.559460	0.131857
1016.729559	0.133678
1016.899641	0.133984
1017.069704	0.132081
1017.239749	0.130941
1017.409775	0.130683
1017.579784	0.130246
1017.749774	0.129566
1017.919746	0.129620
1018.089700	0.131367
1018.259635	0.130794
1018.429553	0.130499
1018.599452	0.130191
1018.769333	0.129649
1018.939195	0.130289
1019.109040	0.130280
1019.278866	0.131550
1019.448674	0.131325
1019.618464	0.130278
1019.788235	0.131984
1019.957989	0.129884
1020.127724	0.130566
1020.297441	0.131622
1020.467139	0.132477
1020.636820	0.131239
1020.806482	0.129842
1020.976126	0.132099
1021.145752	0.131987
1021.315359	0.131402
1021.484948	0.132865
1021.654519	0.132564
1021.824072	0.132284
1021.993607	0.130753
1022.163123	0.133053
1022.332621	0.132218
1022.502101	0.132414
1022.671563	0.133186
1022.841007	0.133261
1023.010432	0.132923
1023.179839	0.132858
1023.349228	0.133144
1023.518598	0.132825
1023.687951	0.133158
1023.857285	0.132876
1024.026601	0.130915
1024.195899	0.128641
1024.365178	0.128797
1024.534439	0.128986
1024.703682	0.127761
1024.872907	0.128322
1025.042114	0.126983
1025.211302	0.126820
1025.380472	0.126654
1025.549624	0.128137
1025.718758	0.130002
1025.887873	0.129974
1026.056970	0.128940
1026.226049	0.128101
1026.395110	0.127798
1026.564153	0.130203
1026.733177	0.130789
1026.902183	0.131957
1027.071171	0.130375
1027.240141	0.130828
1027.409092	0.129804
1027.578026	0.132096
1027.746940	0.133348
1027.915837	0.131144
1028.084716	0.129978
1028.253576	0.128747
1028.422418	0.129216
1028.591242	0.129045
1028.760048	0.128162
1028.928835	0.127420
1029.097604	0.126201
1029.266355	0.126733
1029.435088	0.127350
1029.603803	0.127956
1029.772499	0.129265
1029.941177	0.127896
1030.109837	0.127343
1030.278478	0.124438
1030.447102	0.128195
1030.615707	0.128010
1030.784294	0.126791
1030.952863	0.128720
1031.121413	0.128237
1031.289945	0.126059
1031.458460	0.127093
1031.626955	0.125747
1031.795433	0.128646
1031.963892	0.125661
1032.132334	0.125882
1032.300756	0.126891
1032.469161	0.124783
1032.637548	0.124731
1032.805916	0.125322
1032.974266	0.125523
1033.142598	0.127779
1033.310911	0.128805
1033.479207	0.129150
1033.647484	0.130103
1033.815743	0.130093
1033.983983	0.130737
1034.152206	0.130388
1034.320410	0.130252
1034.488596	0.130570
1034.656764	0.127973
1034.824914	0.126637
1034.993045	0.127059
1035.161158	0.126521
1035.329253	0.124280
1035.497330	0.124536
1035.665388	0.124689
1035.833428	0.125759
1036.001450	0.124410
1036.169454	0.126083
1036.337440	0.125100
1036.505407	0.125085
1036.673356	0.123226
1036.841287	0.125212
1037.009200	0.125009
1037.177094	0.125382
1037.344970	0.123972
1037.512828	0.125879
1037.680668	0.126926
1037.848489	0.127718
1038.016293	0.126505
1038.184078	0.129099
1038.351845	0.129697
1038.519593	0.129341
1038.687324	0.129045
1038.855036	0.129368
1039.022730	0.127523
1039.190406	0.127614
1039.358063	0.127001
1039.525702	0.126327
1039.693323	0.126909
1039.860926	0.127523
1040.028511	0.126674
1040.196077	0.125679
1040.363625	0.125532
1040.531155	0.126406
1040.698667	0.125309
1040.866161	0.125889
1041.033636	0.127930
1041.201093	0.124091
1041.368532	0.124224
1041.535952	0.127507
1041.703355	0.128393
1041.870739	0.130266
1042.038105	0.130894
1042.205452	0.130872
1042.372782	0.132221
1042.540093	0.130458
1042.707386	0.132259
1042.874661	0.131783
1043.041918	0.130234
1043.209156	0.131303
1043.376376	0.130070
1043.543578	0.130040
1043.710762	0.130795
1043.877927	0.131031
1044.045074	0.132395
1044.212203	0.134262
1044.379314	0.133021
1044.546407	0.131819
1044.713481	0.132582
1044.880537	0.133264
1045.047575	0.132935
1045.214595	0.131294
1045.381596	0.130744
1045.548579	0.130354
1045.715544	0.130932
1045.882491	0.131063
1046.049420	0.132094
1046.216330	0.131284
1046.383222	0.130578
1046.550096	0.129756
1046.716951	0.132428
1046.883789	0.131589
1047.050608	0.130798
1047.217409	0.128408
1047.384192	0.127678
1047.550956	0.126800
1047.717703	0.126999
1047.884431	0.128946
1048.051140	0.128504
1048.217832	0.126535
1048.384505	0.126973
1048.551161	0.128908
1048.717798	0.129767
1048.884416	0.131589
1049.051017	0.132780
1049.217599	0.132462
1049.384163	0.131293
1049.550709	0.132092
1049.717237	0.132909
1049.883746	0.132906
1050.050237	0.132325
1050.216710	0.131106
1050.383165	0.130891
1050.549601	0.132914
1050.716019	0.132440
1050.882420	0.132213
1051.048801	0.131770
1051.215165	0.132385
1051.381510	0.132694
1051.547837	0.132335
1051.714146	0.134470
1051.880437	0.135899
1052.046709	0.133515
1052.212964	0.133839
1052.379200	0.132901
1052.545417	0.135076
1052.711617	0.135586
1052.877798	0.136178
1053.043961	0.138678
1053.210106	0.136183
1053.376233	0.133444
1053.542341	0.133583
1053.708432	0.132875
1053.874504	0.133225
1054.040557	0.130982
1054.206593	0.130324
1054.372610	0.128878
1054.538609	0.127749
1054.704590	0.128536
1054.870553	0.131480
1055.036497	0.132119
1055.202424	0.132201
1055.368331	0.132624
1055.534221	0.133429
1055.700093	0.132215
1055.865946	0.132873
1056.031781	0.132619
1056.197598	0.132314
1056.363397	0.129965
1056.529177	0.130941
1056.694939	0.130108
1056.860683	0.132098
1057.026409	0.131034
1057.192116	0.130714
1057.357806	0.130200
1057.523477	0.131162
1057.689130	0.131835
1057.854764	0.133388
1058.020381	0.132113
1058.185979	0.134682
1058.351559	0.132145
1058.517120	0.132434
1058.682664	0.134641
1058.848189	0.135232
1059.013696	0.131417
1059.179185	0.132315
1059.344656	0.133318
1059.510108	0.132734
1059.675542	0.132723
1059.840958	0.132691
1060.006356	0.131819
1060.171735	0.131681
1060.337096	0.131398
1060.502439	0.135164
1060.667764	0.133568
1060.833071	0.131407
1060.998359	0.130017
1061.163629	0.128254
1061.328881	0.128705
1061.494115	0.128935
1061.659330	0.126201
1061.824527	0.126703
1061.989706	0.124622
1062.154867	0.124425
1062.320010	0.123895
1062.485134	0.125386
1062.650240	0.127056
1062.815328	0.125315
1062.980398	0.128490
1063.145449	0.129447
1063.310482	0.130572
1063.475497	0.130370
1063.640494	0.131177
1063.805473	0.131562
1063.970433	0.131532
1064.135375	0.130971
1064.300299	0.133256
1064.465204	0.131514
1064.630092	0.131995
1064.794961	0.132580
1064.959812	0.130946
1065.124645	0.129946
1065.289459	0.131096
1065.454256	0.131487
1065.619034	0.134321
1065.783793	0.133548
1065.948535	0.133599
1066.113258	0.135105
1066.277964	0.131961
1066.442651	0.135648
1066.607319	0.137561
1066.771970	0.137863
1066.936602	0.138333
1067.101216	0.134829
1067.265812	0.137178
1067.430389	0.135958
1067.594949	0.134786
1067.759490	0.136454
1067.924013	0.137569
1068.088518	0.138742
1068.253004	0.137999
1068.417472	0.138470
1068.581922	0.139105
1068.746354	0.139094
1068.910768	0.141602
1069.075163	0.141082
1069.239540	0.142506
1069.403899	0.140585
1069.568240	0.139654
1069.732562	0.138225
1069.896866	0.137918
1070.061152	0.137553
1070.225420	0.135695
1070.389670	0.134747
1070.553901	0.134500
1070.718114	0.132339
1070.882309	0.131376
1071.046486	0.131168
1071.210644	0.131560
1071.374784	0.130325
1071.538906	0.130903
1071.703010	0.132252
1071.867096	0.134538
1072.031163	0.136952
1072.195212	0.139206
1072.359243	0.141074
1072.523256	0.139977
1072.687250	0.142967
1072.851226	0.139984
1073.015184	0.142899
1073.179124	0.141478
1073.343045	0.137245
1073.506949	0.138715
1073.670834	0.138331
1073.834701	0.138326
1073.998549	0.138915
1074.162380	0.137076
1074.326192	0.141381
1074.489986	0.138187
1074.653761	0.136578
1074.817519	0.139514
1074.981258	0.137539
1075.144979	0.137820
1075.308682	0.136656
1075.472367	0.138115
1075.636033	0.136733
1075.799681	0.137862
1075.963311	0.140167
1076.126923	0.145383
1076.290516	0.142892
1076.454092	0.142685
1076.617649	0.140378
1076.781187	0.140720
1076.944708	0.143459
1077.108210	0.145009
1077.271695	0.142270
1077.435160	0.139390
1077.598608	0.136914
1077.762038	0.137979
1077.925449	0.140046
1078.088842	0.140444
1078.252217	0.142281
1078.415573	0.138218
1078.578912	0.138349
1078.742232	0.141084
1078.905534	0.140545
1079.068817	0.139120
1079.232083	0.144238
1079.395330	0.143498
1079.558559	0.141825
1079.721770	0.138066
1079.884962	0.139177
1080.048136	0.140856
1080.211293	0.140181
1080.374430	0.140412
1080.537550	0.143699
1080.700651	0.140435
1080.863735	0.139665
1081.026800	0.143771
1081.189846	0.146445
1081.352875	0.146711
1081.515885	0.146302
1081.678877	0.143868
1081.841851	0.146164
1082.004807	0.143279
1082.167744	0.143136
1082.330663	0.142410
1082.493564	0.139972
1082.656447	0.140323
1082.819312	0.140766
1082.982158	0.141739
1083.144986	0.146593
1083.307796	0.146158
1083.470587	0.146543
1083.633361	0.143517
1083.796116	0.144554
1083.958853	0.144827
1084.121571	0.143647
1084.284272	0.145289
1084.446954	0.143463
1084.609618	0.141541
1084.772264	0.139127
1084.934892	0.138936
1085.097501	0.141364
1085.260092	0.145148
1085.422665	0.145485
1085.585220	0.146620
1085.747756	0.145599
1085.910274	0.147358
1086.072774	0.146741
1086.235256	0.149485
1086.397720	0.150760
1086.560165	0.150817
1086.722592	0.147948
1086.885001	0.151610
1087.047392	0.153085
1087.209764	0.152766
1087.372119	0.153544
1087.534455	0.152983
1087.696772	0.153973
1087.859072	0.156070
1088.021353	0.157346
1088.183616	0.157130
1088.345861	0.154022
1088.508088	0.151881
1088.670296	0.151162
1088.832486	0.151897
1088.994658	0.155561
1089.156812	0.155302
1089.318948	0.154655
1089.481065	0.154048
1089.643164	0.151030
1089.805245	0.149589
1089.967308	0.151007
1090.129352	0.150410
1090.291378	0.148334
1090.453386	0.148452
1090.615376	0.150433
1090.777347	0.149818
1090.939301	0.148250
1091.101236	0.148635
1091.263153	0.152371
1091.425051	0.154957
1091.586932	0.156268
1091.748794	0.155560
1091.910638	0.155460
1092.072463	0.154425
1092.234271	0.153652
1092.396060	0.155552
1092.557831	0.160731
1092.719584	0.161844
1092.881319	0.159812
1093.043035	0.162880
1093.204733	0.163030
1093.366413	0.161009
1093.528075	0.159527
1093.689718	0.161620
1093.851343	0.163207
1094.012950	0.159074
1094.174539	0.156589
1094.336110	0.155618
1094.497662	0.152904
1094.659196	0.154130
1094.820712	0.154246
1094.982210	0.154149
1095.143689	0.156351
1095.305151	0.156991
1095.466594	0.158841
1095.628018	0.157622
1095.789425	0.158420
1095.950813	0.158471
1096.112183	0.157555
1096.273535	0.159344
1096.434869	0.164595
1096.596184	0.162753
1096.757482	0.160177
1096.918761	0.160317
1097.080021	0.164623
1097.241264	0.159768
1097.402488	0.158878
1097.563694	0.161017
1097.724882	0.157898
1097.886052	0.156924
1098.047203	0.152882
1098.208336	0.155712
1098.369451	0.157754
1098.530548	0.153540
1098.691627	0.159515
1098.852687	0.163561
1099.013729	0.163795
1099.174753	0.162092
1099.335758	0.160220
1099.496746	0.164079
1099.657715	0.162360
1099.818666	0.161013
1099.979599	0.165551
1100.140513	0.163834
1100.301409	0.164689
1100.462287	0.162913
1100.623147	0.167495
1100.783989	0.166748
1100.944812	0.161670
1101.105617	0.159031
1101.266404	0.159255
1101.427173	0.157381
1101.587923	0.158965
1101.748656	0.158234
1101.909370	0.159363
1102.070066	0.159570
1102.230743	0.161196
1102.391403	0.164117
1102.552044	0.170033
1102.712667	0.170699
1102.873271	0.167503
1103.033858	0.165246
1103.194426	0.167192
1103.354976	0.164221
1103.515508	0.164445
1103.676021	0.162636
1103.836517	0.164153
1103.996994	0.158462
1104.157453	0.153914
1104.317893	0.154895
1104.478316	0.161397
1104.638720	0.160405
1104.799106	0.166102
1104.959474	0.167848
1105.119823	0.166589
1105.280155	0.166798
1105.440468	0.169092
1105.600763	0.171554
1105.761039	0.174982
1105.921298	0.174257
1106.081538	0.168077
1106.241760	0.166835
1106.401964	0.162299
1106.562149	0.162203
1106.722316	0.160927
1106.882465	0.161667
1107.042596	0.165550
1107.202709	0.164075
1107.362803	0.163795
1107.522879	0.168167
1107.682937	0.165251
1107.842977	0.166764
1108.002999	0.170296
1108.163002	0.170422
1108.322987	0.169516
1108.482954	0.166316
1108.642902	0.170586
1108.802833	0.168542
1108.962745	0.167385
1109.122639	0.171599
1109.282515	0.174779
1109.442372	0.173437
1109.602211	0.172790
1109.762032	0.178745
1109.921835	0.181364
1110.081620	0.179835
1110.241386	0.176127
1110.401134	0.178016
1110.560864	0.172982
1110.720576	0.170743
1110.880269	0.167956
1111.039945	0.171892
1111.199602	0.169638
1111.359240	0.171200
1111.518861	0.172544
1111.678463	0.173183
1111.838047	0.170708
1111.997613	0.171509
1112.157161	0.168518
1112.316690	0.171515
1112.476202	0.172022
1112.635695	0.164865
1112.795169	0.159652
1112.954626	0.161454
1113.114064	0.164432
1113.273484	0.164715
1113.432886	0.166449
1113.592270	0.168413
1113.751635	0.168419
1113.910983	0.168881
1114.070312	0.170944
1114.229622	0.175441
1114.388915	0.168176
1114.548189	0.168877
1114.707445	0.170183
1114.866683	0.169599
1115.025903	0.169061
1115.185104	0.171332
1115.344287	0.169931
1115.503452	0.169596
1115.662599	0.169367
1115.821727	0.174724
1115.980838	0.173184
1116.139930	0.171042
1116.299004	0.173347
1116.458059	0.173678
1116.617097	0.169342
1116.776116	0.162624
1116.935117	0.166891
1117.094099	0.161997
1117.253064	0.159049
1117.412010	0.156525
1117.570938	0.159935
1117.729848	0.157938
1117.888740	0.154553
1118.047613	0.157130
1118.206468	0.163519
1118.365305	0.163733
1118.524124	0.165356
1118.682924	0.168194
1118.841707	0.168990
1119.000471	0.164893
1119.159216	0.165590
1119.317944	0.169014
1119.476653	0.171285
1119.635344	0.173169
1119.794017	0.174043
1119.952672	0.173335
1120.111308	0.167347
1120.269927	0.170884
1120.428527	0.177546
1120.587108	0.177251
1120.745672	0.178330
1120.904217	0.176008
1121.062744	0.175266
1121.221253	0.176279
1121.379744	0.181424
1121.538216	0.182891
1121.696671	0.179098
1121.855107	0.171481
1122.013524	0.174176
1122.171924	0.182142
1122.330305	0.181182
1122.488668	0.175207
1122.647013	0.175464
1122.805340	0.172124
1122.963648	0.172065
1123.121938	0.174511
1123.280210	0.181726
1123.438464	0.180317
1123.596700	0.174227
1123.754917	0.175048
1123.913116	0.174542
1124.071297	0.170826
1124.229459	0.162908
1124.387604	0.172204
1124.545730	0.168486
1124.703838	0.165632
1124.861928	0.164364
1125.019999	0.163414
1125.178052	0.161962
1125.336088	0.163589
1125.494104	0.164003
1125.652103	0.178506
1125.810083	0.171994
1125.968045	0.184818
1126.125989	0.183602
1126.283915	0.185762
1126.441823	0.184707
1126.599712	0.192727
1126.757583	0.194207
1126.915436	0.199391
1127.073270	0.200411
1127.231087	0.199751
1127.388885	0.189787
1127.546665	0.191049
1127.704426	0.189557
1127.862170	0.188791
1128.019895	0.182270
1128.177602	0.187884
1128.335291	0.186336
1128.492961	0.180694
1128.650614	0.180476
1128.808248	0.184351
1128.965864	0.190186
1129.123461	0.190080
1129.281041	0.195742
1129.438602	0.195264
1129.596145	0.194904
1129.753670	0.188077
1129.911176	0.189364
1130.068665	0.191795
1130.226135	0.193053
1130.383587	0.187858
1130.541020	0.190259
1130.698436	0.183546
1130.855833	0.187658
1131.013212	0.188244
1131.170573	0.187913
1131.327915	0.184481
1131.485239	0.185420
1131.642545	0.186997
1131.799833	0.187923
1131.957103	0.188490
1132.114354	0.197319
1132.271588	0.193863
1132.428803	0.192119
1132.585999	0.202892
1132.743178	0.202187
1132.900338	0.202469
1133.057480	0.197501
1133.214604	0.193176
1133.371710	0.192590
1133.528797	0.192599
1133.685866	0.196981
1133.842917	0.194074
1133.999950	0.182622
1134.156964	0.189760
1134.313960	0.186638
1134.470938	0.185436
1134.627898	0.185272
1134.784840	0.180528
1134.941763	0.180508
1135.098668	0.175791
1135.255555	0.174440
1135.412424	0.182656
1135.569274	0.176353
1135.726107	0.172201
1135.882921	0.167439
1136.039716	0.170071
1136.196494	0.177180
1136.353253	0.172754
1136.509995	0.177798
1136.666717	0.183636
1136.823422	0.179820
1136.980109	0.189457
1137.136777	0.201716
1137.293427	0.203514
1137.450059	0.199316
1137.606672	0.195322
1137.763267	0.198990
1137.919844	0.196000
1138.076403	0.193515
1138.232944	0.195461
1138.389466	0.188877
1138.545971	0.186729
1138.702457	0.192355
1138.858924	0.197828
1139.015374	0.195605
1139.171805	0.185802
1139.328218	0.179405
1139.484613	0.178330
1139.640990	0.178599
1139.797348	0.176411
1139.953688	0.174004
1140.110010	0.177642
1140.266314	0.182039
1140.422600	0.183577
1140.578867	0.188374
1140.735116	0.197620
1140.891347	0.194073
1141.047559	0.198736
1141.203754	0.196383
1141.359930	0.195130
1141.516088	0.196790
1141.672228	0.197526
1141.828349	0.197820
1141.984452	0.203357
1142.140537	0.200022
1142.296604	0.208717
1142.452653	0.205777
1142.608683	0.208694
1142.764695	0.204802
1142.920689	0.198753
1143.076665	0.195651
1143.232622	0.205891
1143.388562	0.201390
1143.544483	0.200528
1143.700385	0.190883
1143.856270	0.189077
1144.012136	0.190147
1144.167985	0.190730
1144.323814	0.189687
1144.479626	0.182466
1144.635420	0.176940
1144.791195	0.175654
1144.946952	0.176555
1145.102691	0.186509
1145.258411	0.195744
1145.414113	0.206958
1145.569798	0.199963
1145.725463	0.202856
1145.881111	0.213230
1146.036741	0.209484
1146.192352	0.210200
1146.347945	0.208661
1146.503519	0.216978
1146.659076	0.214057
1146.814614	0.213067
1146.970134	0.218122
1147.125636	0.214869
1147.281120	0.203131
1147.436585	0.202021
1147.592032	0.205413
1147.747461	0.214456
1147.902872	0.198668
1148.058265	0.196522
1148.213639	0.190967
1148.368995	0.192568
1148.524333	0.194019
1148.679653	0.203312
1148.834954	0.200630
1148.990237	0.211161
1149.145502	0.214261
1149.300749	0.219664
1149.455977	0.214427
1149.611188	0.211826
1149.766380	0.204103
1149.921553	0.204741
1150.076709	0.209894
1150.231846	0.218709
1150.386966	0.204253
1150.542066	0.191869
1150.697149	0.187997
1150.852214	0.194934
1151.007260	0.190777
1151.162288	0.197438
1151.317298	0.195167
1151.472289	0.190980
1151.627263	0.180340
1151.782218	0.186231
1151.937155	0.186053
1152.092073	0.187554
1152.246974	0.186261
1152.401856	0.180257
1152.556720	0.189026
1152.711566	0.185267
1152.866393	0.176812
1153.021203	0.181028
1153.175994	0.185154
1153.330767	0.188353
1153.485521	0.184287
1153.640258	0.175536
1153.794976	0.178217
1153.949676	0.175181
1154.104358	0.182654
1154.259021	0.183188
1154.413667	0.189527
1154.568294	0.176750
1154.722903	0.177050
1154.877493	0.187098
1155.032066	0.185336
1155.186620	0.193940
1155.341156	0.192516
1155.495674	0.184886
1155.650173	0.192298
1155.804654	0.176038
1155.959118	0.191515
1156.113562	0.193703
1156.267989	0.186701
1156.422397	0.190827
1156.576788	0.188330
1156.731160	0.183549
1156.885513	0.191632
1157.039849	0.179536
1157.194166	0.187946
1157.348465	0.177679
1157.502746	0.165236
1157.657009	0.167454
1157.811253	0.175419
1157.965479	0.176614
1158.119687	0.179199
1158.273877	0.181920
1158.428048	0.192888
1158.582201	0.192624
1158.736337	0.183403
1158.890453	0.197911
1159.044552	0.200104
1159.198632	0.198475
1159.352694	0.198279
1159.506738	0.209593
1159.660764	0.205640
1159.814771	0.207592
1159.968761	0.222017
1160.122732	0.228009
1160.276685	0.224228
1160.430619	0.226711
1160.584535	0.226239
1160.738434	0.221970
1160.892313	0.217236
1161.046175	0.225399
1161.200019	0.225283
1161.353844	0.212983
1161.507651	0.220692
1161.661440	0.225385
1161.815210	0.218087
1161.968962	0.208840
1162.122697	0.212356
1162.276412	0.213137
1162.430110	0.207963
1162.583789	0.212789
1162.737451	0.207656
1162.891094	0.209561
1163.044718	0.208970
1163.198325	0.204901
1163.351913	0.201693
1163.505483	0.204108
1163.659035	0.199036
1163.812569	0.202381
1163.966084	0.192279
1164.119581	0.202826
1164.273060	0.194601
1164.426521	0.184927
1164.579964	0.198775
1164.733388	0.213345
1164.886794	0.214609
1165.040182	0.208646
1165.193551	0.211871
1165.346903	0.211311
1165.500236	0.208507
1165.653551	0.208931
1165.806848	0.207755
1165.960126	0.211408
1166.113386	0.210274
1166.266628	0.228492
1166.419852	0.236045
1166.573058	0.243180
1166.726245	0.255172
1166.879414	0.264761
1167.032565	0.276004
1167.185698	0.292215
1167.338812	0.285337
1167.491909	0.282698
1167.644987	0.253591
1167.798046	0.244705
1167.951088	0.221743
1168.104111	0.205156
1168.257117	0.192961
1168.410103	0.188650
1168.563072	0.171561
1168.716023	0.173116
1168.868955	0.179475
1169.021869	0.178912
1169.174765	0.184659
1169.327642	0.184831
1169.480501	0.161958
1169.633343	0.166091
1169.786165	0.167738
1169.938970	0.187581
1170.091757	0.179683
1170.244525	0.169683
1170.397275	0.180232
1170.550007	0.182731
1170.702720	0.179489
1170.855415	0.213175
1171.008092	0.207158
1171.160751	0.198023
1171.313392	0.183176
1171.466014	0.179973
1171.618619	0.151860
1171.771205	0.151860
1171.923772	0.151860
