sample name	sample
index	1372
start time	 05-03-2021  02:27:37 PM
880	0.479036
Peak Time (s)	90.535
Peak Height 	0.479
calc peak height	90,93
Baseline Time (s)	11.537
Baseline Value 	-0.005948
subtract baseline	10,4
Abs	0.322012
Peak Time (s)	92.537
Peak Height 	0.322
calc peak height	90,93
Baseline Time (s)	10.044
Baseline Value 	0.003229
subtract baseline	10,3
PK_550	0.172216
Peak Time (s)	91.537
Peak Height 	0.1722
calc peak height	90,93
Baseline Time (s)	9.035
Baseline Value 	1.6819E-4
subtract baseline	10,2
PK_880	0.301431
Peak Time (s)	91.039
Peak Height 	0.3014
calc peak height	90,93
Baseline Time (s)	11.04
Baseline Value 	0.002078
subtract baseline	10,1


Time (s)	A880-A510	A880-A775	A880-A975	A880	I510	I775	I975	I880	
0.038000	-0.002515	0.000122	-0.005605	0.003047	6132.513822	42473.197795	3916.872070	22118.203549
0.536500	-0.002173	0.000414	-0.001257	0.004612	6123.665114	42357.738330	3922.989138	22049.388095
1.036000	-0.003775	-0.000721	-0.001274	0.007251	6093.167204	42017.332216	3917.149986	21933.882155
1.542500	-0.002953	0.000938	-0.000546	0.002559	6132.873961	42591.818856	3929.100043	22139.689178
2.037000	-0.000840	0.001086	0.005409	0.002520	6148.505066	42608.843722	3942.492735	22141.409097
2.540000	-0.002234	0.000292	0.001003	0.001724	6144.161272	42609.057353	3934.405689	22176.580690
3.040000	-0.002813	0.000954	-0.006489	0.006939	6102.301690	42196.223955	3906.467861	21947.524836
3.535500	-0.000177	0.000074	-0.000477	0.000675	6166.833378	42684.909247	3933.445797	22222.990050
4.035500	-0.001042	0.000180	-0.002550	0.000547	6161.438518	42706.253529	3929.120562	22228.651253
4.538500	0.000539	0.001184	-0.003191	0.001178	6168.393993	42740.411641	3926.301807	22200.731195
5.036000	-0.005145	-0.000061	0.000720	0.005191	6098.105678	42262.303824	3926.076341	22023.962746
5.539000	0.000482	0.000743	-0.000841	0.000976	6169.451680	42718.474497	3931.964105	22209.634008
6.036500	-0.001882	0.000264	-0.002343	0.000084	6158.681675	42756.343433	3930.608039	22249.194124
6.537000	-0.000381	0.000713	0.001842	0.001092	6162.284589	42705.136852	3937.693415	22204.518078
7.036500	0.002461	0.001193	0.000268	0.000953	6184.165813	42761.745028	3934.487282	22210.668090
7.537000	0.000479	0.000297	-0.002874	0.000610	6172.119588	42711.223175	3928.261044	22225.851679
8.035000	0.000988	0.000431	0.004756	0.000371	6177.614006	42745.293799	3945.866255	22236.461206
8.538000	0.000707	0.000582	-0.000504	-0.000191	6179.673548	42810.570855	3935.315695	22261.358282
9.035000	0.001027	0.000000	0.003406	-0.000352	6183.223742	42772.080216	3944.451438	22268.548242
9.538500	0.002858	0.001067	-0.006120	0.000588	6189.788594	42783.669429	3921.141773	22226.843648
10.044000	-0.001998	-0.000102	0.000000	0.005237	6120.407912	42254.496041	3924.382627	22021.948489
10.536000	-0.002631	-0.000555	0.000928	-0.000497	6157.455851	42734.513918	3939.205456	22274.966755
11.039500	0.000000	0.001310	0.003544	0.000856	6166.800077	42781.348770	3942.041183	22214.947540
11.537000	-0.000679	-0.000006	-0.001666	0.000000	6168.099420	42739.244464	3932.299119	22252.903577
12.040000	-0.003541	0.000258	0.001003	0.005124	6110.103779	42297.232469	3926.851254	22026.917143
12.537500	-0.000738	0.000426	-0.002539	0.000348	6165.122709	42746.973090	3929.587210	22237.477301
13.038000	-0.003303	0.000203	-0.002790	0.000101	6148.188604	42749.164274	3929.576090	22248.423639
13.535500	0.001493	0.000734	0.000256	0.001145	6175.633270	42702.264126	3934.031220	22202.162762
14.035500	-0.004086	0.000320	-0.000674	0.005301	6104.911692	42286.854508	3922.754497	22019.149603
14.538500	-0.003674	0.000204	0.000557	0.002787	6125.999862	42504.253182	3931.044855	22129.642400
15.036500	0.000917	0.000706	0.000300	0.000901	6173.193431	42721.999375	3934.673380	22212.959784
15.539500	-0.000460	0.000591	-0.002073	0.000963	6162.646950	42705.766611	3929.255122	22210.213002
16.036500	-0.001933	0.000499	-0.005545	0.006123	6114.492485	42228.725519	3910.287820	21983.162677
16.537000	-0.000365	0.000606	0.002006	0.000627	6165.809338	42737.931790	3939.103275	22225.108264
17.037500	-0.000347	-0.000199	0.004743	-0.001957	6184.921812	42900.927278	3951.104422	22339.915674
17.535000	0.001280	0.000674	-0.002044	0.001841	6168.964463	42633.243269	3927.372005	22171.397020
18.038000	-0.001191	0.000486	-0.000710	0.004018	6135.070907	42418.096844	3925.508562	22075.471128
18.536000	-0.001340	0.000107	-0.000973	0.001503	6152.281650	42612.373637	3930.499695	22186.341346
19.038000	-0.001029	0.000423	0.004413	0.001968	6151.160177	42598.805241	3941.496402	22165.796033
19.537000	-0.001949	-0.000052	-0.005808	0.001725	6146.222099	42577.553721	3919.325979	22176.506032
20.039000	-0.002244	-0.000347	-0.002655	0.003040	6134.529885	42431.230288	3923.372695	22118.492144
20.537000	-0.000833	0.000707	0.001033	0.002115	6151.515671	42611.303011	3933.601014	22159.301296
21.036500	0.000714	0.000492	-0.004112	0.002196	6162.225397	42584.369029	3922.023015	22155.745496
21.537000	0.000469	0.000036	-0.005224	0.002046	6161.521969	42556.435485	3919.904276	22162.336734
22.037000	0.000600	0.000595	-0.000923	0.001870	6163.772376	42623.350064	3929.794722	22170.120696
22.535500	0.002012	0.001356	0.003888	0.003150	6164.739052	42576.114465	3937.667423	22113.667933
23.038000	-0.001964	0.000371	0.003492	0.002467	6140.724470	42548.603788	3938.310322	22143.773226
23.538500	-0.001867	-0.000147	-0.002198	0.001634	6147.489722	42577.296804	3927.491469	22180.564028
24.039500	0.001028	0.000101	-0.000021	0.002201	6164.476941	42548.174934	3931.061156	22155.483525
24.536000	-0.001787	0.000567	-0.000197	0.002419	6142.355838	42570.781590	3930.186095	22145.868732
25.036000	-0.002930	0.001049	0.001359	0.002443	6133.881251	42612.489122	3933.594851	22144.808751
25.537000	-0.001909	0.001225	-0.004929	0.002592	6140.212104	42615.044926	3919.354674	22138.268356
26.037000	-0.001374	0.000547	-0.001285	0.002479	6144.921372	42563.532301	3927.640901	22143.246153
26.537500	0.000080	0.000052	-0.007917	0.001724	6161.036037	42587.177685	3914.707352	22176.558792
27.040000	-0.000817	0.001172	0.001172	0.002709	6147.305280	42599.538510	3932.588603	22133.110396
27.535000	0.000313	0.000281	0.004561	0.000224	6173.734158	42745.081798	3945.757687	22242.977274
28.038000	0.000390	0.000853	0.001129	0.001249	6166.774928	42703.613111	3935.746280	22197.550289
28.536000	-0.001138	0.001110	-0.001892	0.001574	6153.241804	42697.468468	3928.301996	22183.219487
29.036000	0.001220	0.001363	-0.005078	0.004259	6150.847718	42475.851104	3915.374007	22064.880734
29.536500	-0.000741	0.000771	0.001171	0.001478	6156.838196	42675.294566	3935.330499	22187.465880
30.040000	-0.003808	-0.000367	0.000792	0.006026	6101.704243	42159.389517	3924.388256	21987.392405
30.536500	0.000538	0.000077	0.000706	0.000824	6170.975190	42671.482192	3935.751909	22216.361418
31.037000	-0.002963	0.000673	-0.002080	0.003454	6126.325414	42486.342244	3923.729347	22100.296579
31.537500	0.000861	0.000438	0.001786	0.001777	6166.361132	42617.510844	3936.037037	22174.229261
32.039500	-0.004777	0.000531	-0.000414	0.007365	6085.184824	42119.675944	3918.785398	21928.896140
32.538000	-0.002102	0.000793	-0.000674	0.001342	6147.895118	42689.633732	3931.520368	22193.444795
33.035500	-0.003208	0.000348	0.000324	0.002596	6130.761157	42534.767213	3930.951763	22138.061247
33.536500	0.000255	-0.000022	-0.001036	0.000768	6169.318574	42667.678972	3931.994452	22218.877124
34.036000	-0.002963	0.001277	0.003289	0.005107	6114.392284	42391.103352	3931.962831	22027.674154
34.536000	-0.000722	0.000648	-0.005196	0.002764	6147.589922	42546.762448	3918.388775	22130.658434
35.039500	-0.001212	0.000757	-0.004377	0.002502	6145.928168	42580.559584	3920.762967	22142.206449
35.537000	-0.002955	0.000258	-0.004654	0.002013	6136.820658	42579.651850	3921.232920	22163.820642
36.037000	-0.003597	-0.000005	-0.004180	0.003808	6119.186387	42392.686475	3918.328441	22084.718215
36.534500	-0.000771	0.000882	0.003984	0.002980	6145.666995	42548.420937	3938.261866	22121.148590
37.039500	-0.002047	0.000295	-0.001171	0.002437	6140.331969	42544.349796	3927.985985	22145.085493
37.535500	-0.000407	0.000733	-0.003810	0.002984	6148.284803	42534.476367	3920.950941	22120.951562
38.035500	-0.002994	0.000119	0.001311	0.004226	6120.518686	42366.016569	3929.522900	22066.331280
38.536000	-0.000183	0.001555	0.001195	0.003528	6145.957319	42559.765996	3930.816153	22097.031086
39.036000	-0.001001	0.000551	-0.001311	0.002627	6146.559657	42550.384758	3927.255399	22136.695615
39.536500	0.000682	0.001372	0.003872	0.003469	6152.687788	42548.542026	3936.917143	22099.634205
40.038000	-0.000935	0.001204	0.001232	0.004662	6132.260159	42424.785204	3928.382074	22047.178192
40.537000	-0.000648	0.000771	0.003880	0.002651	6148.950335	42568.179990	3938.764955	22135.631992
41.037000	-0.000518	0.000626	-0.000877	0.002514	6150.896583	42567.519707	3928.466456	22141.676276
41.537500	-0.001780	0.000549	0.002468	0.002388	6142.633167	42572.062696	3936.195353	22147.266762
42.039500	-0.000476	0.000825	0.001799	0.004044	6140.069709	42446.488210	3931.010892	22074.318983
42.535500	-0.001439	0.001091	0.001260	0.002729	6142.627485	42590.249320	3932.737296	22132.190528
43.035500	-0.001314	0.000699	0.002056	0.002788	6143.111688	42549.217122	3934.379765	22129.595230
43.536000	-0.001685	0.000520	-0.000011	0.002023	6145.979701	42602.648670	3931.482498	22163.367777
44.036500	-0.004054	0.001151	0.002638	0.004957	6107.617842	42393.242369	3930.849290	22034.252096
44.536000	-0.001510	0.000559	0.004010	0.000780	6156.312984	42719.658154	3943.260813	22218.337028
45.036500	-0.001954	0.000419	-0.004941	0.002035	6143.938341	42592.298084	3920.552666	22162.840162
45.540000	-0.000795	0.000807	-0.006172	0.001355	6157.341471	42689.735942	3919.341988	22192.902531
46.037500	-0.001810	0.000814	0.000676	0.006413	6113.287166	42231.019792	3923.279069	21970.482879
46.535000	-0.000714	0.000471	0.001060	0.000752	6162.339827	42714.128292	3936.703916	22219.571896
47.035000	-0.002379	0.000877	0.003183	0.001722	6143.121965	42662.654906	3939.287583	22176.660105
47.536000	0.001072	0.000905	0.003537	0.003451	6155.658915	42507.619015	3936.207815	22100.388597
48.036000	-0.001699	0.001203	0.003535	0.005035	6124.030490	42390.872985	3932.670644	22030.817460
48.536000	0.001577	0.000839	0.003273	0.001320	6174.964724	42695.796190	3940.389470	22194.410291
49.036500	0.001479	0.000936	0.003594	0.002518	6165.467135	42595.410862	3938.423400	22141.525418
49.537000	0.000551	0.000599	-0.001624	0.001005	6169.750156	42702.689593	3930.158518	22208.361960
50.037500	-0.001834	0.000659	0.002430	0.005769	6117.757741	42275.230889	3928.582615	21998.660906
50.540000	0.003836	0.000714	0.004851	0.003917	6172.484865	42447.925178	3938.105823	22079.899267
51.035000	0.002543	0.001849	0.002918	0.001010	6184.349168	42816.621308	3940.289389	22208.133167
51.535500	0.026832	-0.019517	0.032481	0.334313	4555.656762	20605.853146	3449.863377	11908.538471
52.035000	0.010741	-0.018646	-0.017206	0.154206	5276.271920	29697.824811	3619.519347	16494.350999
52.536000	0.019610	-0.038406	-0.012215	-0.174863	7973.741576	57403.540809	4376.899598	31804.919108
53.036000	0.032165	-0.081529	0.001204	-0.272632	9416.465263	64695.711378	4788.716660	39081.083335
53.536500	0.032679	-0.070414	0.008382	-0.258393	9216.400905	64253.769568	4759.318709	37916.870815
54.036500	0.028221	-0.037032	0.007420	-0.198821	8362.228871	60670.110394	4525.928894	33439.462070
54.537500	0.037336	-0.020104	0.024371	-0.162292	8033.307665	58126.057199	4457.147576	30982.720279
55.040000	0.041748	-0.012699	0.027886	-0.141240	7843.547143	56421.175439	4398.113056	29657.924401
55.538000	0.045722	-0.006538	0.036135	-0.126824	7728.133396	55415.799973	4377.913438	28787.107826
56.037500	0.062396	-0.000907	0.049680	-0.117179	7805.512122	54933.718006	4390.652247	28220.387443
56.535500	0.073793	0.012239	0.072550	-0.040792	7135.566270	47898.622862	4225.425862	24150.349360
57.035000	0.087482	0.024124	0.084534	0.036982	6566.180106	41581.043755	4048.316674	20680.133500
57.536000	0.108918	0.037849	0.098980	0.090472	6311.397913	38207.052066	3955.216362	18629.655769
58.036000	0.121784	0.046443	0.119802	0.137845	6057.343902	35201.264024	3896.522553	17012.960907
58.535500	0.139810	0.058407	0.136801	0.178148	5903.733914	33168.326537	3847.881209	15769.791305
59.037000	0.159197	0.075743	0.163253	0.209897	5821.827399	32184.107192	3837.182627	14868.527235
59.539500	0.180044	0.086222	0.180572	0.251705	5688.178574	30154.341390	3789.392228	13777.953563
60.037000	0.197639	0.096014	0.198701	0.287291	5578.485585	28589.608664	3756.929537	12928.869848
60.535000	0.208005	0.106175	0.210162	0.330320	5390.609254	26725.830517	3701.445030	11990.960893
61.035000	0.223208	0.109585	0.228856	0.352982	5349.647078	25697.849017	3694.749976	11533.091659
61.535500	0.231718	0.118097	0.232684	0.376617	5268.719344	24921.701821	3662.237399	11080.350896
62.036000	0.236153	0.127689	0.238566	0.392277	5210.454279	24617.781822	3646.726054	10793.661006
62.538000	0.241054	0.130865	0.238339	0.389195	5251.739586	24931.334318	3651.219744	10849.280297
63.036000	0.244991	0.134547	0.250992	0.393318	5250.764856	24909.036068	3664.821582	10774.973775
63.536500	0.250300	0.136683	0.262676	0.392798	5281.380754	25043.357895	3684.751099	10784.309810
64.039500	0.252925	0.139532	0.261103	0.393512	5291.508054	25151.912514	3680.973813	10771.504366
64.545500	0.259647	0.144355	0.269395	0.398480	5300.840520	25144.481437	3686.470961	10682.940172
65.037500	0.260153	0.144671	0.265027	0.401903	5285.340298	24986.785278	3673.653192	10622.512580
65.538000	0.266697	0.147825	0.272513	0.405314	5301.992824	24973.814799	3680.328572	10562.767730
66.035000	0.264889	0.148702	0.273616	0.412038	5256.918580	24680.134717	3671.134904	10446.344632
66.535500	0.273590	0.150621	0.277767	0.409185	5318.164012	24919.484581	3682.607417	10495.518968
67.035500	0.273352	0.152586	0.285522	0.413275	5295.032062	24812.619250	3688.685496	10425.135051
67.535500	0.273118	0.153548	0.287466	0.416379	5277.348431	24705.344584	3686.756090	10372.144747
68.036500	0.271896	0.156028	0.280866	0.427003	5215.668946	24302.480527	3658.711348	10193.640105
68.539500	0.278003	0.156432	0.284214	0.425566	5254.752711	24392.897339	3666.390135	10217.528754
69.036500	0.283859	0.158791	0.292083	0.431716	5253.218925	24207.155684	3669.171691	10115.847928
69.537500	0.281057	0.157528	0.293304	0.434562	5223.916402	24007.604226	3666.543252	10069.270876
70.034500	0.280740	0.159014	0.285108	0.438487	5202.156623	23890.088636	3647.248682	10005.549638
70.535000	0.278748	0.157876	0.285536	0.438786	5190.490942	23821.138348	3647.450478	10000.712313
71.035000	0.281795	0.160754	0.292935	0.442607	5186.562377	23775.978521	3653.091362	9939.255963
71.535500	0.282870	0.161687	0.288005	0.445072	5179.531505	23702.945208	3641.483532	9899.904308
72.035500	0.283471	0.162094	0.291293	0.446094	5177.406991	23673.648965	3645.018964	9883.658874
72.536000	0.285310	0.161830	0.295166	0.449332	5170.351316	23507.750428	3646.012371	9832.408011
73.039000	0.285222	0.163715	0.301580	0.453333	5149.879862	23408.221563	3649.805735	9769.632900
73.537000	0.291410	0.165442	0.296088	0.457510	5159.924848	23293.493151	3634.739177	9704.695080
74.037000	0.287598	0.166312	0.302878	0.460459	5126.331942	23196.642132	3640.682454	9659.219007
74.535000	0.290450	0.166458	0.289758	0.462026	5132.672282	23130.723854	3618.231878	9635.179774
75.035000	0.294222	0.167030	0.305306	0.463757	5142.789404	23077.161147	3639.332413	9608.730808
75.535000	0.291933	0.167805	0.306041	0.465358	5123.551778	23039.005758	3637.989412	9584.358521
76.038500	0.290665	0.167968	0.301728	0.467091	5108.828751	22966.785000	3628.692806	9558.084326
76.535500	0.293548	0.167731	0.301647	0.469336	5111.952848	22853.152006	3625.150832	9524.202560
77.036000	0.293946	0.167583	0.305042	0.469568	5112.761615	22835.771492	3629.972460	9520.701836
77.539500	0.295951	0.168776	0.299126	0.471297	5114.109576	22811.320675	3618.377042	9494.731757
78.036000	0.295312	0.166999	0.307756	0.470720	5113.809370	22756.720375	3632.366569	9503.396391
78.537000	0.296536	0.168492	0.307896	0.475100	5098.400752	22625.960048	3625.888183	9437.992926
79.037000	0.295898	0.169933	0.311980	0.475038	5095.594944	22693.918538	3632.221405	9438.903737
79.534500	0.294155	0.170277	0.302187	0.475361	5085.584348	22694.870199	3616.871972	9434.118088
80.035000	0.292709	0.169893	0.301239	0.481566	5048.903513	22398.626438	3606.230644	9342.634387
80.535500	0.293090	0.168891	0.304119	0.479256	5061.733751	22457.072512	3613.934735	9376.541991
81.035500	0.295294	0.169798	0.299623	0.478766	5074.652629	22519.684467	3607.980940	9383.753702
81.535500	0.294874	0.170003	0.312919	0.479516	5069.029552	22495.217702	3626.810583	9372.714353
82.039000	0.293048	0.169861	0.308702	0.485160	5033.493955	22237.488715	3611.965291	9290.247861
82.536500	0.293962	0.169816	0.307832	0.482768	5049.146207	22341.591495	3614.234220	9325.060501
83.036500	0.294987	0.168703	0.303083	0.477856	5077.550830	22511.356313	3614.476677	9397.165842
83.534000	0.292641	0.167514	0.318770	0.476792	5071.388706	22505.772453	3639.998379	9412.903366
84.037500	0.298129	0.169875	0.305542	0.484669	5059.940323	22259.820729	3608.003473	9297.373360
84.537500	0.296728	0.168885	0.312483	0.477075	5089.743007	22554.652462	3629.871708	9408.716653
85.035000	0.296130	0.170210	0.314583	0.477459	5084.983244	22596.998945	3632.500750	9403.030001
85.535500	0.298275	0.171042	0.316324	0.477307	5096.118476	22641.443319	3635.414542	9405.278466
86.036000	0.296864	0.172019	0.320415	0.483266	5060.603681	22417.620215	3632.540049	9317.804002
86.538500	0.296855	0.171254	0.317921	0.476380	5093.724390	22692.973414	3639.318659	9418.994783
87.036500	0.298582	0.170626	0.311446	0.476058	5103.697980	22679.068285	3629.839484	9423.763132
87.537000	0.296680	0.172531	0.314282	0.476837	5090.659188	22730.143761	3632.994595	9412.228895
88.037500	0.297679	0.170556	0.309079	0.481387	5073.513319	22436.183508	3618.171319	9345.246679
88.537500	0.296442	0.170578	0.309333	0.474887	5098.976607	22730.023478	3628.401290	9441.158129
89.035000	0.297892	0.171530	0.314624	0.474891	5106.026699	22773.075216	3636.519821	9441.093484
89.535000	0.296917	0.170595	0.312428	0.474500	5103.180575	22748.391158	3633.737886	9446.915743
90.035500	0.296716	0.171291	0.314191	0.474537	5102.018784	22778.340397	3636.398257	9446.362770
90.535500	0.295530	0.171170	0.307387	0.479036	5074.485233	22569.225619	3619.162919	9379.769493
91.039000	0.301431	0.171352	0.318147	0.474129	5127.132804	22799.695720	3643.173786	9452.434153
91.536500	0.298832	0.172216	0.312804	0.474551	5112.284033	22819.816995	3634.237516	9446.146159
92.036500	0.297193	0.169959	0.312894	0.472953	5112.081903	22789.753534	3636.840789	9469.958165
92.537000	0.297864	0.171549	0.322012	0.474348	5108.543170	22798.695078	3648.888069	9449.175458
93.037000	0.298322	0.170642	0.312073	0.473604	5114.430533	22791.241240	3634.570051	9460.257311
93.537500	0.299715	0.171492	0.318485	0.474601	5116.367542	22784.541345	3642.964535	9445.399436
94.034500	0.298765	0.170948	0.313520	0.473443	5117.389951	22812.528631	3637.051829	9462.655489
94.535500	0.297168	0.170485	0.308077	0.478377	5085.565523	22568.020941	3621.195710	9389.477023
95.035500	0.302682	0.171048	0.308929	0.474819	5129.905458	22754.470230	3627.888441	9442.171185
95.538500	0.301881	0.169764	0.311235	0.474016	5129.911387	22732.565770	3632.646740	9454.109552
96.036000	0.296380	0.168365	0.314816	0.472934	5108.197509	22718.172661	3639.849015	9470.242698
96.536000	0.298420	0.170159	0.316155	0.480003	5083.758409	22480.405407	3631.011173	9365.556517
