sample name	sample
index	232
start time	 02-22-2021  11:05:01 AM
880	0.165463
Peak Time (s)	92.035
Peak Height 	0.1655
calc peak height	90,93
Baseline Time (s)	9.537
Baseline Value 	-0.004902
subtract baseline	10,4
Abs	0.149031
Peak Time (s)	91.534
Peak Height 	0.149
calc peak height	90,93
Baseline Time (s)	11.043
Baseline Value 	0.00268
subtract baseline	10,3
PK_550	0.076046
Peak Time (s)	91.534
Peak Height 	0.07605
calc peak height	90,93
Baseline Time (s)	8.536
Baseline Value 	3.1108E-4
subtract baseline	10,2
PK_880	0.147548
Peak Time (s)	91.534
Peak Height 	0.1475
calc peak height	90,93
Baseline Time (s)	10.543
Baseline Value 	6.9763E-4
subtract baseline	10,1


Time (s)	A880-A510	A880-A775	A880-A975	A880	I510	I775	I975	I880	
0.039000	0.001143	-0.000304	0.001769	0.002058	6897.706472	46863.322382	3990.374574	24680.201785
0.534500	-0.000055	0.000637	-0.007508	0.005119	6858.534809	46649.190204	3958.512953	24526.990498
1.038000	-0.003979	-0.000368	-0.005734	0.006470	6810.542007	46412.441976	3959.590501	24459.691740
1.566000	-0.000310	0.000179	0.000788	0.001612	6888.405825	46957.471185	3988.974922	24702.619885
2.041000	-0.000008	0.000085	-0.000933	0.000996	6896.881005	47010.377473	3986.087880	24733.595982
2.536000	0.002032	0.000391	-0.001054	0.001406	6911.963577	46999.825761	3984.702964	24712.959077
3.036000	-0.000801	0.001124	-0.004152	0.005960	6844.030463	46613.473157	3964.934688	24485.083314
3.539000	0.002231	0.000653	-0.000805	0.000535	6921.898727	47115.022542	3987.624502	24756.809204
4.037000	0.002279	0.000123	-0.001843	0.000724	6920.589305	47041.813429	3984.422947	24747.263448
4.546500	0.002866	0.000195	-0.001392	0.000603	6927.178564	47061.489150	3985.913574	24753.379892
5.036000	0.001737	-0.000192	-0.000777	-0.000089	6923.118573	47092.587567	3989.331884	24788.308135
5.534000	0.001908	0.000041	-0.004462	0.000456	6919.637154	47060.886601	3978.316466	24760.817236
6.037500	0.000658	0.000048	-0.000365	0.000430	6908.274149	47064.114828	3989.049992	24762.099273
6.535000	-0.001583	-0.000620	-0.000704	-0.000209	6893.463274	47061.258765	3989.835266	24794.344111
7.035000	0.002234	0.001590	-0.000056	0.001487	6913.087076	47113.538389	3987.094954	24708.882522
7.535500	-0.001896	-0.000263	0.000171	0.000013	6888.523219	47074.896284	3991.545884	24783.139108
8.035500	0.002036	0.001610	0.001856	0.000644	6919.075232	47201.469654	3994.311741	24751.311278
8.536000	0.000941	0.000000	0.000651	0.000232	6912.738548	47079.404959	3992.230717	24772.081559
9.036500	-0.000718	-0.000310	-0.001569	-0.000308	6902.369938	47102.856104	3987.831256	24799.363455
9.537000	-0.001629	0.000556	0.001418	0.000000	6891.103378	47159.689282	3994.854354	24783.794715
10.039500	-0.000653	-0.000110	-0.002190	-0.000222	6902.170180	47114.402122	3985.986147	24795.001070
10.542500	0.000000	0.000219	-0.000902	0.000306	6903.328462	47094.180138	3987.968829	24768.343679
11.043000	0.002008	-0.000007	0.000000	0.000087	6923.997401	47093.473657	3990.903656	24779.407667
11.536000	0.000955	0.000464	0.002050	-0.000111	6916.053016	47161.613734	3996.810578	24789.421054
12.038000	0.001565	0.000248	-0.000314	-0.000138	6921.973136	47142.351413	3990.672320	24790.781843
12.535500	0.002309	0.000535	-0.004675	0.000130	6926.403740	47144.275939	3978.606862	24777.253259
13.035500	0.002793	0.000417	-0.003356	-0.001482	6945.957135	47296.771480	3986.231460	24858.719694
13.536000	0.004726	0.000642	0.001391	0.000592	6944.638671	47108.081550	3993.226758	24753.941435
14.039500	-0.001653	-0.000389	-0.003265	0.002083	6871.705867	46852.097643	3977.199172	24678.919809
14.536500	-0.001741	0.000246	-0.004595	0.003222	6860.459218	46801.174218	3970.825378	24621.797929
15.042500	-0.000700	0.000486	-0.003306	0.000676	6893.443807	47083.738657	3980.743401	24749.708941
15.565000	0.001440	-0.000037	0.000383	-0.000218	6921.545951	47121.375780	3992.707435	24794.776638
16.034500	-0.002489	0.000732	0.000358	0.005246	6835.152901	46645.826679	3978.390175	24520.621950
16.535000	-0.000339	0.000017	0.000776	0.000116	6901.949867	47092.986630	3992.861912	24777.951461
17.035500	0.002182	0.000788	0.004183	0.000848	6918.533962	47096.874756	3999.904995	24741.041329
17.536000	0.001836	0.000069	-0.001330	-0.000971	6932.245648	47209.036340	3990.192073	24832.874749
18.036000	-0.000586	0.000693	0.002887	0.002394	6878.660946	46930.220409	3992.423580	24663.322550
18.536500	-0.001185	-0.000300	-0.003375	0.000551	6890.115456	47016.522793	3980.888496	24756.016128
19.036500	0.000196	-0.000085	0.000946	0.001557	6893.582200	46936.195587	3989.531960	24705.368531
19.540000	0.000400	-0.000171	-0.001271	0.001334	6897.527959	46950.079054	3984.325345	24716.579253
20.040000	-0.000976	0.000066	-0.001575	0.001794	6880.592619	46927.444437	3982.335537	24693.443460
20.534500	-0.000901	-0.000472	-0.002792	0.000970	6888.871697	46956.499602	3981.314330	24734.893150
21.035000	-0.001485	-0.000184	0.002624	0.000822	6884.849602	47000.738787	3995.862633	24742.330943
21.538000	0.002811	0.000723	-0.000051	0.001632	6917.103340	47010.618094	3986.728387	24701.596152
22.035500	-0.000096	0.000105	-0.001588	0.001880	6887.908775	46922.733521	3982.078208	24689.127580
22.536000	0.000384	0.000549	-0.000736	0.001694	6894.052717	46986.632734	3984.779376	24698.470863
23.036500	-0.000084	0.000430	-0.000059	0.001392	6892.516707	47005.232484	3987.334484	24713.664527
23.538000	0.000662	0.000266	-0.004389	0.001572	6897.737895	46970.204028	3975.613732	24704.582314
24.036500	-0.000511	0.000114	0.000552	0.001674	6885.983625	46944.616045	3988.194829	24699.501906
24.537500	-0.001015	0.000696	-0.001517	0.001688	6881.206025	47002.199521	3982.761991	24698.778676
25.040000	0.000332	0.000642	0.000643	0.002072	6890.078004	46957.702687	3987.392787	24679.470040
25.534500	-0.000594	0.000050	0.004775	0.001256	6889.065674	46980.473736	4000.391765	24720.497886
26.037500	-0.001136	0.000146	-0.000900	0.001617	6880.746032	46953.480134	3984.552773	24702.334360
26.538500	-0.001274	0.000369	0.002835	0.001457	6880.953992	46992.457178	3994.751037	24710.409743
27.038500	0.001591	0.000391	-0.003265	0.001511	6906.898717	46989.175264	3978.681467	24707.660134
27.535500	0.000097	0.000235	-0.003628	0.001384	6894.262505	46986.257878	3978.071083	24714.069444
28.039500	0.003680	-0.000130	-0.002592	-0.002276	6961.702275	47322.018518	3990.301846	24898.932980
28.536500	0.001142	0.000057	0.002870	-0.000426	6920.716877	47152.285982	3999.804087	24805.315057
29.034500	0.000414	0.000579	-0.001863	0.001479	6896.315574	47011.555582	3982.405407	24709.285720
29.540500	0.001045	0.000776	-0.002240	-0.000013	6915.977124	47183.431933	3985.310421	24784.475710
30.034500	0.003051	0.000665	0.001076	0.000053	6934.025538	47165.378611	3993.816175	24781.111584
30.538000	0.000490	0.000445	0.001191	-0.000369	6914.128754	47185.948076	3995.227463	24802.425542
31.035000	0.001612	-0.000298	-0.000816	0.001388	6908.244504	46931.734885	3985.370669	24713.869437
31.535500	0.004342	0.000118	0.000001	-0.000774	6953.826963	47193.914357	3993.162963	24822.880251
32.036000	-0.001061	0.000183	-0.000231	0.002764	6870.892406	46841.064874	3983.309027	24644.763074
32.536000	0.002078	0.000512	-0.000064	0.000182	6923.764440	47136.671203	3990.487049	24774.619850
33.069000	-0.001335	0.000357	-0.000208	0.001332	6881.540817	47003.913785	3987.103080	24716.695392
33.536500	0.003067	0.000331	0.000810	-0.000366	6938.081824	47174.077794	3994.217978	24802.270086
34.036500	-0.000361	0.000990	0.003134	0.004858	6858.117159	46711.068102	3986.624175	24540.024437
34.534500	0.001746	0.000718	0.002700	-0.000206	6924.285106	47197.272242	3998.775220	24794.214675
35.035000	0.001148	0.000526	-0.002438	0.000937	6908.110113	47061.211304	3982.319906	24736.536905
35.534500	0.002101	0.000188	-0.001444	0.001349	6913.135990	46984.969283	3983.833909	24715.819324
36.038000	-0.000232	0.000492	-0.001490	0.002138	6884.273746	46935.771566	3981.659948	24676.144087
36.536500	-0.000448	0.001059	0.000649	0.002541	6878.568058	46952.356774	3986.183227	24655.915467
37.036000	-0.000518	0.000163	0.000675	0.001852	6884.275179	46931.430653	3988.052746	24690.552679
37.536000	0.001167	0.000955	-0.001300	0.002189	6896.715684	46977.620823	3982.024415	24673.612204
38.036500	-0.000267	-0.000087	-0.000162	0.001715	6887.849831	46919.928251	3986.221390	24697.395362
38.536500	0.000810	0.000564	-0.000377	0.002131	6893.946439	46943.874499	3984.578542	24676.524816
39.034000	-0.001169	0.000125	-0.006064	0.001902	6877.822238	46922.553710	3970.443628	24688.033154
39.534500	0.002233	0.000093	-0.001983	0.002080	6907.580553	46901.233013	3980.532652	24679.094367
40.035000	-0.000278	0.000734	-0.001936	0.002626	6879.357259	46910.839564	3979.236921	24651.648109
40.534500	0.000113	0.000271	-0.002986	0.001633	6892.110075	46964.649685	3979.088607	24701.539840
41.035000	-0.000897	0.000720	0.000145	0.002344	6876.261672	46938.054413	3985.383889	24665.845114
41.535500	-0.000990	0.000597	-0.007038	0.002534	6873.653103	46906.261015	3966.316902	24656.271893
42.044000	-0.000495	0.000228	-0.000973	0.002454	6878.946725	46877.060628	3982.185502	24660.326612
42.536000	-0.001842	-0.000209	0.003110	0.001750	6873.029914	46904.014295	3994.700256	24695.635614
43.040500	-0.000223	0.000845	-0.000019	0.002529	6880.758829	46932.026208	3984.472833	24656.556188
43.534000	0.001011	0.000301	0.002990	0.002196	6895.203291	46910.537492	3993.212780	24673.242634
44.034000	0.000202	0.000019	-0.003619	0.001711	6892.216254	46931.105401	3977.247249	24697.620909
44.534500	0.000129	0.000872	-0.000208	0.002315	6885.972854	46956.434800	3984.538280	24667.292232
45.035000	0.001458	0.000197	-0.000554	0.001412	6906.596139	46979.527276	3985.991191	24712.667534
45.535000	0.002671	0.000546	0.003855	-0.002722	6956.420264	47436.872377	4008.498952	24921.577857
46.035500	-0.000806	0.000458	0.000937	0.003844	6863.332320	46759.701905	3983.537437	24590.675189
46.545500	0.002212	-0.000258	-0.002048	-0.000769	6933.866146	47155.043423	3987.782129	24822.615179
47.036000	-0.001875	-0.000091	0.000621	0.000498	6884.246868	47043.080308	3991.454308	24758.659612
47.536500	0.001636	-0.000247	0.002052	-0.000646	6927.354804	47143.745698	3998.224500	24816.436198
48.034500	-0.000078	-0.000146	-0.000707	0.003484	6873.309418	46735.054249	3980.197793	24608.659193
48.536500	0.001562	0.001063	0.002120	0.000691	6914.237897	47140.946526	3994.883428	24748.945583
49.037500	0.000354	-0.000461	0.000769	0.001265	6897.735524	46927.632982	3989.832942	24720.037291
49.535000	0.000819	0.000280	-0.000509	0.003019	6885.839056	46825.104298	3981.920961	24631.962746
50.035000	-0.000162	0.000136	-0.003972	0.006217	6847.513512	46488.259336	3964.735197	24472.266406
50.539000	0.001356	0.000599	0.000133	0.000086	6917.950597	47155.290672	3991.256848	24779.480218
51.035500	0.000901	0.000596	0.003172	0.000987	6905.368339	47063.197683	3996.872342	24734.021023
51.539000	0.002834	0.001164	-0.001326	0.000554	6927.340821	47165.240017	3986.214935	24755.876551
52.038000	-0.000352	0.000431	-0.004533	0.005150	6855.527316	46625.295757	3966.033718	24525.423599
52.534000	0.003384	0.000186	0.001757	-0.000694	6944.108568	47192.690452	3997.572941	24818.844755
53.036500	-0.001417	-0.002277	0.002516	0.002189	6872.903231	46650.684117	3991.988348	24673.589612
53.537500	-0.016433	-0.009172	-0.001208	0.253674	5043.450450	27030.250141	3485.798308	15087.868256
54.039000	-0.034540	-0.028775	-0.001005	0.001021	6589.937518	44171.711377	3985.833117	24732.335933
54.534500	-0.024342	-0.051036	-0.002233	-0.182523	8673.548908	62734.753846	4576.861271	36232.740719
55.035000	-0.006631	-0.042826	0.009940	-0.174346	8802.042307	62739.216488	4592.793062	35610.337637
55.535500	-0.009771	-0.012835	0.000466	-0.078413	7594.897675	54308.821244	4217.839271	29120.699910
56.035500	0.001705	-0.004590	0.005262	-0.041403	7325.897311	51013.726955	4120.254153	26976.058356
56.536000	0.001221	-0.007232	0.014760	-0.027363	7179.804671	49200.525482	4107.066804	26209.135153
57.036500	0.013258	-0.001220	0.010142	-0.054651	7586.952203	52890.782468	4174.276884	27722.851334
57.536500	0.020517	0.000408	0.017820	-0.053124	7649.439023	52902.350623	4193.122915	27635.585507
58.034000	0.030186	0.007376	0.026489	-0.000864	7204.261706	47949.773302	4065.128640	24827.442156
58.534500	0.039457	0.010402	0.037391	0.020632	7084.350358	46073.873266	4035.916028	23766.931334
59.037500	0.048580	0.013842	0.049920	0.036604	7018.625407	44845.632014	4026.574270	23012.262255
59.535000	0.056818	0.019089	0.057365	0.060338	6873.690406	43097.383847	3983.365006	21940.864501
60.035000	0.066347	0.026119	0.067030	0.079958	6782.063173	41948.674624	3957.747130	21098.369106
60.535500	0.073482	0.031638	0.075428	0.100656	6662.195799	40607.175729	3926.892808	20249.825486
61.036000	0.081392	0.036354	0.084018	0.116049	6597.660010	39691.411625	3910.201579	19644.536024
61.536000	0.088475	0.042846	0.093068	0.129696	6541.943037	39090.146881	3899.065579	19125.494100
62.036500	0.098177	0.051698	0.100606	0.142687	6514.346539	38746.838359	3886.011740	18646.359691
62.537000	0.106197	0.054691	0.111756	0.146265	6551.680307	38698.547607	3904.185040	18516.912344
63.034000	0.113306	0.058418	0.116502	0.134649	6713.277813	39986.130746	3944.547835	18941.143347
63.534500	0.114500	0.060963	0.118125	0.148216	6605.713439	39056.559017	3914.933954	18446.750544
64.035000	0.119338	0.069231	0.119297	0.126489	6840.473203	41642.404413	3972.435244	19246.000704
64.543000	0.123088	0.073031	0.114626	0.129155	6850.361070	41743.667976	3953.680118	19145.763963
65.038000	0.119729	0.070968	0.124637	0.129212	6819.294962	41554.536191	3979.205281	19143.650737
65.535500	0.123547	0.071167	0.122126	0.130271	6844.368763	41478.069736	3969.981490	19103.998512
66.035500	0.122326	0.071763	0.122343	0.133416	6804.750151	41252.226359	3962.475219	18986.840002
66.536000	0.125186	0.073220	0.126821	0.138458	6785.101842	40936.925614	3961.035597	18800.765870
67.036500	0.125523	0.072596	0.123946	0.141260	6763.020958	40638.012413	3946.645161	18698.301446
67.534000	0.125922	0.073381	0.126155	0.144353	6739.037997	40438.023037	3944.421985	18585.964924
68.034000	0.127833	0.074695	0.130656	0.147881	6724.705791	40247.063517	3946.869129	18458.768863
68.534500	0.128578	0.074367	0.129880	0.149456	6717.374169	40083.772439	3940.962138	18402.342992
69.034500	0.129029	0.075187	0.127834	0.151304	6705.060397	39995.735979	3931.249217	18336.354967
69.535000	0.129588	0.075279	0.134371	0.152242	6701.736543	39923.671173	3945.242359	18303.003764
70.036000	0.132210	0.075330	0.130212	0.155708	6694.313614	39633.597068	3926.230060	18180.288762
70.535500	0.130438	0.076466	0.134272	0.156126	6675.149410	39694.421479	3935.271369	18165.565615
71.036000	0.132851	0.077235	0.135763	0.156312	6694.641687	39743.814827	3938.528059	18159.013092
71.539500	0.133826	0.076164	0.133074	0.155336	6711.800896	39735.784460	3934.254517	18193.416790
72.036500	0.134508	0.076093	0.137430	0.157278	6700.711959	39565.380361	3940.281350	18125.042287
72.534500	0.134138	0.076473	0.133163	0.157031	6699.637622	39618.403526	3930.262575	18133.730506
73.037000	0.135596	0.076906	0.134322	0.155660	6724.558356	39771.210477	3936.555379	18181.967651
73.536000	0.136012	0.077045	0.135862	0.154850	6735.427721	39851.920267	3942.436756	18210.583170
74.035000	0.135434	0.076714	0.136170	0.158555	6697.630848	39510.016559	3933.949179	18080.246667
74.535500	0.137171	0.077244	0.134864	0.156697	6729.330521	39711.920976	3935.322528	18145.474404
75.035500	0.139139	0.078537	0.140695	0.155162	6760.472767	39952.476141	3953.838726	18199.572339
75.536000	0.136960	0.077731	0.139995	0.153888	6752.400117	39992.392779	3955.294271	18244.601717
76.036500	0.137811	0.077449	0.139232	0.153554	6762.973971	39996.882100	3954.206809	18256.440879
76.537000	0.136343	0.077416	0.139934	0.155642	6731.336850	39816.042177	3950.695182	18182.611137
77.037000	0.138861	0.078318	0.139616	0.153502	6772.827844	40075.625817	3955.311175	18258.268488
77.538000	0.139940	0.078791	0.139467	0.152914	6787.775334	40166.515594	3956.427195	18279.120530
78.037500	0.138426	0.077806	0.140766	0.155149	6754.226254	39891.229760	3954.052401	18200.023365
78.534500	0.140110	0.077770	0.137594	0.154950	6771.050178	39905.133717	3946.539520	18207.059587
79.035000	0.142653	0.078843	0.140849	0.153129	6810.300845	40152.574740	3959.397483	18271.505826
79.535500	0.141490	0.078011	0.138553	0.151399	6815.425687	40229.674891	3957.953213	18332.969906
80.036000	0.138120	0.077643	0.141767	0.154533	6756.987791	39929.857857	3958.158315	18221.783214
80.536000	0.138635	0.077764	0.141240	0.154447	6762.349003	39947.487122	3957.036063	18224.804479
81.036000	0.141129	0.079290	0.145042	0.152212	6804.819768	40269.800418	3972.494373	18304.073552
81.534000	0.141037	0.078673	0.142421	0.151633	6809.209758	40266.433816	3967.239749	18324.643047
82.034000	0.143084	0.077790	0.141227	0.151072	6832.856989	40238.796887	3965.618694	18344.624795
82.534500	0.141612	0.078350	0.139744	0.155619	6778.510656	39897.575746	3950.276164	18183.446266
83.034500	0.144866	0.078399	0.142578	0.151436	6845.771173	40259.872587	3968.148326	18331.655111
83.535000	0.144985	0.079116	0.141776	0.152379	6838.264151	40240.414049	3963.676361	18298.120775
84.035000	0.139730	0.076619	0.139996	0.155898	6759.168680	39726.615168	3950.205691	18173.583067
84.536000	0.142687	0.077574	0.144343	0.151609	6824.375534	40174.126921	3972.246736	18325.516227
85.035500	0.145429	0.077539	0.141120	0.152643	6839.901399	40082.448266	3961.328093	18288.752225
85.536000	0.144757	0.078576	0.143705	0.153563	6825.434308	40092.523185	3965.586831	18256.129784
86.033500	0.141943	0.077629	0.141886	0.157777	6762.161992	39653.009957	3950.233268	18107.516320
86.534000	0.143332	0.077774	0.144788	0.154128	6807.411488	39975.628895	3966.914650	18236.115430
87.034000	0.145760	0.077236	0.146028	0.154345	6827.430360	39911.113893	3969.539698	18228.416621
87.535500	0.144390	0.076420	0.147146	0.154653	6812.230492	39815.541746	3971.626369	18217.549125
88.034500	0.144502	0.076094	0.144990	0.158943	6774.617468	39425.182637	3955.142876	18066.665085
88.535000	0.142002	0.075955	0.143244	0.160908	6734.821232	39248.590243	3945.764384	17998.034691
89.035500	0.147262	0.075955	0.146526	0.156604	6820.572961	39610.645896	3965.021978	18148.741401
89.535500	0.145858	0.076032	0.144734	0.157888	6796.280258	39508.742759	3957.171226	18103.624068
90.036000	0.146844	0.075929	0.143004	0.158611	6798.641735	39439.159251	3950.952511	18078.266763
90.536500	0.142982	0.075986	0.143768	0.164648	6710.417706	38939.444010	3937.700094	17868.273447
91.034000	0.147364	0.075516	0.148507	0.160240	6788.665230	39267.708514	3960.791419	18021.317906
91.534000	0.147548	0.076046	0.149031	0.161624	6777.895620	39196.355993	3958.600778	17973.122936
92.034500	0.145106	0.074976	0.144928	0.165463	6721.983434	38788.353373	3938.563296	17840.176607
92.535000	0.145957	0.074959	0.148626	0.162938	6751.930688	38996.166060	3954.232044	17927.484487
93.035000	0.147467	0.075331	0.150041	0.164360	6752.708723	38908.932725	3954.213487	17878.226916
93.535000	0.146618	0.074744	0.148918	0.165314	6736.677014	38781.400754	3948.956608	17845.285923
94.035500	0.144724	0.073799	0.147883	0.168176	6694.723803	38468.259918	3939.167138	17746.929369
94.542000	0.143036	0.074319	0.143296	0.172800	6639.734024	38133.685682	3916.370185	17589.338014
95.036000	0.148386	0.074744	0.146952	0.169135	6718.511750	38467.083567	3934.449567	17714.085261
95.536500	0.147028	0.074209	0.154183	0.169638	6702.111898	38382.083951	3951.334553	17696.894608
96.147000	0.149198	0.074116	0.146146	0.171083	6708.493198	38256.662158	3927.612722	17647.642117
96.569000	0.142148	0.073506	0.146098	0.177675	6590.222259	37675.061690	3911.304225	17424.982604
97.034500	0.149151	0.073920	0.156543	0.172821	6692.813080	38099.615644	3949.255715	17588.619176
97.538000	0.146713	0.073554	0.149215	0.173769	6663.225569	37993.217382	3928.559462	17556.500947
98.035000	0.148268	0.073738	0.149403	0.174912	6666.811486	37915.755851	3926.198129	17517.895138
98.535500	0.143702	0.073528	0.145576	0.181770	6568.604530	37350.474007	3900.112847	17288.364363
99.038500	0.149829	0.073859	0.153842	0.177301	6659.607388	37733.379425	3931.277086	17437.539436
99.536000	0.147320	0.073546	0.154981	0.178120	6630.791095	37642.704597	3932.072138	17410.088542
