sample name	sample
index	326
start time	 02-25-2021  03:38:01 PM


Wavelength (nm)	Absorbance
494.344910	NaN
494.563924	NaN
494.782919	NaN
495.001897	0.328647
495.220856	NaN
495.439797	NaN
495.658719	1.059685
495.877624	0.383925
496.096510	0.373112
496.315378	0.326863
496.534227	0.214175
496.753059	0.255305
496.971872	0.095510
497.190667	0.132203
497.409444	0.138630
497.628203	0.142225
497.846943	0.142473
498.065665	0.143659
498.284369	0.146055
498.503055	0.147285
498.721723	0.146812
498.940372	0.146148
499.159003	0.145960
499.377616	0.145185
499.596210	0.144525
499.814787	0.144612
500.033345	0.144438
500.251885	0.143238
500.470406	0.142564
500.688910	0.143052
500.907395	0.144281
501.125862	0.144374
501.344311	0.146013
501.562742	0.146299
501.781154	0.147705
501.999548	0.148317
502.217924	0.149688
502.436282	0.149308
502.654621	0.149936
502.872942	0.148792
503.091245	0.149682
503.309530	0.149620
503.527797	0.149743
503.746045	0.149068
503.964275	0.148674
504.182487	0.148675
504.400681	0.150070
504.618856	0.149899
504.837013	0.151242
505.055152	0.150319
505.273273	0.150545
505.491376	0.151010
505.709460	0.151261
505.927526	0.151044
506.145574	0.151501
506.363604	0.150654
506.581615	0.150272
506.799608	0.150503
507.017583	0.150803
507.235540	0.150025
507.453478	0.149698
507.671399	0.149435
507.889301	0.149197
508.107185	0.148705
508.325050	0.148769
508.542898	0.148419
508.760727	0.148738
508.978538	0.148813
509.196330	0.149717
509.414105	0.150348
509.631861	0.150777
509.849599	0.151558
510.067319	0.151404
510.285021	0.151417
510.502704	0.152477
510.720369	0.151911
510.938016	0.152572
511.155645	0.152516
511.373255	0.151792
511.590848	0.152324
511.808422	0.153387
512.025977	0.153390
512.243515	0.154125
512.461034	0.154472
512.678536	0.154582
512.896018	0.154879
513.113483	0.155996
513.330930	0.157561
513.548358	0.157572
513.765768	0.156829
513.983160	0.157574
514.200533	0.157823
514.417889	0.156909
514.635226	0.157490
514.852545	0.157379
515.069845	0.157107
515.287128	0.156386
515.504392	0.156008
515.721638	0.157096
515.938866	0.157411
516.156075	0.158136
516.373267	0.158663
516.590440	0.158523
516.807594	0.159129
517.024731	0.158237
517.241850	0.158802
517.458950	0.159596
517.676032	0.159655
517.893095	0.158976
518.110141	0.158051
518.327168	0.158538
518.544177	0.159685
518.761168	0.160530
518.978141	0.161124
519.195095	0.161512
519.412031	0.161867
519.628949	0.161343
519.845849	0.162348
520.062731	0.163529
520.279594	0.163630
520.496439	0.162953
520.713266	0.162760
520.930074	0.163063
521.146865	0.162841
521.363637	0.163146
521.580391	0.163658
521.797127	0.163494
522.013844	0.163420
522.230543	0.164030
522.447224	0.164102
522.663887	0.163923
522.880532	0.164477
523.097158	0.164862
523.313766	0.165382
523.530356	0.165251
523.746928	0.165145
523.963481	0.164985
524.180017	0.165116
524.396534	0.165940
524.613032	0.166619
524.829513	0.167254
525.045975	0.167498
525.262420	0.167512
525.478845	0.168630
525.695253	0.169530
525.911643	0.170106
526.128014	0.170771
526.344367	0.171256
526.560702	0.170893
526.777018	0.169993
526.993316	0.170896
527.209597	0.171287
527.425858	0.170917
527.642102	0.171188
527.858328	0.171462
528.074535	0.171670
528.290724	0.171670
528.506894	0.172827
528.723047	0.174102
528.939181	0.173438
529.155297	0.173145
529.371395	0.173616
529.587475	0.173857
529.803536	0.174137
530.019579	0.173798
530.235604	0.174183
530.451611	0.174336
530.667600	0.174378
530.883570	0.175145
531.099522	0.175846
531.315456	0.176319
531.531372	0.176581
531.747269	0.176468
531.963148	0.177524
532.179009	0.177751
532.394852	0.177998
532.610676	0.178373
532.826482	0.178661
533.042271	0.178865
533.258040	0.179046
533.473792	0.179208
533.689525	0.179620
533.905240	0.179618
534.120937	0.180357
534.336616	0.180596
534.552277	0.181455
534.767919	0.181680
534.983543	0.181804
535.199149	0.182310
535.414736	0.182449
535.630306	0.183122
535.845857	0.183308
536.061390	0.183527
536.276904	0.183714
536.492401	0.183959
536.707879	0.184510
536.923339	0.185173
537.138781	0.185502
537.354204	0.185950
537.569610	0.185927
537.784997	0.186288
538.000366	0.186475
538.215716	0.186343
538.431049	0.185799
538.646363	0.185795
538.861659	0.185812
539.076937	0.185904
539.292196	0.186057
539.507438	0.186554
539.722661	0.187366
539.937866	0.187249
540.153052	0.188170
540.368221	0.188693
540.583371	0.189381
540.798503	0.189952
541.013617	0.190254
541.228712	0.191006
541.443789	0.191536
541.658848	0.191434
541.873889	0.192024
542.088912	0.192551
542.303916	0.192946
542.518902	0.193077
542.733870	0.193409
542.948820	0.193282
543.163752	0.193739
543.378665	0.193760
543.593560	0.194226
543.808437	0.194585
544.023295	0.194393
544.238136	0.194933
544.452958	0.195133
544.667762	0.195236
544.882548	0.196094
545.097315	0.196044
545.312064	0.196364
545.526795	0.196467
545.741508	0.196896
545.956203	0.197286
546.170879	0.197002
546.385537	0.197467
546.600177	0.198340
546.814799	0.198309
547.029402	0.198583
547.243988	0.198856
547.458555	0.199369
547.673103	0.199651
547.887634	0.199666
548.102146	0.200316
548.316640	0.200335
548.531116	0.200092
548.745574	0.200041
548.960013	0.200379
549.174435	0.200465
549.388838	0.200372
549.603222	0.199959
549.817589	0.200350
550.031937	0.200483
550.246267	0.200973
550.460579	0.201036
550.674873	0.201714
550.889148	0.201768
551.103405	0.202375
551.317644	0.203025
551.531865	0.203730
551.746068	0.203968
551.960252	0.204598
552.174418	0.204747
552.388566	0.205026
552.602696	0.205040
552.816807	0.205089
553.030900	0.205479
553.244975	0.205772
553.459032	0.205924
553.673070	0.206122
553.887091	0.205763
554.101093	0.205980
554.315077	0.206553
554.529042	0.206931
554.742990	0.207873
554.956919	0.207749
555.170830	0.207557
555.384722	0.207808
555.598597	0.207835
555.812453	0.208263
556.026291	0.208372
556.240111	0.208285
556.453913	0.208313
556.667696	0.207715
556.881461	0.207949
557.095208	0.208361
557.308937	0.208820
557.522647	0.209252
557.736339	0.209969
557.950013	0.210058
558.163669	0.210234
558.377307	0.210789
558.590926	0.211569
558.804527	0.211675
559.018110	0.211124
559.231675	0.211197
559.445221	0.211658
559.658749	0.211641
559.872259	0.212173
560.085751	0.212325
560.299225	0.212402
560.512680	0.212673
560.726117	0.212800
560.939536	0.213708
561.152937	0.213783
561.366319	0.214008
561.579683	0.213976
561.793029	0.213966
562.006357	0.214297
562.219667	0.214565
562.432958	0.214745
562.646231	0.215329
562.859486	0.215362
563.072723	0.215706
563.285941	0.215552
563.499141	0.215743
563.712323	0.216188
563.925487	0.216437
564.138632	0.216546
564.351760	0.216579
564.564869	0.216800
564.777960	0.216962
564.991032	0.216930
565.204087	0.217635
565.417123	0.217893
565.630141	0.217749
565.843140	0.217809
566.056122	0.218134
566.269085	0.218387
566.482030	0.218433
566.694957	0.218816
566.907866	0.219015
567.120756	0.218713
567.333628	0.218970
567.546482	0.219800
567.759318	0.219991
567.972135	0.220185
568.184935	0.220093
568.397716	0.220304
568.610478	0.220253
568.823223	0.220295
569.035949	0.220621
569.248657	0.220383
569.461347	0.220061
569.674019	0.220450
569.886672	0.220631
570.099308	0.221240
570.311925	0.221432
570.524523	0.221724
570.737104	0.222217
570.949666	0.222411
571.162210	0.222659
571.374736	0.222859
571.587244	0.223176
571.799733	0.222844
572.012205	0.223045
572.224658	0.222873
572.437092	0.223558
572.649509	0.223896
572.861907	0.224084
573.074287	0.224516
573.286649	0.224641
573.498993	0.224404
573.711318	0.224953
573.923625	0.225203
574.135914	0.225849
574.348185	0.225571
574.560438	0.225631
574.772672	0.225918
574.984888	0.226002
575.197086	0.226263
575.409266	0.226568
575.621427	0.227047
575.833570	0.227137
576.045695	0.227293
576.257802	0.227772
576.469890	0.227762
576.681961	0.228199
576.894013	0.228674
577.106046	0.228678
577.318062	0.229150
577.530059	0.229313
577.742039	0.229373
577.954000	0.229422
578.165942	0.229680
578.377867	0.230307
578.589773	0.230186
578.801661	0.230326
579.013531	0.230716
579.225382	0.231011
579.437216	0.231289
579.649031	0.231301
579.860828	0.231619
580.072606	0.231760
580.284367	0.231480
580.496109	0.231823
580.707833	0.232024
580.919539	0.232337
581.131227	0.232509
581.342896	0.232563
581.554547	0.232981
581.766180	0.233360
581.977795	0.233435
582.189391	0.234057
582.400969	0.234268
582.612529	0.234253
582.824071	0.234191
583.035595	0.234036
583.247100	0.234543
583.458587	0.234639
583.670056	0.234436
583.881506	0.234594
584.092939	0.234746
584.304353	0.234965
584.515749	0.235544
584.727127	0.236256
584.938486	0.236387
585.149828	0.236321
585.361151	0.236541
585.572456	0.237067
585.783742	0.237498
585.995011	0.237611
586.206261	0.237360
586.417493	0.237326
586.628706	0.237338
586.839902	0.237710
587.051079	0.237828
587.262238	0.238118
587.473379	0.237976
587.684502	0.238017
587.895606	0.238556
588.106692	0.238810
588.317760	0.239123
588.528810	0.239072
588.739841	0.239014
588.950855	0.239370
589.161850	0.239495
589.372827	0.240059
589.583785	0.240176
589.794726	0.240403
590.005648	0.241010
590.216552	0.241484
590.427437	0.241749
590.638305	0.242240
590.849154	0.242250
591.059985	0.242389
591.270798	0.242383
591.481592	0.242474
591.692369	0.242361
591.903127	0.242358
592.113867	0.242113
592.324588	0.242592
592.535292	0.242827
592.745977	0.243008
592.956644	0.243498
593.167293	0.243954
593.377923	0.244396
593.588536	0.244267
593.799130	0.244598
594.009706	0.244775
594.220263	0.244563
594.430803	0.244769
594.641324	0.245223
594.851827	0.245555
595.062312	0.245689
595.272778	0.245926
595.483227	0.246651
595.693657	0.247059
595.904069	0.247266
596.114462	0.247828
596.324838	0.248058
596.535195	0.248027
596.745534	0.247868
596.955855	0.248134
597.166157	0.248021
597.376441	0.247833
597.586707	0.247936
597.796955	0.248062
598.007185	0.248108
598.217396	0.248254
598.427589	0.248837
598.637764	0.248792
598.847921	0.248911
599.058060	0.249406
599.268180	0.249678
599.478282	0.249882
599.688366	0.250338
599.898431	0.250308
600.108479	0.250515
600.318508	0.249966
600.528519	0.250750
600.738511	0.250693
600.948486	0.250973
601.158442	0.251067
601.368380	0.250927
601.578300	0.250947
601.788202	0.251533
601.998085	0.251643
602.207950	0.252221
602.417797	0.251952
602.627626	0.252294
602.837436	0.252319
603.047228	0.252924
603.257002	0.253280
603.466758	0.253688
603.676496	0.253518
603.886215	0.253984
604.095916	0.254407
604.305599	0.254670
604.515264	0.255175
604.724910	0.255362
604.934538	0.255062
605.144148	0.255080
605.353740	0.255212
605.563314	0.255472
605.772869	0.255595
605.982406	0.255611
606.191925	0.255989
606.401425	0.256102
606.610908	0.256099
606.820372	0.256544
607.029818	0.256706
607.239246	0.256723
607.448655	0.256941
607.658047	0.257116
607.867420	0.257129
608.076775	0.257210
608.286111	0.256896
608.495430	0.256898
608.704730	0.256935
608.914012	0.257167
609.123275	0.257439
609.332521	0.257665
609.541748	0.257750
609.750957	0.257998
609.960148	0.258159
610.169321	0.258378
610.378475	0.258841
610.587611	0.258949
610.796729	0.259072
611.005829	0.258967
611.214910	0.258778
611.423974	0.258885
611.633019	0.258699
611.842045	0.258792
612.051054	0.258892
612.260044	0.258803
612.469017	0.259066
612.677970	0.259277
612.886906	0.259777
613.095824	0.260401
613.304723	0.260396
613.513604	0.261035
613.722467	0.261196
613.931311	0.261703
614.140138	0.261921
614.348946	0.261929
614.557736	0.262000
614.766507	0.262017
614.975261	0.261945
615.183996	0.262338
615.392713	0.262670
615.601412	0.262579
615.810092	0.262559
616.018754	0.262850
616.227399	0.263124
616.436024	0.263307
616.644632	0.263263
616.853222	0.263346
617.061793	0.263370
617.270346	0.262924
617.478880	0.263389
617.687397	0.263682
617.895895	0.263718
618.104375	0.263879
618.312837	0.264184
618.521281	0.264416
618.729706	0.264508
618.938113	0.264739
619.146502	0.265139
619.354873	0.265330
619.563226	0.265398
619.771560	0.265638
619.979876	0.265776
620.188174	0.265879
620.396453	0.266176
620.604715	0.266613
620.812958	0.266697
621.021183	0.266789
621.229390	0.267041
621.437578	0.267122
621.645748	0.267447
621.853900	0.267445
622.062034	0.267377
622.270150	0.267675
622.478247	0.267782
622.686326	0.267737
622.894387	0.268130
623.102430	0.268079
623.310454	0.268303
623.518461	0.268358
623.726449	0.268564
623.934418	0.268829
624.142370	0.268775
624.350303	0.269256
624.558218	0.269770
624.766115	0.269845
624.973994	0.269965
625.181855	0.270108
625.389697	0.270281
625.597521	0.270587
625.805327	0.270963
626.013114	0.271241
626.220883	0.271099
626.428634	0.271061
626.636367	0.271143
626.844082	0.271576
627.051778	0.271638
627.259457	0.271641
627.467117	0.271636
627.674758	0.271620
627.882382	0.271741
628.089987	0.271812
628.297574	0.272071
628.505143	0.272056
628.712694	0.272012
628.920226	0.272187
629.127740	0.272534
629.335236	0.272726
629.542714	0.273060
629.750174	0.273274
629.957615	0.273667
630.165038	0.273836
630.372443	0.274009
630.579829	0.274080
630.787198	0.274076
630.994548	0.274409
631.201880	0.274432
631.409194	0.274570
631.616489	0.274841
631.823766	0.274769
632.031025	0.275122
632.238266	0.275426
632.445489	0.275630
632.652693	0.276233
632.859879	0.276227
633.067047	0.276792
633.274197	0.276989
633.481329	0.276920
633.688442	0.277175
633.895537	0.277459
634.102614	0.277802
634.309672	0.278266
634.516713	0.278327
634.723735	0.278585
634.930739	0.278787
635.137724	0.278828
635.344692	0.279204
635.551641	0.279611
635.758572	0.279458
635.965485	0.279530
636.172379	0.279479
636.379256	0.279634
636.586114	0.279406
636.792954	0.279546
636.999775	0.279934
637.206579	0.279907
637.413364	0.279990
637.620131	0.280220
637.826880	0.280472
638.033610	0.280681
638.240323	0.280594
638.447017	0.281075
638.653692	0.281089
638.860350	0.281122
639.066990	0.281469
639.273611	0.281506
639.480214	0.281500
639.686798	0.281431
639.893365	0.281927
640.099913	0.282542
640.306443	0.282741
640.512955	0.283195
640.719449	0.283526
640.925924	0.283483
641.132381	0.283913
641.338820	0.284199
641.545241	0.284680
641.751644	0.284279
641.958028	0.284187
642.164394	0.283964
642.370742	0.284200
642.577071	0.284379
642.783383	0.284708
642.989676	0.284705
643.195951	0.285041
643.402207	0.285026
643.608446	0.285675
643.814666	0.285757
644.020868	0.286370
644.227052	0.286062
644.433218	0.286261
644.639365	0.286472
644.845494	0.286780
645.051605	0.286912
645.257698	0.287137
645.463772	0.287088
645.669828	0.287612
645.875866	0.287702
646.081886	0.288229
646.287888	0.288293
646.493871	0.288438
646.699836	0.288250
646.905783	0.288403
647.111712	0.288456
647.317622	0.288597
647.523514	0.288549
647.729388	0.288576
647.935244	0.288785
648.141082	0.288942
648.346901	0.289022
648.552702	0.289364
648.758485	0.289598
648.964250	0.289906
649.169996	0.290114
649.375724	0.290399
649.581434	0.290873
649.787126	0.290991
649.992800	0.291244
650.198455	0.291451
650.404092	0.291312
650.609711	0.291389
650.815311	0.291671
651.020894	0.291940
651.226458	0.292080
651.432004	0.292228
651.637532	0.292093
651.843041	0.292074
652.048532	0.292338
652.254006	0.292781
652.459460	0.293069
652.664897	0.293148
652.870315	0.293330
653.075716	0.293686
653.281097	0.293560
653.486461	0.293922
653.691807	0.294202
653.897134	0.294360
654.102443	0.294604
654.307734	0.294863
654.513006	0.295144
654.718261	0.295552
654.923497	0.295667
655.128715	0.296264
655.333915	0.296438
655.539096	0.296624
655.744259	0.296949
655.949404	0.297315
656.154531	0.297554
656.359640	0.297929
656.564730	0.298078
656.769802	0.298388
656.974856	0.298586
657.179892	0.299018
657.384909	0.299228
657.589908	0.299343
657.794889	0.299553
657.999852	0.299820
658.204797	0.299852
658.409723	0.300033
658.614631	0.300199
658.819521	0.300430
659.024393	0.300465
659.229246	0.300838
659.434081	0.301260
659.638898	0.301466
659.843697	0.301624
660.048478	0.301659
660.253240	0.301691
660.457984	0.301708
660.662710	0.301799
660.867417	0.302251
661.072107	0.302363
661.276778	0.302141
661.481431	0.302458
661.686066	0.302603
661.890682	0.302859
662.095281	0.303242
662.299861	0.303643
662.504422	0.303923
662.708966	0.303974
662.913491	0.304220
663.117999	0.304813
663.322488	0.304819
663.526958	0.304864
663.731411	0.305120
663.935845	0.305216
664.140261	0.305362
664.344659	0.305390
664.549038	0.305530
664.753400	0.305645
664.957743	0.305764
665.162068	0.305980
665.366375	0.306170
665.570663	0.306362
665.774933	0.306707
665.979185	0.306805
666.183419	0.307182
666.387635	0.307385
666.591832	0.307457
666.796011	0.307742
667.000172	0.308041
667.204315	0.308298
667.408439	0.308893
667.612545	0.309278
667.816634	0.309506
668.020703	0.309590
668.224755	0.310029
668.428788	0.310534
668.632803	0.310719
668.836800	0.311076
669.040779	0.311592
669.244739	0.311524
669.448681	0.311559
669.652605	0.311933
669.856511	0.312289
670.060399	0.312226
670.264268	0.312280
670.468119	0.312457
670.671952	0.312350
670.875767	0.312457
671.079563	0.312773
671.283341	0.312688
671.487101	0.313035
671.690843	0.313157
671.894567	0.313658
672.098272	0.314056
672.301959	0.314334
672.505628	0.314869
672.709278	0.315194
672.912911	0.315339
673.116525	0.315588
673.320121	0.315697
673.523699	0.316013
673.727258	0.316062
673.930799	0.316398
674.134322	0.316853
674.337827	0.317074
674.541314	0.317143
674.744782	0.317454
674.948232	0.317658
675.151664	0.317760
675.355078	0.318191
675.558474	0.318838
675.761851	0.319023
675.965210	0.319153
676.168551	0.319418
676.371873	0.319627
676.575178	0.319932
676.778464	0.320230
676.981732	0.320564
677.184981	0.320901
677.388213	0.320741
677.591426	0.320862
677.794621	0.320744
677.997798	0.320814
678.200956	0.321095
678.404097	0.321256
678.607219	0.321532
678.810323	0.321632
679.013408	0.321380
679.216476	0.321695
679.419525	0.321911
679.622556	0.322316
679.825569	0.322654
680.028563	0.322714
680.231540	0.322979
680.434498	0.323404
680.637438	0.323890
680.840359	0.324167
681.043263	0.324323
681.246148	0.324498
681.449015	0.324865
681.651864	0.324992
681.854694	0.325348
682.057506	0.325407
682.260301	0.325450
682.463076	0.325222
682.665834	0.325422
682.868573	0.325913
683.071295	0.326365
683.273998	0.326400
683.476682	0.326445
683.679349	0.326607
683.881997	0.326996
684.084627	0.327367
684.287239	0.327718
684.489833	0.327913
684.692408	0.327993
684.894965	0.327834
685.097504	0.328011
685.300025	0.328250
685.502527	0.328346
685.705012	0.328457
685.907478	0.328577
686.109925	0.329106
686.312355	0.329404
686.514766	0.329265
686.717159	0.329803
686.919534	0.329949
687.121891	0.330301
687.324230	0.330649
687.526550	0.330649
687.728852	0.330872
687.931136	0.330782
688.133401	0.330746
688.335649	0.331061
688.537878	0.331174
688.740089	0.331444
688.942281	0.331658
689.144456	0.331838
689.346612	0.332025
689.548750	0.332103
689.750870	0.332458
689.952971	0.332846
690.155055	0.333158
690.357120	0.333140
690.559167	0.333480
690.761195	0.333295
690.963206	0.333446
691.165198	0.333861
691.367172	0.334046
691.569128	0.333801
691.771065	0.334191
691.972984	0.334368
692.174885	0.334720
692.376768	0.334830
692.578633	0.335517
692.780479	0.335414
692.982308	0.335632
693.184118	0.335940
693.385909	0.336440
693.587683	0.336480
693.789438	0.336996
693.991175	0.337307
694.192894	0.337333
694.394595	0.337361
694.596277	0.337909
694.797941	0.337979
694.999587	0.338236
695.201215	0.338721
695.402824	0.338887
695.604416	0.338544
695.805989	0.338614
696.007543	0.339028
696.209080	0.339364
696.410598	0.339589
696.612099	0.339888
696.813580	0.340092
697.015044	0.340088
697.216490	0.340295
697.417917	0.340434
697.619326	0.340368
697.820717	0.340249
698.022089	0.340149
698.223444	0.340075
698.424780	0.340202
698.626098	0.340301
698.827397	0.340619
699.028679	0.340830
699.229942	0.341283
699.431187	0.341288
699.632414	0.341526
699.833622	0.341525
700.034813	0.341666
700.235985	0.341819
700.437139	0.341847
700.638274	0.341789
700.839392	0.341839
701.040491	0.341748
701.241572	0.342071
701.442635	0.342053
701.643679	0.342249
701.844706	0.342395
702.045714	0.342380
702.246704	0.342495
702.447675	0.342596
702.648629	0.342602
702.849564	0.342562
703.050481	0.342661
703.251380	0.342652
703.452260	0.342995
703.653122	0.343205
703.853966	0.343149
704.054792	0.343168
704.255600	0.343009
704.456389	0.343075
704.657160	0.343292
704.857913	0.343503
705.058648	0.343887
705.259365	0.343719
705.460063	0.343534
705.660743	0.343518
705.861405	0.343454
706.062048	0.343758
706.262674	0.343806
706.463281	0.343753
706.663870	0.343770
706.864441	0.343872
707.064993	0.344006
707.265527	0.344244
707.466043	0.344424
707.666541	0.344767
707.867021	0.344868
708.067482	0.344852
708.267925	0.344972
708.468350	0.344955
708.668757	0.344824
708.869145	0.344909
709.069516	0.345092
709.269868	0.345426
709.470201	0.345499
709.670517	0.345602
709.870814	0.345769
710.071093	0.346140
710.271354	0.346038
710.471597	0.346038
710.671821	0.346133
710.872028	0.345901
711.072216	0.345744
711.272385	0.345472
711.472537	0.345202
711.672670	0.345165
711.872785	0.345035
712.072882	0.345477
712.272961	0.345602
712.473021	0.345602
712.673063	0.345444
712.873087	0.345315
713.073093	0.345394
713.273081	0.345332
713.473050	0.345472
713.673001	0.345310
713.872934	0.345177
714.072849	0.345126
714.272745	0.345097
714.472623	0.345638
714.672483	0.345801
714.872325	0.345955
715.072148	0.346158
715.271954	0.345956
715.471741	0.345899
715.671509	0.345788
715.871260	0.345857
716.070992	0.345815
716.270707	0.345568
716.470403	0.345440
716.670080	0.345289
716.869740	0.345282
717.069381	0.345353
717.269004	0.345476
717.468609	0.345398
717.668195	0.345219
717.867764	0.345164
718.067314	0.345055
718.266846	0.345211
718.466360	0.345376
718.665855	0.345309
718.865332	0.345160
719.064791	0.345014
719.264232	0.345212
719.463655	0.345265
719.663059	0.345080
719.862445	0.345178
720.061813	0.344883
720.261163	0.344872
720.460494	0.344532
720.659807	0.344449
720.859102	0.344586
721.058379	0.344164
721.257638	0.344008
721.456878	0.343994
721.656100	0.343804
721.855304	0.343751
722.054490	0.343260
722.253657	0.343027
722.452806	0.343147
722.651937	0.342954
722.851050	0.343006
723.050145	0.343118
723.249221	0.342886
723.448279	0.342755
723.647319	0.342774
723.846340	0.342861
724.045344	0.343282
724.244329	0.342933
724.443296	0.342811
724.642245	0.342744
724.841175	0.342532
725.040088	0.342787
725.238982	0.342825
725.437857	0.342737
725.636715	0.342637
725.835554	0.342378
726.034376	0.342513
726.233179	0.342378
726.431963	0.342067
726.630730	0.342022
726.829478	0.341728
727.028208	0.341547
727.226920	0.341338
727.425614	0.341207
727.624289	0.341228
727.822946	0.341014
728.021585	0.341024
728.220206	0.340974
728.418808	0.340619
728.617392	0.340500
728.815958	0.340467
729.014506	0.340367
729.213036	0.340197
729.411547	0.339940
729.610040	0.339874
729.808515	0.339727
730.006972	0.339639
730.205410	0.339601
730.403831	0.339579
730.602233	0.339340
730.800616	0.339056
730.998982	0.339090
731.197329	0.339020
731.395658	0.338885
731.593969	0.338577
731.792262	0.338352
731.990536	0.338227
732.188793	0.337865
732.387031	0.337579
732.585250	0.337604
732.783452	0.337491
732.981635	0.337449
733.179800	0.337549
733.377947	0.337249
733.576076	0.337142
733.774186	0.336809
733.972278	0.336816
734.170352	0.336518
734.368408	0.336491
734.566446	0.336240
734.764465	0.335809
734.962466	0.335181
735.160449	0.335083
735.358413	0.334853
735.556360	0.334885
735.754288	0.334564
735.952198	0.334865
736.150090	0.334783
736.347963	0.334507
736.545818	0.334327
736.743655	0.334444
736.941474	0.334418
737.139275	0.334218
737.337057	0.334060
737.534821	0.333999
737.732567	0.333504
737.930295	0.332689
738.128005	0.332710
738.325696	0.332428
738.523369	0.332065
738.721024	0.331727
738.918660	0.331625
739.116279	0.331435
739.313879	0.331155
739.511461	0.331138
739.709024	0.331403
739.906570	0.330936
740.104097	0.330715
740.301606	0.330384
740.499097	0.330444
740.696569	0.330196
740.894024	0.330244
741.091460	0.330226
741.288878	0.329931
741.486277	0.329767
741.683659	0.329669
741.881022	0.329753
742.078367	0.330010
742.275694	0.329852
742.473002	0.330066
742.670293	0.329748
742.867565	0.329609
743.064819	0.329599
743.262054	0.329307
743.459272	0.329190
743.656471	0.328894
743.853652	0.328442
744.050815	0.328104
744.247959	0.327476
744.445085	0.326886
744.642194	0.326513
744.839283	0.326105
745.036355	0.325891
745.233408	0.325607
745.430444	0.325415
745.627461	0.325127
745.824459	0.324972
746.021440	0.324676
746.218402	0.324594
746.415346	0.324020
746.612272	0.323673
746.809180	0.323555
747.006069	0.323383
747.202940	0.323149
747.399793	0.322891
747.596628	0.322704
747.793444	0.322664
747.990243	0.322557
748.187023	0.322737
748.383784	0.322657
748.580528	0.322395
748.777253	0.322180
748.973960	0.322032
749.170649	0.321975
749.367320	0.321678
749.563973	0.321570
749.760607	0.321135
749.957223	0.320904
750.153821	0.320718
750.350400	0.320439
750.546962	0.319967
750.743505	0.319672
750.940030	0.319551
751.136536	0.319497
751.333025	0.319289
751.529495	0.319497
751.725947	0.319466
751.922381	0.319019
752.118796	0.318927
752.315194	0.318940
752.511573	0.318951
752.707934	0.318739
752.904276	0.318520
753.100601	0.318611
753.296907	0.318423
753.493195	0.318210
753.689465	0.318358
753.885716	0.318029
754.081949	0.318144
754.278164	0.317832
754.474361	0.317652
754.670540	0.317265
754.866700	0.316776
755.062843	0.316646
755.258967	0.316453
755.455072	0.316163
755.651160	0.316192
755.847229	0.315885
756.043280	0.315723
756.239313	0.315591
756.435328	0.315413
756.631324	0.315388
756.827302	0.315157
757.023262	0.314864
757.219204	0.314855
757.415127	0.314853
757.611033	0.314593
757.806920	0.314641
758.002788	0.314410
758.198639	0.314428
758.394471	0.314179
758.590286	0.313932
758.786081	0.313970
758.981859	0.313979
759.177619	0.313521
759.373360	0.313398
759.569083	0.312909
759.764788	0.312976
759.960474	0.312905
760.156143	0.312810
760.351793	0.312642
760.547425	0.312286
760.743038	0.311881
760.938634	0.311807
761.134211	0.311810
761.329770	0.311937
761.525311	0.311762
761.720833	0.311331
761.916338	0.311259
762.111824	0.311099
762.307292	0.311000
762.502741	0.311077
762.698173	0.310762
762.893586	0.310302
763.088981	0.309892
763.284358	0.309473
763.479716	0.309368
763.675057	0.309212
763.870379	0.308856
764.065683	0.308488
764.260968	0.308051
764.456236	0.308247
764.651485	0.308161
764.846716	0.308342
765.041929	0.308261
765.237123	0.308361
765.432299	0.308091
765.627457	0.307727
765.822597	0.307856
766.017719	0.307779
766.212822	0.307553
766.407907	0.307334
766.602974	0.307020
766.798023	0.306732
766.993054	0.306644
767.188066	0.306761
767.383060	0.306963
767.578036	0.306826
767.772993	0.306689
767.967933	0.306644
768.162854	0.306776
768.357757	0.306713
768.552642	0.306750
768.747508	0.306574
768.942356	0.306266
769.137186	0.306304
769.331998	0.306537
769.526792	0.306590
769.721567	0.306397
769.916324	0.306391
770.111063	0.306346
770.305784	0.306321
770.500486	0.306294
770.695171	0.306243
770.889837	0.306372
771.084484	0.305958
771.279114	0.305733
771.473725	0.305819
771.668318	0.305414
771.862893	0.305257
772.057450	0.305182
772.251988	0.305227
772.446509	0.305278
772.641011	0.305101
772.835494	0.305058
773.029960	0.305088
773.224407	0.304964
773.418836	0.304981
773.613247	0.304949
773.807640	0.304858
774.002014	0.304945
774.196370	0.304790
774.390708	0.304553
774.585028	0.304266
774.779330	0.304135
774.973613	0.303708
775.167878	0.303856
775.362125	0.303848
775.556354	0.303583
775.750564	0.303008
775.944756	0.303031
776.138930	0.303109
776.333086	0.303563
776.527223	0.303505
776.721343	0.303754
776.915444	0.303600
777.109526	0.303529
777.303591	0.303944
777.497637	0.304193
777.691666	0.304229
777.885676	0.304017
778.079667	0.303626
778.273641	0.303490
778.467596	0.303564
778.661533	0.303353
778.855452	0.303585
779.049352	0.303365
779.243235	0.303259
779.437099	0.302998
779.630945	0.303249
779.824773	0.303444
780.018582	0.303760
780.212373	0.303409
780.406146	0.303422
780.599901	0.303089
780.793638	0.302936
780.987356	0.302521
781.181056	0.302591
781.374738	0.302454
781.568402	0.302101
781.762047	0.301860
781.955674	0.302003
782.149283	0.302078
782.342874	0.301687
782.536447	0.301651
782.730001	0.301935
782.923537	0.301785
783.117055	0.301725
783.310555	0.301715
783.504036	0.301655
783.697499	0.301722
783.890944	0.301781
784.084371	0.302461
784.277780	0.302627
784.471170	0.302526
784.664542	0.302440
784.857896	0.302506
785.051231	0.302667
785.244549	0.302927
785.437848	0.302875
785.631129	0.302719
785.824392	0.302371
786.017636	0.302178
786.210863	0.302207
786.404071	0.302427
786.597260	0.302494
786.790432	0.302442
786.983585	0.302597
787.176721	0.302568
787.369838	0.302786
787.562936	0.302869
787.756017	0.303426
787.949079	0.303662
788.142123	0.303755
788.335149	0.303604
788.528156	0.303824
788.721146	0.303756
788.914117	0.303708
789.107070	0.303853
789.300005	0.303800
789.492921	0.303571
789.685819	0.303577
789.878699	0.303594
790.071561	0.303678
790.264405	0.303583
790.457230	0.303768
790.650037	0.303831
790.842826	0.303915
791.035597	0.304268
791.228349	0.304259
791.421084	0.304486
791.613800	0.304434
791.806497	0.304872
791.999177	0.305093
792.191838	0.305062
792.384481	0.305465
792.577106	0.305547
792.769713	0.305792
792.962301	0.306006
793.154871	0.305934
793.347423	0.306226
793.539957	0.306319
793.732473	0.306264
793.924970	0.306156
794.117449	0.306310
794.309910	0.306525
794.502353	0.306615
794.694777	0.306616
794.887183	0.306837
795.079571	0.306700
795.271941	0.306668
795.464293	0.306892
795.656626	0.307259
795.848941	0.307008
796.041238	0.307042
796.233516	0.307029
796.425777	0.307099
796.618019	0.307002
796.810243	0.307353
797.002449	0.307451
797.194636	0.307690
797.386805	0.307477
797.578956	0.307789
797.771089	0.307936
797.963204	0.307969
798.155300	0.308147
798.347378	0.308492
798.539438	0.308840
798.731480	0.308743
798.923503	0.308730
799.115509	0.309020
799.307496	0.309140
799.499465	0.309273
799.691415	0.309108
799.883348	0.309443
800.075262	0.309495
800.267158	0.309129
800.459035	0.309421
800.650895	0.309689
800.842736	0.309761
801.034559	0.309853
801.226364	0.310066
801.418150	0.310644
801.609919	0.310622
801.801669	0.310711
801.993401	0.311220
802.185114	0.311556
802.376810	0.311956
802.568487	0.312360
802.760146	0.312652
802.951787	0.312841
803.143409	0.312949
803.335014	0.313112
803.526600	0.313403
803.718168	0.313644
803.909717	0.313721
804.101249	0.313728
804.292762	0.313862
804.484257	0.314297
804.675734	0.314588
804.867192	0.315073
805.058632	0.315636
805.250054	0.315814
805.441458	0.316381
805.632844	0.316755
805.824211	0.317050
806.015561	0.317041
806.206891	0.316911
806.398204	0.316917
806.589499	0.317046
806.780775	0.316996
806.972033	0.317403
807.163273	0.317223
807.354495	0.317702
807.545698	0.317705
807.736883	0.318332
807.928050	0.319032
808.119199	0.319130
808.310329	0.319398
808.501441	0.319755
808.692535	0.319441
808.883611	0.319786
809.074669	0.319591
809.265708	0.320197
809.456729	0.320427
809.647732	0.320390
809.838717	0.320760
810.029683	0.320721
810.220632	0.321160
810.411562	0.321694
810.602474	0.321805
810.793367	0.322211
810.984242	0.322126
811.175100	0.322603
811.365938	0.323020
811.556759	0.323257
811.747562	0.323710
811.938346	0.323763
812.129112	0.324312
812.319860	0.324539
812.510589	0.325026
812.701300	0.325475
812.891994	0.325329
813.082668	0.325749
813.273325	0.325876
813.463964	0.326169
813.654584	0.326343
813.845186	0.326360
814.035769	0.326798
814.226335	0.326651
814.416882	0.326871
814.607411	0.327375
814.797922	0.327464
814.988415	0.328032
815.178889	0.328298
815.369345	0.328792
815.559783	0.329117
815.750203	0.329242
815.940605	0.329477
816.130988	0.329721
816.321353	0.329614
816.511700	0.329915
816.702028	0.330091
816.892339	0.330536
817.082631	0.330561
817.272905	0.330782
817.463161	0.331017
817.653398	0.331484
817.843617	0.331894
818.033819	0.332607
818.224001	0.332699
818.414166	0.333018
818.604312	0.332965
818.794440	0.333444
818.984550	0.334087
819.174642	0.334836
819.364716	0.335420
819.554771	0.335944
819.744808	0.336548
819.934827	0.337057
820.124827	0.337382
820.314810	0.337980
820.504774	0.338603
820.694720	0.339000
820.884647	0.339264
821.074557	0.339823
821.264448	0.339952
821.454321	0.339965
821.644176	0.340349
821.834012	0.340919
822.023831	0.341233
822.213631	0.340935
822.403413	0.341211
822.593176	0.341453
822.782922	0.341530
822.972649	0.341942
823.162358	0.342514
823.352049	0.342815
823.541721	0.342984
823.731376	0.343247
823.921012	0.344317
824.110629	0.344932
824.300229	0.345183
824.489811	0.345748
824.679374	0.346160
824.868919	0.346175
825.058445	0.346604
825.247954	0.347007
825.437444	0.347413
825.626916	0.347385
825.816370	0.347515
826.005806	0.347820
826.195223	0.347941
826.384622	0.348327
826.574003	0.348574
826.763366	0.349041
826.952711	0.349620
827.142037	0.349972
827.331345	0.350430
827.520635	0.350785
827.709906	0.351379
827.899160	0.351693
828.088395	0.351750
828.277612	0.352082
828.466810	0.352276
828.655991	0.352570
828.845153	0.352872
829.034297	0.352996
829.223423	0.353430
829.412531	0.353598
829.601620	0.353768
829.790691	0.354399
829.979744	0.355016
830.168779	0.355292
830.357795	0.355843
830.546793	0.356614
830.735773	0.357287
830.924735	0.357514
831.113679	0.358050
831.302604	0.358646
831.491511	0.359121
831.680400	0.359393
831.869271	0.359960
832.058123	0.360074
832.246957	0.359908
832.435773	0.360234
832.624571	0.360855
832.813351	0.361514
833.002112	0.361855
833.190855	0.362043
833.379580	0.362692
833.568287	0.363378
833.756975	0.363916
833.945645	0.364717
834.134297	0.365412
834.322931	0.365330
834.511547	0.365534
834.700144	0.366012
834.888723	0.366505
835.077284	0.366895
835.265826	0.367129
835.454351	0.367383
835.642857	0.367784
835.831345	0.368087
836.019815	0.369180
836.208266	0.369496
836.396699	0.369626
836.585114	0.370134
836.773511	0.370459
836.961890	0.371214
837.150250	0.371897
837.338592	0.372339
837.526916	0.372916
837.715222	0.373113
837.903510	0.373557
838.091779	0.374371
838.280030	0.374827
838.468263	0.375313
838.656477	0.374986
838.844674	0.375263
839.032852	0.375443
839.221012	0.375979
839.409153	0.376408
839.597277	0.376928
839.785382	0.377596
839.973469	0.378073
840.161538	0.378603
840.349589	0.379090
840.537621	0.379423
840.725635	0.379937
840.913631	0.379948
841.101609	0.380236
841.289568	0.380433
841.477509	0.380378
841.665432	0.380703
841.853337	0.381018
842.041224	0.381861
842.229092	0.382478
842.416942	0.382989
842.604774	0.383356
842.792588	0.383873
842.980383	0.384767
843.168160	0.385792
843.355919	0.386291
843.543660	0.386627
843.731382	0.386939
843.919087	0.387603
844.106773	0.388230
844.294441	0.388856
844.482090	0.389047
844.669722	0.389433
844.857335	0.389707
845.044930	0.390270
845.232507	0.391164
845.420065	0.391712
845.607605	0.392038
845.795127	0.392594
845.982631	0.393134
846.170117	0.393957
846.357584	0.394333
846.545033	0.394816
846.732464	0.395289
846.919877	0.395496
847.107272	0.395921
847.294648	0.396241
847.482006	0.396259
847.669346	0.396536
847.856667	0.396716
848.043971	0.397229
848.231256	0.397389
848.418523	0.397841
848.605771	0.398823
848.793002	0.399075
848.980214	0.399468
849.167408	0.400216
849.354584	0.400765
849.541742	0.401537
849.728881	0.402013
849.916002	0.402722
850.103105	0.403128
850.290190	0.402708
850.477256	0.403416
850.664304	0.404373
850.851334	0.404703
851.038346	0.405014
851.225340	0.405265
851.412315	0.405395
851.599272	0.405398
851.786211	0.405476
851.973132	0.406418
852.160034	0.406732
852.346918	0.406974
852.533784	0.407480
852.720632	0.408340
852.907462	0.408898
853.094273	0.409521
853.281066	0.410489
853.467841	0.411270
853.654598	0.411724
853.841336	0.412411
854.028056	0.412818
854.214758	0.413069
854.401442	0.413164
854.588107	0.413796
854.774755	0.414217
854.961384	0.414147
855.147995	0.414368
855.334587	0.414391
855.521162	0.414661
855.707718	0.414703
855.894256	0.415542
856.080775	0.415881
856.267277	0.416404
856.453760	0.416752
856.640225	0.417513
856.826672	0.417820
857.013101	0.418254
857.199511	0.418489
857.385903	0.419134
857.572277	0.419433
857.758633	0.419850
857.944970	0.419819
858.131290	0.420117
858.317591	0.420097
858.503873	0.420509
858.690138	0.421190
858.876384	0.421716
859.062612	0.422131
859.248822	0.422445
859.435014	0.422996
859.621188	0.423311
859.807343	0.423988
859.993480	0.424965
860.179599	0.425288
860.365699	0.425584
860.551781	0.425690
860.737846	0.426389
860.923891	0.426775
861.109919	0.427140
861.295929	0.428003
861.481920	0.428242
861.667893	0.428141
861.853848	0.428731
862.039784	0.429162
862.225702	0.429547
862.411603	0.429817
862.597484	0.430013
862.783348	0.430360
862.969193	0.430746
863.155021	0.431637
863.340830	0.432795
863.526620	0.433636
863.712393	0.434158
863.898147	0.434787
864.083883	0.434647
864.269601	0.435273
864.455301	0.435836
864.640982	0.435806
864.826645	0.435976
865.012290	0.435949
865.197917	0.435934
865.383526	0.436078
865.569116	0.436493
865.754688	0.436779
865.940242	0.437105
866.125777	0.437512
866.311295	0.438295
866.496794	0.438277
866.682275	0.438413
866.867737	0.438599
867.053182	0.438758
867.238608	0.439119
867.424016	0.440000
867.609406	0.440112
867.794778	0.440193
867.980131	0.440450
868.165466	0.440794
868.350783	0.441096
868.536082	0.441780
868.721362	0.441996
868.906625	0.442089
869.091869	0.442396
869.277094	0.442974
869.462302	0.443311
869.647491	0.443364
869.832662	0.443780
870.017815	0.444334
870.202950	0.444498
870.388066	0.445041
870.573165	0.445897
870.758245	0.445761
870.943306	0.445558
871.128350	0.445634
871.313375	0.445935
871.498382	0.446454
871.683371	0.446550
871.868342	0.446904
872.053294	0.447484
872.238229	0.447383
872.423144	0.447947
872.608042	0.448775
872.792922	0.449693
872.977783	0.450090
873.162626	0.450120
873.347451	0.450142
873.532258	0.450603
873.717046	0.450663
873.901816	0.451064
874.086568	0.451352
874.271302	0.451224
874.456017	0.450848
874.640715	0.450953
874.825394	0.451694
875.010055	0.452525
875.194697	0.452326
875.379322	0.452710
875.563928	0.452784
875.748516	0.453076
875.933085	0.453581
876.117637	0.453911
876.302170	0.454072
876.486685	0.453599
876.671182	0.453310
876.855661	0.453725
877.040121	0.453873
877.224563	0.454018
877.408987	0.454129
877.593393	0.454106
877.777780	0.454660
877.962150	0.455282
878.146501	0.455592
878.330833	0.455696
878.515148	0.455669
878.699444	0.456223
878.883722	0.457104
879.067982	0.457458
879.252224	0.458095
879.436447	0.457786
879.620653	0.457761
879.804840	0.457978
879.989008	0.458885
880.173159	0.459183
880.357291	0.458548
880.541405	0.458815
880.725501	0.458992
880.909579	0.458953
881.093638	0.459455
881.277680	0.459500
881.461703	0.460247
881.645707	0.460035
881.829694	0.460179
882.013662	0.460581
882.197612	0.460542
882.381544	0.460109
882.565458	0.459873
882.749353	0.460006
882.933230	0.460489
883.117089	0.460244
883.300930	0.460755
883.484753	0.460755
883.668557	0.461155
883.852343	0.460821
884.036111	0.461145
884.219861	0.461254
884.403592	0.461109
884.587305	0.460966
884.771000	0.461036
884.954677	0.461275
885.138335	0.461666
885.321976	0.461445
885.505598	0.461037
885.689201	0.461019
885.872787	0.461917
886.056354	0.462076
886.239904	0.461720
886.423434	0.461467
886.606947	0.461041
886.790442	0.460934
886.973918	0.460719
887.157376	0.461434
887.340816	0.461423
887.524237	0.460783
887.707641	0.460890
887.891026	0.460590
888.074393	0.460835
888.257741	0.460628
888.441072	0.460592
888.624384	0.461192
888.807678	0.460744
888.990954	0.460397
889.174211	0.460429
889.357451	0.460810
889.540672	0.461182
889.723875	0.460623
889.907059	0.461157
890.090226	0.461510
890.273374	0.461619
890.456504	0.461854
890.639616	0.462444
890.822709	0.462444
891.005785	0.461816
891.188842	0.462256
891.371881	0.462765
891.554901	0.461981
891.737904	0.461665
891.920888	0.460851
892.103854	0.460695
892.286802	0.460564
892.469731	0.460136
892.652643	0.460548
892.835536	0.460458
893.018410	0.460275
893.201267	0.460349
893.384106	0.459876
893.566926	0.460766
893.749728	0.460462
893.932511	0.460933
894.115277	0.461290
894.298024	0.460798
894.480753	0.460484
894.663464	0.460585
894.846157	0.459974
895.028831	0.460193
895.211487	0.459701
895.394125	0.459923
895.576745	0.459524
895.759346	0.459594
895.941930	0.459974
896.124495	0.459698
896.307041	0.459037
896.489570	0.459717
896.672080	0.459567
896.854573	0.459082
897.037046	0.458868
897.219502	0.458634
897.401940	0.458269
897.584359	0.457227
897.766760	0.457033
897.949143	0.457307
898.131507	0.456873
898.313854	0.456481
898.496182	0.455897
898.678492	0.455103
898.860783	0.454830
899.043057	0.454861
899.225312	0.455118
899.407549	0.455062
899.589768	0.454285
899.771968	0.454329
899.954151	0.454147
900.136315	0.454501
900.318461	0.454380
900.500588	0.454016
900.682698	0.453731
900.864789	0.453639
901.046862	0.453259
901.228917	0.453016
901.410953	0.452321
901.592971	0.451708
901.774972	0.451457
901.956953	0.451320
902.138917	0.450695
902.320862	0.449709
902.502790	0.449449
902.684699	0.449170
902.866589	0.449367
903.048462	0.449427
903.230316	0.448965
903.412152	0.448067
903.593970	0.447945
903.775770	0.447944
903.957551	0.448239
904.139314	0.446871
904.321059	0.446520
904.502786	0.445856
904.684494	0.445380
904.866185	0.445450
905.047857	0.444939
905.229510	0.444114
905.411146	0.443273
905.592763	0.442574
905.774363	0.443017
905.955943	0.442636
906.137506	0.442080
906.319051	0.441472
906.500577	0.440646
906.682085	0.440860
906.863575	0.440626
907.045046	0.439903
907.226500	0.439119
907.407935	0.438240
907.589352	0.437307
907.770750	0.437308
907.952131	0.437636
908.133493	0.437183
908.314837	0.436390
908.496163	0.436305
908.677470	0.436553
908.858760	0.436292
909.040031	0.435717
909.221284	0.435555
909.402518	0.434624
909.583735	0.433702
909.764933	0.433459
909.946113	0.432880
910.127275	0.431838
910.308418	0.430888
910.489544	0.430459
910.670651	0.430472
910.851740	0.430659
911.032810	0.429902
911.213863	0.429630
911.394897	0.429051
911.575913	0.428621
911.756911	0.428777
911.937890	0.428532
912.118851	0.427604
912.299794	0.426862
912.480719	0.425746
912.661626	0.425591
912.842514	0.424010
913.023384	0.423657
913.204236	0.423899
913.385070	0.423057
913.565886	0.423028
913.746683	0.422648
913.927462	0.422655
914.108223	0.421821
914.288965	0.420952
914.469690	0.420919
914.650396	0.420381
914.831084	0.419155
915.011754	0.418325
915.192405	0.416931
915.373038	0.416130
915.553653	0.415105
915.734250	0.414542
915.914829	0.414465
916.095389	0.414043
916.275931	0.413229
916.456455	0.412393
916.636961	0.411692
916.817448	0.410985
916.997917	0.410771
917.178368	0.409556
917.358801	0.409000
917.539216	0.407889
917.719612	0.406628
917.899990	0.406322
918.080350	0.405917
918.260692	0.405696
918.441015	0.405543
918.621320	0.404695
918.801607	0.404283
918.981876	0.403421
919.162127	0.402918
919.342359	0.402085
919.522573	0.401459
919.702769	0.401080
919.882947	0.400204
920.063106	0.399485
920.243247	0.399043
920.423370	0.398621
920.603475	0.397910
920.783562	0.397126
920.963630	0.396511
921.143680	0.395727
921.323712	0.394739
921.503725	0.393927
921.683721	0.392862
921.863698	0.391933
922.043657	0.391075
922.223598	0.390373
922.403520	0.389353
922.583424	0.388163
922.763311	0.387206
922.943178	0.386444
923.123028	0.385543
923.302859	0.384707
923.482673	0.383324
923.662467	0.382138
923.842244	0.381644
924.022003	0.380753
924.201743	0.380257
924.381465	0.379529
924.561169	0.378616
924.740854	0.378397
924.920522	0.378020
925.100171	0.377750
925.279802	0.377158
925.459414	0.375861
925.639009	0.375302
925.818585	0.375074
925.998143	0.374042
926.177683	0.372557
926.357205	0.370458
926.536708	0.370461
926.716193	0.369542
926.895660	0.368432
927.075109	0.368148
927.254539	0.366694
927.433951	0.365990
927.613345	0.365815
927.792721	0.366359
927.972079	0.365999
928.151418	0.363849
928.330739	0.363306
928.510042	0.362842
928.689327	0.361299
928.868593	0.360984
929.047841	0.359995
929.227071	0.357313
929.406283	0.356121
929.585476	0.355236
929.764652	0.353699
929.943809	0.352712
930.122948	0.351785
930.302068	0.350997
930.481171	0.350570
930.660255	0.350529
930.839321	0.350162
931.018369	0.348934
931.197398	0.348162
931.376409	0.348331
931.555402	0.347362
931.734377	0.345567
931.913334	0.344371
932.092272	0.343406
932.271192	0.341231
932.450094	0.341154
932.628978	0.340080
932.807844	0.339017
932.986691	0.337892
933.165520	0.336389
933.344331	0.336071
933.523123	0.335114
933.701898	0.334237
933.880654	0.333010
934.059392	0.331365
934.238111	0.329494
934.416813	0.328356
934.595496	0.327191
934.774161	0.327297
934.952808	0.326097
935.131437	0.325594
935.310047	0.323393
935.488639	0.322499
935.667213	0.321311
935.845769	0.320405
936.024306	0.318929
936.202825	0.317929
936.381326	0.315800
936.559809	0.315096
936.738274	0.314337
936.916720	0.313912
937.095148	0.312900
937.273558	0.312266
937.451950	0.312545
937.630323	0.312216
937.808678	0.310269
937.987015	0.309648
938.165334	0.308351
938.343635	0.307554
938.521917	0.307302
938.700181	0.306678
938.878427	0.305478
939.056655	0.304057
939.234864	0.302796
939.413055	0.303174
939.591228	0.301155
939.769383	0.299652
939.947519	0.298711
940.125638	0.296573
940.303738	0.295213
940.481820	0.293662
940.659883	0.292486
940.837929	0.290576
941.015956	0.289072
941.193965	0.289453
941.371955	0.287746
941.549928	0.285603
941.727882	0.282705
941.905818	0.281457
942.083736	0.281085
942.261636	0.278998
942.439517	0.278250
942.617380	0.276292
942.795225	0.275968
942.973052	0.275540
943.150860	0.275571
943.328651	0.276475
943.506423	0.275522
943.684176	0.273956
943.861912	0.272979
944.039629	0.271801
944.217328	0.271223
944.395009	0.266979
944.572672	0.265597
944.750317	0.261879
944.927943	0.260572
945.105551	0.259920
945.283141	0.258709
945.460712	0.258168
945.638265	0.257328
945.815801	0.254638
945.993317	0.254913
946.170816	0.254541
946.348297	0.256145
946.525759	0.254423
946.703203	0.251388
946.880629	0.249409
947.058036	0.248457
947.235425	0.247369
947.412797	0.247854
947.590149	0.246848
947.767484	0.244263
947.944800	0.241267
948.122099	0.240483
948.299379	0.238945
948.476640	0.238690
948.653884	0.236442
948.831109	0.234992
949.008316	0.234894
949.185505	0.232516
949.362676	0.231407
949.539828	0.230755
949.716962	0.227178
949.894078	0.226010
950.071176	0.224348
950.248256	0.223400
950.425317	0.222597
950.602360	0.220931
950.779385	0.220151
950.956391	0.218385
951.133380	0.216752
951.310350	0.217494
951.487302	0.216408
951.664235	0.216183
951.841151	0.215244
952.018048	0.214131
952.194927	0.211988
952.371788	0.210273
952.548631	0.212092
952.725455	0.210930
952.902261	0.209508
953.079049	0.208989
953.255819	0.208118
953.432570	0.205596
953.609303	0.204960
953.786018	0.203963
953.962715	0.202863
954.139394	0.199407
954.316054	0.196891
954.492696	0.196322
954.669320	0.195569
954.845926	0.192321
955.022513	0.193198
955.199083	0.191049
955.375634	0.188524
955.552166	0.187736
955.728681	0.187534
955.905177	0.189184
956.081655	0.187288
956.258115	0.187370
956.434557	0.187805
956.610980	0.185274
956.787385	0.184462
956.963772	0.183612
957.140141	0.181868
957.316492	0.181363
957.492824	0.178540
957.669138	0.178265
957.845434	0.178454
958.021712	0.177008
958.197971	0.175097
958.374212	0.172844
958.550435	0.173481
958.726640	0.175154
958.902826	0.175212
959.078995	0.173437
959.255145	0.172661
959.431277	0.167333
959.607390	0.167217
959.783486	0.167390
959.959563	0.166468
960.135622	0.163542
960.311662	0.162080
960.487685	0.158677
960.663689	0.158104
960.839675	0.159094
961.015643	0.160518
961.191593	0.158363
961.367524	0.157938
961.543437	0.159258
961.719332	0.160707
961.895209	0.158837
962.071067	0.158533
962.246907	0.157415
962.422730	0.156989
962.598533	0.156906
962.774319	0.159112
962.950086	0.158030
963.125835	0.155482
963.301566	0.155029
963.477279	0.157267
963.652973	0.158087
963.828650	0.159572
964.004308	0.157346
964.179947	0.157792
964.355569	0.156924
964.531172	0.157506
964.706757	0.154856
964.882324	0.154960
965.057873	0.152650
965.233403	0.152223
965.408916	0.150947
965.584410	0.152181
965.759885	0.151617
965.935343	0.148857
966.110782	0.146334
966.286203	0.149492
966.461606	0.145185
966.636991	0.144935
966.812357	0.143279
966.987705	0.141984
967.163035	0.141100
967.338347	0.138565
967.513641	0.139567
967.688916	0.139227
967.864173	0.138430
968.039412	0.141148
968.214632	0.139969
968.389835	0.141165
968.565019	0.142622
968.740185	0.142977
968.915333	0.145012
969.090462	0.146580
969.265573	0.145515
969.440667	0.145956
969.615741	0.145408
969.790798	0.145200
969.965836	0.145227
970.140856	0.144424
970.315858	0.143315
970.490842	0.141854
970.665808	0.142329
970.840755	0.143947
971.015684	0.144636
971.190595	0.147230
971.365487	0.146946
971.540362	0.147097
971.715218	0.146680
971.890056	0.147484
972.064875	0.148175
972.239677	0.145198
972.414460	0.146310
972.589225	0.145403
972.763972	0.141379
972.938700	0.143528
973.113411	0.144472
973.288103	0.144822
973.462777	0.145333
973.637432	0.144862
973.812070	0.144336
973.986689	0.143439
974.161290	0.144518
974.335873	0.145108
974.510437	0.141863
974.684984	0.141586
974.859512	0.142370
975.034022	0.139846
975.208513	0.139403
975.382987	0.140766
975.557442	0.141463
975.731879	0.139474
975.906298	0.141452
976.080698	0.143685
976.255080	0.140789
976.429445	0.140741
976.603790	0.141187
976.778118	0.139461
976.952427	0.137970
977.126719	0.137416
977.300992	0.137134
977.475246	0.135473
977.649483	0.134443
977.823701	0.137041
977.997901	0.135082
978.172083	0.133674
978.346247	0.136250
978.520392	0.136931
978.694519	0.135749
978.868628	0.136208
979.042719	0.136088
979.216791	0.136439
979.390845	0.135491
979.564882	0.135707
979.738899	0.138674
979.912899	0.140422
980.086880	0.141088
980.260843	0.141551
980.434788	0.141698
980.608715	0.141931
980.782623	0.143335
980.956514	0.144200
981.130386	0.146615
981.304240	0.145312
981.478075	0.143404
981.651892	0.143672
981.825692	0.146250
981.999472	0.144214
982.173235	0.147256
982.346980	0.145900
982.520706	0.146044
982.694414	0.145335
982.868104	0.145340
983.041775	0.146952
983.215428	0.147418
983.389064	0.147613
983.562680	0.150031
983.736279	0.147464
983.909860	0.151093
984.083422	0.148070
984.256966	0.148148
984.430491	0.146843
984.603999	0.145939
984.777488	0.145240
984.950959	0.142512
985.124412	0.141398
985.297847	0.142215
985.471263	0.139552
985.644661	0.142290
985.818041	0.140524
985.991403	0.139564
986.164747	0.138499
986.338072	0.137665
986.511379	0.139231
986.684668	0.139307
986.857938	0.136811
987.031191	0.136284
987.204425	0.137183
987.377641	0.139610
987.550839	0.140890
987.724018	0.142492
987.897179	0.144161
988.070322	0.143273
988.243447	0.144758
988.416554	0.145973
988.589642	0.146787
988.762712	0.144818
988.935764	0.144865
989.108798	0.146085
989.281813	0.145650
989.454811	0.145262
989.627790	0.145896
989.800751	0.145895
989.973693	0.145481
990.146617	0.144146
990.319524	0.145488
990.492412	0.145500
990.665281	0.144912
990.838133	0.143352
991.010966	0.142210
991.183781	0.142044
991.356578	0.143092
991.529356	0.143293
991.702117	0.145106
991.874859	0.142026
992.047583	0.141328
992.220288	0.141355
992.392976	0.141151
992.565645	0.140489
992.738296	0.138709
992.910929	0.136742
993.083543	0.136979
993.256139	0.135780
993.428718	0.138538
993.601277	0.137567
993.773819	0.135480
993.946342	0.135074
994.118848	0.137008
994.291335	0.140705
994.463803	0.141534
994.636254	0.142618
994.808686	0.143633
994.981100	0.143407
995.153496	0.144945
995.325874	0.147940
995.498233	0.148587
995.670574	0.146959
995.842897	0.146776
996.015202	0.147675
996.187488	0.146300
996.359757	0.145988
996.532007	0.145801
996.704239	0.145640
996.876452	0.144527
997.048648	0.145178
997.220825	0.144749
997.392984	0.141526
997.565124	0.139260
997.737247	0.139703
997.909351	0.138306
998.081437	0.139056
998.253505	0.137563
998.425554	0.138527
998.597586	0.136737
998.769599	0.137386
998.941594	0.138866
999.113571	0.140692
999.285529	0.140129
999.457469	0.140142
999.629391	0.138091
999.801295	0.140497
999.973181	0.141893
1000.145048	0.143179
1000.316897	0.143504
1000.488728	0.141928
1000.660541	0.141255
1000.832335	0.142257
1001.004111	0.143785
1001.175869	0.143927
1001.347609	0.143497
1001.519331	0.141950
1001.691034	0.142027
1001.862719	0.143776
1002.034386	0.144721
1002.206035	0.146518
1002.377665	0.146870
1002.549277	0.145514
1002.720871	0.147283
1002.892447	0.146384
1003.064004	0.145772
1003.235544	0.145928
1003.407065	0.144824
1003.578568	0.147000
1003.750052	0.145575
1003.921519	0.145444
1004.092967	0.147099
1004.264397	0.146792
1004.435809	0.146727
1004.607202	0.147401
1004.778577	0.147948
1004.949934	0.147181
1005.121273	0.145814
1005.292594	0.145329
1005.463896	0.144488
1005.635180	0.142871
1005.806446	0.142210
1005.977694	0.143152
1006.148923	0.144312
1006.320135	0.144188
1006.491328	0.144270
1006.662503	0.142614
1006.833659	0.143072
1007.004798	0.142216
1007.175918	0.143337
1007.347020	0.143401
1007.518103	0.140958
1007.689169	0.138785
1007.860216	0.140246
1008.031245	0.141791
1008.202256	0.142745
1008.373248	0.142409
1008.544223	0.144630
1008.715179	0.145105
1008.886117	0.144092
1009.057036	0.145142
1009.227938	0.145594
1009.398821	0.145236
1009.569686	0.144411
1009.740533	0.147061
1009.911361	0.146753
1010.082172	0.144400
1010.252964	0.143354
1010.423738	0.145567
1010.594493	0.145987
1010.765231	0.146612
1010.935950	0.146657
1011.106651	0.145595
1011.277334	0.143164
1011.447998	0.142615
1011.618645	0.144683
1011.789273	0.145154
1011.959882	0.143114
1012.130474	0.142957
1012.301048	0.143495
1012.471603	0.142644
1012.642140	0.141780
1012.812658	0.141413
1012.983159	0.142738
1013.153641	0.141726
1013.324105	0.140292
1013.494551	0.141468
1013.664979	0.143080
1013.835388	0.143003
1014.005779	0.142639
1014.176152	0.141858
1014.346507	0.141220
1014.516843	0.142274
1014.687162	0.142445
1014.857462	0.143160
1015.027744	0.143602
1015.198007	0.142413
1015.368252	0.141604
1015.538480	0.140511
1015.708689	0.143921
1015.878879	0.145876
1016.049052	0.145461
1016.219206	0.143110
1016.389342	0.144056
1016.559460	0.143277
1016.729559	0.144796
1016.899641	0.144134
1017.069704	0.144944
1017.239749	0.143582
1017.409775	0.143305
1017.579784	0.142282
1017.749774	0.146526
1017.919746	0.146552
1018.089700	0.146888
1018.259635	0.144854
1018.429553	0.147190
1018.599452	0.146136
1018.769333	0.148173
1018.939195	0.146639
1019.109040	0.144763
1019.278866	0.143102
1019.448674	0.141076
1019.618464	0.141833
1019.788235	0.143328
1019.957989	0.142254
1020.127724	0.142320
1020.297441	0.141026
1020.467139	0.142967
1020.636820	0.145446
1020.806482	0.145147
1020.976126	0.146580
1021.145752	0.146251
1021.315359	0.145685
1021.484948	0.145624
1021.654519	0.146791
1021.824072	0.144411
1021.993607	0.144357
1022.163123	0.144498
1022.332621	0.144030
1022.502101	0.143666
1022.671563	0.143775
1022.841007	0.143295
1023.010432	0.143740
1023.179839	0.144371
1023.349228	0.147025
1023.518598	0.146916
1023.687951	0.146338
1023.857285	0.146334
1024.026601	0.145920
1024.195899	0.144843
1024.365178	0.145479
1024.534439	0.144163
1024.703682	0.143092
1024.872907	0.142851
1025.042114	0.141909
1025.211302	0.140136
1025.380472	0.140245
1025.549624	0.141462
1025.718758	0.141238
1025.887873	0.139204
1026.056970	0.140034
1026.226049	0.139986
1026.395110	0.139499
1026.564153	0.139252
1026.733177	0.141785
1026.902183	0.142053
1027.071171	0.140933
1027.240141	0.142950
1027.409092	0.142370
1027.578026	0.143391
1027.746940	0.145198
1027.915837	0.144853
1028.084716	0.145782
1028.253576	0.143628
1028.422418	0.142861
1028.591242	0.142014
1028.760048	0.140738
1028.928835	0.143431
1029.097604	0.142407
1029.266355	0.142428
1029.435088	0.141718
1029.603803	0.141622
1029.772499	0.142066
1029.941177	0.141621
1030.109837	0.143183
1030.278478	0.142362
1030.447102	0.140662
1030.615707	0.141765
1030.784294	0.139287
1030.952863	0.139896
1031.121413	0.139423
1031.289945	0.140417
1031.458460	0.142009
1031.626955	0.142024
1031.795433	0.141825
1031.963892	0.143106
1032.132334	0.141059
1032.300756	0.141870
1032.469161	0.142831
1032.637548	0.142859
1032.805916	0.142389
1032.974266	0.141854
1033.142598	0.140350
1033.310911	0.140623
1033.479207	0.139765
1033.647484	0.139229
1033.815743	0.136758
1033.983983	0.134399
1034.152206	0.133726
1034.320410	0.132562
1034.488596	0.133648
1034.656764	0.135070
1034.824914	0.133168
1034.993045	0.132916
1035.161158	0.135504
1035.329253	0.137744
1035.497330	0.139979
1035.665388	0.141167
1035.833428	0.143901
1036.001450	0.142480
1036.169454	0.142076
1036.337440	0.142312
1036.505407	0.141912
1036.673356	0.140194
1036.841287	0.139352
1037.009200	0.136508
1037.177094	0.136031
1037.344970	0.136068
1037.512828	0.136169
1037.680668	0.136999
1037.848489	0.141513
1038.016293	0.141883
1038.184078	0.140601
1038.351845	0.141686
1038.519593	0.145519
1038.687324	0.146186
1038.855036	0.144266
1039.022730	0.143846
1039.190406	0.143583
1039.358063	0.140139
1039.525702	0.140789
1039.693323	0.142337
1039.860926	0.142650
1040.028511	0.141266
1040.196077	0.139884
1040.363625	0.139879
1040.531155	0.139902
1040.698667	0.138192
1040.866161	0.136737
1041.033636	0.135777
1041.201093	0.135459
1041.368532	0.133735
1041.535952	0.131832
1041.703355	0.133515
1041.870739	0.135894
1042.038105	0.137258
1042.205452	0.139259
1042.372782	0.141842
1042.540093	0.143425
1042.707386	0.143976
1042.874661	0.146654
1043.041918	0.148498
1043.209156	0.148361
1043.376376	0.145747
1043.543578	0.144327
1043.710762	0.142217
1043.877927	0.141498
1044.045074	0.140070
1044.212203	0.139206
1044.379314	0.137224
1044.546407	0.136953
1044.713481	0.136321
1044.880537	0.136994
1045.047575	0.137685
1045.214595	0.140269
1045.381596	0.139893
1045.548579	0.138397
1045.715544	0.138964
1045.882491	0.140126
1046.049420	0.141222
1046.216330	0.141239
1046.383222	0.139824
1046.550096	0.140098
1046.716951	0.139198
1046.883789	0.140614
1047.050608	0.142989
1047.217409	0.142588
1047.384192	0.142518
1047.550956	0.141095
1047.717703	0.139820
1047.884431	0.142359
1048.051140	0.141555
1048.217832	0.142366
1048.384505	0.140752
1048.551161	0.140328
1048.717798	0.140772
1048.884416	0.139176
1049.051017	0.138920
1049.217599	0.140487
1049.384163	0.140278
1049.550709	0.142771
1049.717237	0.141959
1049.883746	0.142366
1050.050237	0.140912
1050.216710	0.139719
1050.383165	0.141042
1050.549601	0.141726
1050.716019	0.141195
1050.882420	0.141554
1051.048801	0.139845
1051.215165	0.139970
1051.381510	0.140951
1051.547837	0.143233
1051.714146	0.144985
1051.880437	0.145429
1052.046709	0.147642
1052.212964	0.148333
1052.379200	0.147935
1052.545417	0.147089
1052.711617	0.147200
1052.877798	0.145858
1053.043961	0.144624
1053.210106	0.145431
1053.376233	0.143695
1053.542341	0.141668
1053.708432	0.140581
1053.874504	0.137076
1054.040557	0.137553
1054.206593	0.135960
1054.372610	0.137004
1054.538609	0.138492
1054.704590	0.136528
1054.870553	0.137479
1055.036497	0.135794
1055.202424	0.136495
1055.368331	0.139064
1055.534221	0.140136
1055.700093	0.140843
1055.865946	0.141842
1056.031781	0.139497
1056.197598	0.141520
1056.363397	0.142354
1056.529177	0.144605
1056.694939	0.145362
1056.860683	0.146339
1057.026409	0.144452
1057.192116	0.145487
1057.357806	0.144104
1057.523477	0.145180
1057.689130	0.147035
1057.854764	0.147704
1058.020381	0.145763
1058.185979	0.146028
1058.351559	0.145135
1058.517120	0.146675
1058.682664	0.146851
1058.848189	0.149497
1059.013696	0.149185
1059.179185	0.146008
1059.344656	0.144309
1059.510108	0.146183
1059.675542	0.144630
1059.840958	0.144985
1060.006356	0.144625
1060.171735	0.144684
1060.337096	0.143141
1060.502439	0.146820
1060.667764	0.144895
1060.833071	0.147228
1060.998359	0.149502
1061.163629	0.150954
1061.328881	0.151260
1061.494115	0.152291
1061.659330	0.151385
1061.824527	0.151279
1061.989706	0.146991
1062.154867	0.149177
1062.320010	0.147245
1062.485134	0.144967
1062.650240	0.144881
1062.815328	0.146384
1062.980398	0.147044
1063.145449	0.148678
1063.310482	0.148674
1063.475497	0.149144
1063.640494	0.150570
1063.805473	0.151498
1063.970433	0.151004
1064.135375	0.150205
1064.300299	0.150115
1064.465204	0.148367
1064.630092	0.148907
1064.794961	0.148927
1064.959812	0.151210
1065.124645	0.149875
1065.289459	0.150866
1065.454256	0.150076
1065.619034	0.150809
1065.783793	0.147913
1065.948535	0.147567
1066.113258	0.145631
1066.277964	0.147483
1066.442651	0.148205
1066.607319	0.148062
1066.771970	0.147100
1066.936602	0.150089
1067.101216	0.151864
1067.265812	0.155830
1067.430389	0.156133
1067.594949	0.157267
1067.759490	0.157293
1067.924013	0.158102
1068.088518	0.158351
1068.253004	0.159355
1068.417472	0.160271
1068.581922	0.157557
1068.746354	0.156785
1068.910768	0.156171
1069.075163	0.155192
1069.239540	0.152467
1069.403899	0.149815
1069.568240	0.150575
1069.732562	0.149246
1069.896866	0.146883
1070.061152	0.145516
1070.225420	0.145374
1070.389670	0.149337
1070.553901	0.148321
1070.718114	0.149877
1070.882309	0.149153
1071.046486	0.148577
1071.210644	0.149054
1071.374784	0.149015
1071.538906	0.150316
1071.703010	0.150535
1071.867096	0.149763
1072.031163	0.152272
1072.195212	0.151142
1072.359243	0.152900
1072.523256	0.154394
1072.687250	0.154457
1072.851226	0.153790
1073.015184	0.151761
1073.179124	0.149914
1073.343045	0.148636
1073.506949	0.147222
1073.670834	0.147642
1073.834701	0.148677
1073.998549	0.148376
1074.162380	0.148673
1074.326192	0.151256
1074.489986	0.154070
1074.653761	0.152077
1074.817519	0.151182
1074.981258	0.150219
1075.144979	0.150229
1075.308682	0.151798
1075.472367	0.150035
1075.636033	0.151457
1075.799681	0.152107
1075.963311	0.153474
1076.126923	0.156465
1076.290516	0.157243
1076.454092	0.158514
1076.617649	0.158337
1076.781187	0.155930
1076.944708	0.158857
1077.108210	0.156834
1077.271695	0.156079
1077.435160	0.155500
1077.598608	0.155362
1077.762038	0.154660
1077.925449	0.155420
1078.088842	0.156830
1078.252217	0.155478
1078.415573	0.155319
1078.578912	0.156629
1078.742232	0.154215
1078.905534	0.151853
1079.068817	0.155090
1079.232083	0.156291
1079.395330	0.154547
1079.558559	0.154309
1079.721770	0.155326
1079.884962	0.155107
1080.048136	0.154526
1080.211293	0.154437
1080.374430	0.157359
1080.537550	0.157541
1080.700651	0.155024
1080.863735	0.155960
1081.026800	0.157105
1081.189846	0.157038
1081.352875	0.156102
1081.515885	0.155107
1081.678877	0.157406
1081.841851	0.157759
1082.004807	0.156846
1082.167744	0.159122
1082.330663	0.159726
1082.493564	0.159490
1082.656447	0.160534
1082.819312	0.158703
1082.982158	0.158557
1083.144986	0.157760
1083.307796	0.155245
1083.470587	0.154343
1083.633361	0.154461
1083.796116	0.154435
1083.958853	0.154117
1084.121571	0.153686
1084.284272	0.154207
1084.446954	0.157641
1084.609618	0.158246
1084.772264	0.158256
1084.934892	0.155134
1085.097501	0.152658
1085.260092	0.155756
1085.422665	0.156333
1085.585220	0.156843
1085.747756	0.158669
1085.910274	0.157004
1086.072774	0.156476
1086.235256	0.158054
1086.397720	0.162245
1086.560165	0.164573
1086.722592	0.161649
1086.885001	0.162553
1087.047392	0.158953
1087.209764	0.158021
1087.372119	0.160581
1087.534455	0.163556
1087.696772	0.163356
1087.859072	0.162504
1088.021353	0.163079
1088.183616	0.165126
1088.345861	0.164587
1088.508088	0.167646
1088.670296	0.168583
1088.832486	0.163014
1088.994658	0.161319
1089.156812	0.161555
1089.318948	0.158610
1089.481065	0.160779
1089.643164	0.161278
1089.805245	0.162803
1089.967308	0.166506
1090.129352	0.168964
1090.291378	0.173035
1090.453386	0.172236
1090.615376	0.175556
1090.777347	0.177138
1090.939301	0.179236
1091.101236	0.175409
1091.263153	0.171215
1091.425051	0.166858
1091.586932	0.165341
1091.748794	0.166675
1091.910638	0.168644
1092.072463	0.164781
1092.234271	0.164270
1092.396060	0.162437
1092.557831	0.164268
1092.719584	0.167380
1092.881319	0.168595
1093.043035	0.167211
1093.204733	0.166189
1093.366413	0.165210
1093.528075	0.166478
1093.689718	0.171800
1093.851343	0.172813
1094.012950	0.177968
1094.174539	0.176956
1094.336110	0.178327
1094.497662	0.179583
1094.659196	0.180942
1094.820712	0.184271
1094.982210	0.183524
1095.143689	0.177843
1095.305151	0.171732
1095.466594	0.167669
1095.628018	0.168984
1095.789425	0.169412
1095.950813	0.168202
1096.112183	0.165294
1096.273535	0.163438
1096.434869	0.164159
1096.596184	0.162729
1096.757482	0.164199
1096.918761	0.164631
1097.080021	0.166288
1097.241264	0.166769
1097.402488	0.167324
1097.563694	0.167167
1097.724882	0.167592
1097.886052	0.171589
1098.047203	0.177850
1098.208336	0.178783
1098.369451	0.180397
1098.530548	0.176386
1098.691627	0.174769
1098.852687	0.175910
1099.013729	0.180981
1099.174753	0.178880
1099.335758	0.173443
1099.496746	0.174380
1099.657715	0.176933
1099.818666	0.174744
1099.979599	0.177963
1100.140513	0.177412
1100.301409	0.177114
1100.462287	0.173597
1100.623147	0.173411
1100.783989	0.170660
1100.944812	0.165230
1101.105617	0.162285
1101.266404	0.162492
1101.427173	0.159812
1101.587923	0.161106
1101.748656	0.161062
1101.909370	0.161337
1102.070066	0.163407
1102.230743	0.172001
1102.391403	0.175241
1102.552044	0.179944
1102.712667	0.179864
1102.873271	0.186193
1103.033858	0.187293
1103.194426	0.187276
1103.354976	0.188027
1103.515508	0.189111
1103.676021	0.187945
1103.836517	0.191055
1103.996994	0.187551
1104.157453	0.189501
1104.317893	0.185195
1104.478316	0.182190
1104.638720	0.187806
1104.799106	0.187636
1104.959474	0.183739
1105.119823	0.181675
1105.280155	0.177887
1105.440468	0.181114
1105.600763	0.182038
1105.761039	0.177915
1105.921298	0.178192
1106.081538	0.175258
1106.241760	0.180154
1106.401964	0.185265
1106.562149	0.186999
1106.722316	0.186924
1106.882465	0.187339
1107.042596	0.186564
1107.202709	0.189287
1107.362803	0.193819
1107.522879	0.191005
1107.682937	0.189045
1107.842977	0.188765
1108.002999	0.188648
1108.163002	0.192859
1108.322987	0.191536
1108.482954	0.194125
1108.642902	0.194091
1108.802833	0.191500
1108.962745	0.194234
1109.122639	0.191937
1109.282515	0.187850
1109.442372	0.184505
1109.602211	0.182167
1109.762032	0.182383
1109.921835	0.177288
1110.081620	0.179116
1110.241386	0.182121
1110.401134	0.181802
1110.560864	0.181249
1110.720576	0.183523
1110.880269	0.187076
1111.039945	0.184868
1111.199602	0.181734
1111.359240	0.182622
1111.518861	0.185009
1111.678463	0.184168
1111.838047	0.183530
1111.997613	0.185942
1112.157161	0.187106
1112.316690	0.184198
1112.476202	0.190330
1112.635695	0.192090
1112.795169	0.193532
1112.954626	0.191733
1113.114064	0.191101
1113.273484	0.193075
1113.432886	0.193654
1113.592270	0.191785
1113.751635	0.195887
1113.910983	0.190152
1114.070312	0.189855
1114.229622	0.192108
1114.388915	0.193480
1114.548189	0.190900
1114.707445	0.188390
1114.866683	0.182009
1115.025903	0.183102
1115.185104	0.180172
1115.344287	0.181308
1115.503452	0.185642
1115.662599	0.189567
1115.821727	0.190656
1115.980838	0.189110
1116.139930	0.191310
1116.299004	0.194183
1116.458059	0.192704
1116.617097	0.189138
1116.776116	0.193434
1116.935117	0.189952
1117.094099	0.192979
1117.253064	0.189330
1117.412010	0.194583
1117.570938	0.194125
1117.729848	0.199009
1117.888740	0.201095
1118.047613	0.209453
1118.206468	0.204222
1118.365305	0.204794
1118.524124	0.195257
1118.682924	0.194445
1118.841707	0.191562
1119.000471	0.189435
1119.159216	0.184202
1119.317944	0.181226
1119.476653	0.176929
1119.635344	0.179028
1119.794017	0.180332
1119.952672	0.178651
1120.111308	0.180935
1120.269927	0.183371
1120.428527	0.185680
1120.587108	0.188582
1120.745672	0.188209
1120.904217	0.196495
1121.062744	0.199962
1121.221253	0.208114
1121.379744	0.211422
1121.538216	0.214346
1121.696671	0.218610
1121.855107	0.217894
1122.013524	0.216592
1122.171924	0.224046
1122.330305	0.212936
1122.488668	0.206184
1122.647013	0.197832
1122.805340	0.200585
1122.963648	0.199554
1123.121938	0.194418
1123.280210	0.191960
1123.438464	0.190905
1123.596700	0.183903
1123.754917	0.189558
1123.913116	0.186340
1124.071297	0.188049
1124.229459	0.179708
1124.387604	0.181998
1124.545730	0.183195
1124.703838	0.185806
1124.861928	0.187359
1125.019999	0.195735
1125.178052	0.191636
1125.336088	0.194522
1125.494104	0.195758
1125.652103	0.206870
1125.810083	0.206200
1125.968045	0.205434
1126.125989	0.208833
1126.283915	0.211051
1126.441823	0.210879
1126.599712	0.212669
1126.757583	0.219001
1126.915436	0.215478
1127.073270	0.217395
1127.231087	0.214378
1127.388885	0.217580
1127.546665	0.213653
1127.704426	0.212050
1127.862170	0.211415
1128.019895	0.216783
1128.177602	0.216956
1128.335291	0.216561
1128.492961	0.208805
1128.650614	0.207315
1128.808248	0.208359
1128.965864	0.209452
1129.123461	0.203949
1129.281041	0.200710
1129.438602	0.198179
1129.596145	0.195161
1129.753670	0.193942
1129.911176	0.199714
1130.068665	0.200009
1130.226135	0.200159
1130.383587	0.197476
1130.541020	0.206667
1130.698436	0.209190
1130.855833	0.212745
1131.013212	0.218476
1131.170573	0.222645
1131.327915	0.215448
1131.485239	0.221926
1131.642545	0.223966
1131.799833	0.226112
1131.957103	0.220452
1132.114354	0.215994
1132.271588	0.215116
1132.428803	0.207295
1132.585999	0.205129
1132.743178	0.209988
1132.900338	0.202396
1133.057480	0.197390
1133.214604	0.201069
1133.371710	0.211503
1133.528797	0.215220
1133.685866	0.216251
1133.842917	0.226200
1133.999950	0.232931
1134.156964	0.223642
1134.313960	0.231652
1134.470938	0.233368
1134.627898	0.230805
1134.784840	0.221690
1134.941763	0.223456
1135.098668	0.215912
1135.255555	0.207865
1135.412424	0.209224
1135.569274	0.207415
1135.726107	0.206898
1135.882921	0.204716
1136.039716	0.203275
1136.196494	0.201798
1136.353253	0.198711
1136.509995	0.200046
1136.666717	0.195339
1136.823422	0.194597
1136.980109	0.209377
1137.136777	0.204541
1137.293427	0.201885
1137.450059	0.205199
1137.606672	0.206473
1137.763267	0.202664
1137.919844	0.208950
1138.076403	0.209984
1138.232944	0.206158
1138.389466	0.203932
1138.545971	0.193273
1138.702457	0.198285
1138.858924	0.199208
1139.015374	0.195012
1139.171805	0.196837
1139.328218	0.194121
1139.484613	0.199521
1139.640990	0.203472
1139.797348	0.199170
1139.953688	0.210814
1140.110010	0.210225
1140.266314	0.210278
1140.422600	0.218570
1140.578867	0.222652
1140.735116	0.214329
1140.891347	0.215607
1141.047559	0.202076
1141.203754	0.203877
1141.359930	0.203749
1141.516088	0.206358
1141.672228	0.196395
1141.828349	0.187190
1141.984452	0.185227
1142.140537	0.182456
1142.296604	0.177389
1142.452653	0.177927
1142.608683	0.188649
1142.764695	0.196091
1142.920689	0.199299
1143.076665	0.211898
1143.232622	0.226058
1143.388562	0.226419
1143.544483	0.244245
1143.700385	0.251717
1143.856270	0.256881
1144.012136	0.254277
1144.167985	0.244783
1144.323814	0.235933
1144.479626	0.232089
1144.635420	0.230922
1144.791195	0.233138
1144.946952	0.223707
1145.102691	0.224548
1145.258411	0.227436
1145.414113	0.213204
1145.569798	0.209619
1145.725463	0.215159
1145.881111	0.211470
1146.036741	0.195388
1146.192352	0.201128
1146.347945	0.211108
1146.503519	0.202302
1146.659076	0.205410
1146.814614	0.214359
1146.970134	0.218184
1147.125636	0.212047
1147.281120	0.213205
1147.436585	0.231547
1147.592032	0.226208
1147.747461	0.220505
1147.902872	0.220710
1148.058265	0.224757
1148.213639	0.216891
1148.368995	0.215107
1148.524333	0.222482
1148.679653	0.219744
1148.834954	0.214222
1148.990237	0.208811
1149.145502	0.203869
1149.300749	0.205022
1149.455977	0.201693
1149.611188	0.197770
1149.766380	0.192592
1149.921553	0.190241
1150.076709	0.190320
1150.231846	0.197702
1150.386966	0.196340
1150.542066	0.201806
1150.697149	0.202448
1150.852214	0.200536
1151.007260	0.208826
1151.162288	0.224944
1151.317298	0.215819
1151.472289	0.220971
1151.627263	0.211633
1151.782218	0.215778
1151.937155	0.218750
1152.092073	0.219074
1152.246974	0.217006
1152.401856	0.206973
1152.556720	0.201045
1152.711566	0.210123
1152.866393	0.202073
1153.021203	0.201630
1153.175994	0.193037
1153.330767	0.194518
1153.485521	0.191292
1153.640258	0.192763
1153.794976	0.206763
1153.949676	0.196822
1154.104358	0.198741
1154.259021	0.204555
1154.413667	0.202950
1154.568294	0.213644
1154.722903	0.210430
1154.877493	0.217719
1155.032066	0.217531
1155.186620	0.213853
1155.341156	0.225674
1155.495674	0.232649
1155.650173	0.229311
1155.804654	0.239871
1155.959118	0.237865
1156.113562	0.241993
1156.267989	0.255622
1156.422397	0.260233
1156.576788	0.267153
1156.731160	0.269412
1156.885513	0.251653
1157.039849	0.254015
1157.194166	0.239215
1157.348465	0.240921
1157.502746	0.238151
1157.657009	0.222406
1157.811253	0.222164
1157.965479	0.210309
1158.119687	0.203774
1158.273877	0.209061
1158.428048	0.212122
1158.582201	0.224383
1158.736337	0.230901
1158.890453	0.229545
1159.044552	0.229418
1159.198632	0.225259
1159.352694	0.222358
1159.506738	0.227143
1159.660764	0.215900
1159.814771	0.210058
1159.968761	0.213275
1160.122732	0.210708
1160.276685	0.202121
1160.430619	0.219017
1160.584535	0.212346
1160.738434	0.213004
1160.892313	0.204979
1161.046175	0.229342
1161.200019	0.228006
1161.353844	0.223186
1161.507651	0.216141
1161.661440	0.211951
1161.815210	0.207401
1161.968962	0.226911
1162.122697	0.232282
1162.276412	0.240765
1162.430110	0.231460
1162.583789	0.246508
1162.737451	0.245501
1162.891094	0.241975
1163.044718	0.261345
1163.198325	0.248708
1163.351913	0.228752
1163.505483	0.226770
1163.659035	0.226429
1163.812569	0.222038
1163.966084	0.218690
1164.119581	0.206510
1164.273060	0.212399
1164.426521	0.221283
1164.579964	0.225477
1164.733388	0.231560
1164.886794	0.223082
1165.040182	0.213453
1165.193551	0.215584
1165.346903	0.218163
1165.500236	0.241685
1165.653551	0.244627
1165.806848	0.227381
1165.960126	0.222247
1166.113386	0.219559
1166.266628	0.242219
1166.419852	0.244954
1166.573058	0.232358
1166.726245	0.235486
1166.879414	0.229265
1167.032565	0.222268
1167.185698	0.232192
1167.338812	0.233850
1167.491909	0.240582
1167.644987	0.237367
1167.798046	0.243141
1167.951088	0.232909
1168.104111	0.219481
1168.257117	0.202086
1168.410103	0.221777
1168.563072	0.219879
1168.716023	0.228801
1168.868955	0.219686
1169.021869	0.207744
1169.174765	0.198298
1169.327642	0.223285
1169.480501	0.225972
1169.633343	0.222948
1169.786165	0.200410
1169.938970	0.211762
1170.091757	0.219831
1170.244525	0.232696
1170.397275	0.242077
1170.550007	0.257721
1170.702720	0.252184
1170.855415	0.251818
1171.008092	0.266608
1171.160751	0.273922
1171.313392	0.250999
1171.466014	0.186007
1171.618619	0.226489
1171.771205	0.226489
1171.923772	0.226489
