sample name	sample
index	960
start time	 04-12-2021  04:09:01 PM


Wavelength (nm)	Absorbance
494.344910	0.470973
494.563924	0.470973
494.782919	0.470973
495.001897	-0.129037
495.220856	0.091682
495.439797	0.025822
495.658719	0.032667
495.877624	-0.015857
496.096510	0.024373
496.315378	0.020490
496.534227	0.002980
496.753059	-0.012700
496.971872	-0.041706
497.190667	0.131374
497.409444	0.164816
497.628203	0.174702
497.846943	0.179727
498.065665	0.179397
498.284369	0.180603
498.503055	0.182176
498.721723	0.181239
498.940372	0.182039
499.159003	0.180478
499.377616	0.180164
499.596210	0.178302
499.814787	0.178051
500.033345	0.178249
500.251885	0.178185
500.470406	0.177701
500.688910	0.177749
500.907395	0.177069
501.125862	0.178973
501.344311	0.179672
501.562742	0.180912
501.781154	0.181118
501.999548	0.181614
502.217924	0.180575
502.436282	0.181223
502.654621	0.182732
502.872942	0.183968
503.091245	0.184109
503.309530	0.183893
503.527797	0.182793
503.746045	0.182866
503.964275	0.184044
504.182487	0.185805
504.400681	0.185380
504.618856	0.185410
504.837013	0.185393
505.055152	0.185782
505.273273	0.186679
505.491376	0.187940
505.709460	0.187347
505.927526	0.186847
506.145574	0.186728
506.363604	0.187572
506.581615	0.188017
506.799608	0.188804
507.017583	0.188496
507.235540	0.188530
507.453478	0.188643
507.671399	0.189418
507.889301	0.189076
508.107185	0.189796
508.325050	0.189722
508.542898	0.189869
508.760727	0.190195
508.978538	0.190116
509.196330	0.190881
509.414105	0.190598
509.631861	0.191848
509.849599	0.191668
510.067319	0.190945
510.285021	0.192459
510.502704	0.192653
510.720369	0.191947
510.938016	0.192654
511.155645	0.192139
511.373255	0.193306
511.590848	0.192977
511.808422	0.193272
512.025977	0.194934
512.243515	0.194400
512.461034	0.194452
512.678536	0.195297
512.896018	0.195599
513.113483	0.196426
513.330930	0.195809
513.548358	0.196402
513.765768	0.197127
513.983160	0.196533
514.200533	0.196408
514.417889	0.196182
514.635226	0.196181
514.852545	0.196030
515.069845	0.195868
515.287128	0.196756
515.504392	0.196101
515.721638	0.196773
515.938866	0.197160
516.156075	0.198588
516.373267	0.199263
516.590440	0.199302
516.807594	0.200030
517.024731	0.200332
517.241850	0.200480
517.458950	0.201117
517.676032	0.200608
517.893095	0.200818
518.110141	0.200954
518.327168	0.200891
518.544177	0.201172
518.761168	0.201073
518.978141	0.201633
519.195095	0.202179
519.412031	0.202154
519.628949	0.202582
519.845849	0.203121
520.062731	0.202731
520.279594	0.204067
520.496439	0.203704
520.713266	0.204743
520.930074	0.204376
521.146865	0.204357
521.363637	0.204680
521.580391	0.205951
521.797127	0.205839
522.013844	0.205616
522.230543	0.205689
522.447224	0.206764
522.663887	0.206141
522.880532	0.207014
523.097158	0.206694
523.313766	0.208112
523.530356	0.208209
523.746928	0.208594
523.963481	0.210297
524.180017	0.210142
524.396534	0.210503
524.613032	0.211116
524.829513	0.211273
525.045975	0.211807
525.262420	0.212070
525.478845	0.212780
525.695253	0.213853
525.911643	0.213007
526.128014	0.213595
526.344367	0.213874
526.560702	0.214725
526.777018	0.214808
526.993316	0.215967
527.209597	0.215168
527.425858	0.215030
527.642102	0.215327
527.858328	0.216706
528.074535	0.217072
528.290724	0.217776
528.506894	0.217809
528.723047	0.218736
528.939181	0.219126
529.155297	0.219955
529.371395	0.220275
529.587475	0.220361
529.803536	0.219816
530.019579	0.219811
530.235604	0.220236
530.451611	0.220228
530.667600	0.221002
530.883570	0.221437
531.099522	0.222073
531.315456	0.222299
531.531372	0.222277
531.747269	0.223588
531.963148	0.224044
532.179009	0.224492
532.394852	0.225754
532.610676	0.225166
532.826482	0.225419
533.042271	0.225711
533.258040	0.226374
533.473792	0.227003
533.689525	0.227789
533.905240	0.228320
534.120937	0.228390
534.336616	0.228308
534.552277	0.228604
534.767919	0.228988
534.983543	0.229706
535.199149	0.229619
535.414736	0.229814
535.630306	0.229426
535.845857	0.229986
536.061390	0.230656
536.276904	0.230906
536.492401	0.231907
536.707879	0.232687
536.923339	0.232425
537.138781	0.232797
537.354204	0.233265
537.569610	0.233746
537.784997	0.233940
538.000366	0.234656
538.215716	0.235364
538.431049	0.235037
538.646363	0.235005
538.861659	0.236103
539.076937	0.236971
539.292196	0.237912
539.507438	0.237946
539.722661	0.238214
539.937866	0.238247
540.153052	0.238656
540.368221	0.239161
540.583371	0.239001
540.798503	0.238968
541.013617	0.238812
541.228712	0.239230
541.443789	0.239765
541.658848	0.240459
541.873889	0.240844
542.088912	0.241165
542.303916	0.241610
542.518902	0.242434
542.733870	0.243113
542.948820	0.244350
543.163752	0.244602
543.378665	0.245436
543.593560	0.245753
543.808437	0.245455
544.023295	0.245819
544.238136	0.246402
544.452958	0.246890
544.667762	0.246503
544.882548	0.245849
545.097315	0.245871
545.312064	0.245440
545.526795	0.245834
545.741508	0.246627
545.956203	0.247062
546.170879	0.247308
546.385537	0.246962
546.600177	0.247671
546.814799	0.248389
547.029402	0.248483
547.243988	0.248605
547.458555	0.249156
547.673103	0.249766
547.887634	0.249672
548.102146	0.249823
548.316640	0.250535
548.531116	0.250799
548.745574	0.251176
548.960013	0.251837
549.174435	0.252767
549.388838	0.252149
549.603222	0.252660
549.817589	0.253236
550.031937	0.253381
550.246267	0.253564
550.460579	0.253732
550.674873	0.253992
550.889148	0.254107
551.103405	0.253710
551.317644	0.254559
551.531865	0.254118
551.746068	0.253878
551.960252	0.254345
552.174418	0.254789
552.388566	0.255050
552.602696	0.255094
552.816807	0.254814
553.030900	0.255393
553.244975	0.255761
553.459032	0.255862
553.673070	0.256389
553.887091	0.256786
554.101093	0.256787
554.315077	0.257345
554.529042	0.257720
554.742990	0.258451
554.956919	0.258921
555.170830	0.259126
555.384722	0.259667
555.598597	0.259736
555.812453	0.259771
556.026291	0.259330
556.240111	0.259113
556.453913	0.259001
556.667696	0.259065
556.881461	0.259475
557.095208	0.259595
557.308937	0.259643
557.522647	0.260107
557.736339	0.260765
557.950013	0.261630
558.163669	0.261741
558.377307	0.262010
558.590926	0.262432
558.804527	0.261943
559.018110	0.261855
559.231675	0.262194
559.445221	0.262416
559.658749	0.262597
559.872259	0.262695
560.085751	0.263313
560.299225	0.263577
560.512680	0.263743
560.726117	0.263890
560.939536	0.264621
561.152937	0.264792
561.366319	0.265015
561.579683	0.264663
561.793029	0.264601
562.006357	0.264495
562.219667	0.264692
562.432958	0.264940
562.646231	0.265843
562.859486	0.266064
563.072723	0.266350
563.285941	0.266326
563.499141	0.266865
563.712323	0.267193
563.925487	0.267322
564.138632	0.267786
564.351760	0.267473
564.564869	0.267634
564.777960	0.267193
564.991032	0.267089
565.204087	0.266877
565.417123	0.266580
565.630141	0.267344
565.843140	0.267565
566.056122	0.267843
566.269085	0.268297
566.482030	0.268011
566.694957	0.268643
566.907866	0.268853
567.120756	0.269630
567.333628	0.269974
567.546482	0.269920
567.759318	0.269929
567.972135	0.269539
568.184935	0.269842
568.397716	0.270318
568.610478	0.270444
568.823223	0.270900
569.035949	0.270783
569.248657	0.270956
569.461347	0.271093
569.674019	0.271428
569.886672	0.271954
570.099308	0.272103
570.311925	0.272244
570.524523	0.271929
570.737104	0.271607
570.949666	0.272173
571.162210	0.272178
571.374736	0.272285
571.587244	0.272737
571.799733	0.272708
572.012205	0.272410
572.224658	0.272507
572.437092	0.273157
572.649509	0.273464
572.861907	0.273368
573.074287	0.273780
573.286649	0.273849
573.498993	0.274209
573.711318	0.274334
573.923625	0.274949
574.135914	0.274835
574.348185	0.274681
574.560438	0.275176
574.772672	0.275633
574.984888	0.275537
575.197086	0.275903
575.409266	0.275840
575.621427	0.276190
575.833570	0.276273
576.045695	0.276722
576.257802	0.276908
576.469890	0.276859
576.681961	0.276839
576.894013	0.277270
577.106046	0.277245
577.318062	0.277754
577.530059	0.277813
577.742039	0.277927
577.954000	0.277756
578.165942	0.278205
578.377867	0.279069
578.589773	0.278889
578.801661	0.279212
579.013531	0.279420
579.225382	0.279173
579.437216	0.279420
579.649031	0.279350
579.860828	0.279397
580.072606	0.279272
580.284367	0.278786
580.496109	0.279259
580.707833	0.279028
580.919539	0.279388
581.131227	0.279584
581.342896	0.279990
581.554547	0.279968
581.766180	0.280055
581.977795	0.279775
582.189391	0.280079
582.400969	0.280035
582.612529	0.280119
582.824071	0.279759
583.035595	0.279845
583.247100	0.279797
583.458587	0.280332
583.670056	0.280969
583.881506	0.281555
584.092939	0.281929
584.304353	0.282202
584.515749	0.282992
584.727127	0.283663
584.938486	0.283702
585.149828	0.284282
585.361151	0.284284
585.572456	0.284521
585.783742	0.285072
585.995011	0.285408
586.206261	0.285558
586.417493	0.285749
586.628706	0.286009
586.839902	0.286406
587.051079	0.286203
587.262238	0.287103
587.473379	0.287286
587.684502	0.287284
587.895606	0.287354
588.106692	0.287568
588.317760	0.287652
588.528810	0.287302
588.739841	0.287489
588.950855	0.287937
589.161850	0.287831
589.372827	0.288185
589.583785	0.288492
589.794726	0.288322
590.005648	0.288632
590.216552	0.288227
590.427437	0.288694
590.638305	0.288957
590.849154	0.288698
591.059985	0.288845
591.270798	0.288860
591.481592	0.288811
591.692369	0.289237
591.903127	0.289490
592.113867	0.290379
592.324588	0.290503
592.535292	0.290615
592.745977	0.291091
592.956644	0.291359
593.167293	0.291681
593.377923	0.292083
593.588536	0.291824
593.799130	0.291962
594.009706	0.291521
594.220263	0.291727
594.430803	0.291740
594.641324	0.291741
594.851827	0.292068
595.062312	0.291892
595.272778	0.291806
595.483227	0.292513
595.693657	0.292345
595.904069	0.292894
596.114462	0.293044
596.324838	0.293296
596.535195	0.293574
596.745534	0.293494
596.955855	0.293885
597.166157	0.294312
597.376441	0.294296
597.586707	0.294714
597.796955	0.294908
598.007185	0.295314
598.217396	0.295532
598.427589	0.295839
598.637764	0.296175
598.847921	0.296540
599.058060	0.296797
599.268180	0.296673
599.478282	0.296524
599.688366	0.297126
599.898431	0.297231
600.108479	0.297924
600.318508	0.297734
600.528519	0.297794
600.738511	0.297940
600.948486	0.297670
601.158442	0.298400
601.368380	0.298838
601.578300	0.298581
601.788202	0.298324
601.998085	0.297564
602.207950	0.298051
602.417797	0.297809
602.627626	0.297561
602.837436	0.297860
603.047228	0.297730
603.257002	0.297972
603.466758	0.298009
603.676496	0.298613
603.886215	0.299104
604.095916	0.299377
604.305599	0.299682
604.515264	0.299672
604.724910	0.300121
604.934538	0.299998
605.144148	0.300189
605.353740	0.300557
605.563314	0.300813
605.772869	0.300843
605.982406	0.300705
606.191925	0.301057
606.401425	0.301469
606.610908	0.301757
606.820372	0.302139
607.029818	0.302310
607.239246	0.302781
607.448655	0.302661
607.658047	0.303079
607.867420	0.303102
608.076775	0.303185
608.286111	0.303441
608.495430	0.303119
608.704730	0.303428
608.914012	0.303377
609.123275	0.303316
609.332521	0.303578
609.541748	0.303641
609.750957	0.303942
609.960148	0.304209
610.169321	0.304209
610.378475	0.304457
610.587611	0.304291
610.796729	0.304547
611.005829	0.304485
611.214910	0.304526
611.423974	0.304488
611.633019	0.304719
611.842045	0.304742
612.051054	0.305004
612.260044	0.305148
612.469017	0.305422
612.677970	0.305761
612.886906	0.306008
613.095824	0.306421
613.304723	0.306740
613.513604	0.306720
613.722467	0.306863
613.931311	0.307053
614.140138	0.307418
614.348946	0.307838
614.557736	0.307855
614.766507	0.307906
614.975261	0.307981
615.183996	0.308284
615.392713	0.308736
615.601412	0.309015
615.810092	0.309165
616.018754	0.309288
616.227399	0.309069
616.436024	0.309136
616.644632	0.309644
616.853222	0.309659
617.061793	0.309548
617.270346	0.309553
617.478880	0.309703
617.687397	0.309854
617.895895	0.309951
618.104375	0.310101
618.312837	0.310137
618.521281	0.310329
618.729706	0.310522
618.938113	0.310903
619.146502	0.311182
619.354873	0.311528
619.563226	0.311633
619.771560	0.311651
619.979876	0.312064
620.188174	0.312643
620.396453	0.312464
620.604715	0.312622
620.812958	0.312702
621.021183	0.312535
621.229390	0.312701
621.437578	0.312928
621.645748	0.313146
621.853900	0.313050
622.062034	0.313037
622.270150	0.313172
622.478247	0.313257
622.686326	0.313603
622.894387	0.313789
623.102430	0.313784
623.310454	0.313818
623.518461	0.313911
623.726449	0.314103
623.934418	0.314168
624.142370	0.314744
624.350303	0.315237
624.558218	0.315268
624.766115	0.315569
624.973994	0.315554
625.181855	0.315744
625.389697	0.316042
625.597521	0.316390
625.805327	0.316643
626.013114	0.316538
626.220883	0.316454
626.428634	0.316468
626.636367	0.316561
626.844082	0.316642
627.051778	0.317059
627.259457	0.317114
627.467117	0.317113
627.674758	0.317053
627.882382	0.317200
628.089987	0.317346
628.297574	0.317473
628.505143	0.317524
628.712694	0.317960
628.920226	0.317748
629.127740	0.318000
629.335236	0.318385
629.542714	0.318483
629.750174	0.318651
629.957615	0.318842
630.165038	0.319143
630.372443	0.319617
630.579829	0.319625
630.787198	0.320085
630.994548	0.319919
631.201880	0.320011
631.409194	0.320175
631.616489	0.320571
631.823766	0.320785
632.031025	0.321108
632.238266	0.320993
632.445489	0.321378
632.652693	0.321464
632.859879	0.321822
633.067047	0.321977
633.274197	0.322729
633.481329	0.322655
633.688442	0.322895
633.895537	0.323005
634.102614	0.323526
634.309672	0.323435
634.516713	0.323475
634.723735	0.323796
634.930739	0.324191
635.137724	0.323818
635.344692	0.323769
635.551641	0.324049
635.758572	0.323892
635.965485	0.324055
636.172379	0.324303
636.379256	0.324556
636.586114	0.324569
636.792954	0.324521
636.999775	0.325036
637.206579	0.325242
637.413364	0.325362
637.620131	0.325704
637.826880	0.325930
638.033610	0.326285
638.240323	0.326382
638.447017	0.326506
638.653692	0.326746
638.860350	0.326828
639.066990	0.326922
639.273611	0.326673
639.480214	0.326825
639.686798	0.326846
639.893365	0.327110
640.099913	0.327316
640.306443	0.327633
640.512955	0.327690
640.719449	0.327818
640.925924	0.328196
641.132381	0.328685
641.338820	0.328936
641.545241	0.328879
641.751644	0.328763
641.958028	0.329181
642.164394	0.329446
642.370742	0.329582
642.577071	0.329515
642.783383	0.329625
642.989676	0.329935
643.195951	0.330183
643.402207	0.330797
643.608446	0.331262
643.814666	0.331260
644.020868	0.331198
644.227052	0.331340
644.433218	0.331774
644.639365	0.332042
644.845494	0.332066
645.051605	0.331878
645.257698	0.331569
645.463772	0.331478
645.669828	0.331561
645.875866	0.331896
646.081886	0.332081
646.287888	0.332013
646.493871	0.331706
646.699836	0.332238
646.905783	0.332969
647.111712	0.333426
647.317622	0.333901
647.523514	0.334151
647.729388	0.334400
647.935244	0.334695
648.141082	0.335034
648.346901	0.335851
648.552702	0.335892
648.758485	0.336003
648.964250	0.336281
649.169996	0.336314
649.375724	0.336415
649.581434	0.336745
649.787126	0.336809
649.992800	0.337077
650.198455	0.337285
650.404092	0.337081
650.609711	0.337254
650.815311	0.337191
651.020894	0.337361
651.226458	0.338054
651.432004	0.338037
651.637532	0.338642
651.843041	0.338887
652.048532	0.338991
652.254006	0.339283
652.459460	0.339307
652.664897	0.339807
652.870315	0.340185
653.075716	0.339853
653.281097	0.340104
653.486461	0.340168
653.691807	0.340374
653.897134	0.340584
654.102443	0.340874
654.307734	0.341220
654.513006	0.341537
654.718261	0.341549
654.923497	0.342157
655.128715	0.342732
655.333915	0.343194
655.539096	0.343374
655.744259	0.343472
655.949404	0.343790
656.154531	0.344038
656.359640	0.344085
656.564730	0.344552
656.769802	0.344681
656.974856	0.344788
657.179892	0.344744
657.384909	0.345189
657.589908	0.345544
657.794889	0.345870
657.999852	0.346056
658.204797	0.346443
658.409723	0.346456
658.614631	0.346631
658.819521	0.346813
659.024393	0.346973
659.229246	0.347085
659.434081	0.347391
659.638898	0.347505
659.843697	0.347328
660.048478	0.347596
660.253240	0.347925
660.457984	0.348261
660.662710	0.348611
660.867417	0.348980
661.072107	0.348981
661.276778	0.348759
661.481431	0.349224
661.686066	0.350068
661.890682	0.350264
662.095281	0.350423
662.299861	0.350613
662.504422	0.350543
662.708966	0.350617
662.913491	0.351126
663.117999	0.351754
663.322488	0.351841
663.526958	0.351814
663.731411	0.352006
663.935845	0.352334
664.140261	0.352640
664.344659	0.353373
664.549038	0.353544
664.753400	0.353824
664.957743	0.354209
665.162068	0.354333
665.366375	0.354612
665.570663	0.354719
665.774933	0.354904
665.979185	0.355120
666.183419	0.354957
666.387635	0.355454
666.591832	0.355514
666.796011	0.355604
667.000172	0.355686
667.204315	0.355897
667.408439	0.356080
667.612545	0.356190
667.816634	0.356625
668.020703	0.357038
668.224755	0.357175
668.428788	0.357593
668.632803	0.358070
668.836800	0.358401
669.040779	0.358677
669.244739	0.358894
669.448681	0.359213
669.652605	0.359603
669.856511	0.359685
670.060399	0.359792
670.264268	0.359862
670.468119	0.359814
670.671952	0.360238
670.875767	0.360272
671.079563	0.360422
671.283341	0.360498
671.487101	0.360207
671.690843	0.360137
671.894567	0.360409
672.098272	0.360615
672.301959	0.360984
672.505628	0.360972
672.709278	0.361510
672.912911	0.361893
673.116525	0.362103
673.320121	0.362402
673.523699	0.362674
673.727258	0.362923
673.930799	0.363133
674.134322	0.363266
674.337827	0.363782
674.541314	0.363847
674.744782	0.364102
674.948232	0.364395
675.151664	0.364617
675.355078	0.365134
675.558474	0.365336
675.761851	0.365628
675.965210	0.365462
676.168551	0.365391
676.371873	0.365540
676.575178	0.365803
676.778464	0.365935
676.981732	0.366053
677.184981	0.366348
677.388213	0.366771
677.591426	0.366935
677.794621	0.367652
677.997798	0.367912
678.200956	0.368300
678.404097	0.368512
678.607219	0.369034
678.810323	0.369646
679.013408	0.369748
679.216476	0.369965
679.419525	0.370353
679.622556	0.370480
679.825569	0.370853
680.028563	0.371214
680.231540	0.371273
680.434498	0.371649
680.637438	0.371772
680.840359	0.371919
681.043263	0.372061
681.246148	0.372274
681.449015	0.372385
681.651864	0.372553
681.854694	0.372396
682.057506	0.372804
682.260301	0.372695
682.463076	0.372918
682.665834	0.373167
682.868573	0.373707
683.071295	0.373810
683.273998	0.374304
683.476682	0.374409
683.679349	0.374949
683.881997	0.375201
684.084627	0.375536
684.287239	0.375645
684.489833	0.375695
684.692408	0.375388
684.894965	0.375725
685.097504	0.375682
685.300025	0.376175
685.502527	0.376346
685.705012	0.376110
685.907478	0.376014
686.109925	0.376023
686.312355	0.376158
686.514766	0.376410
686.717159	0.376595
686.919534	0.376859
687.121891	0.376857
687.324230	0.376961
687.526550	0.377595
687.728852	0.378014
687.931136	0.378067
688.133401	0.378605
688.335649	0.378947
688.537878	0.379093
688.740089	0.379072
688.942281	0.379250
689.144456	0.379307
689.346612	0.379546
689.548750	0.379746
689.750870	0.380329
689.952971	0.380596
690.155055	0.380910
690.357120	0.380921
690.559167	0.381561
690.761195	0.381772
690.963206	0.382127
691.165198	0.382256
691.367172	0.382490
691.569128	0.382610
691.771065	0.382641
691.972984	0.382879
692.174885	0.383288
692.376768	0.383090
692.578633	0.383391
692.780479	0.383543
692.982308	0.383351
693.184118	0.383720
693.385909	0.383715
693.587683	0.383785
693.789438	0.383844
693.991175	0.383746
694.192894	0.384073
694.394595	0.384248
694.596277	0.384214
694.797941	0.384782
694.999587	0.384709
695.201215	0.384830
695.402824	0.385046
695.604416	0.385055
695.805989	0.385545
696.007543	0.385659
696.209080	0.385743
696.410598	0.386056
696.612099	0.386270
696.813580	0.386600
697.015044	0.387037
697.216490	0.387503
697.417917	0.387837
697.619326	0.387892
697.820717	0.388253
698.022089	0.388347
698.223444	0.388792
698.424780	0.388741
698.626098	0.388674
698.827397	0.388831
699.028679	0.388718
699.229942	0.388770
699.431187	0.388768
699.632414	0.388752
699.833622	0.388976
700.034813	0.388973
700.235985	0.389411
700.437139	0.389715
700.638274	0.389877
700.839392	0.389931
701.040491	0.390361
701.241572	0.390703
701.442635	0.390690
701.643679	0.390667
701.844706	0.390664
702.045714	0.390342
702.246704	0.390257
702.447675	0.390488
702.648629	0.390731
702.849564	0.390247
703.050481	0.390345
703.251380	0.390400
703.452260	0.390594
703.653122	0.390857
703.853966	0.391125
704.054792	0.391374
704.255600	0.391355
704.456389	0.391400
704.657160	0.391768
704.857913	0.391409
705.058648	0.391849
705.259365	0.391984
705.460063	0.391733
705.660743	0.391886
705.861405	0.391811
706.062048	0.391529
706.262674	0.391562
706.463281	0.391429
706.663870	0.391727
706.864441	0.391389
707.064993	0.391257
707.265527	0.391514
707.466043	0.391520
707.666541	0.391883
707.867021	0.392361
708.067482	0.392294
708.267925	0.392561
708.468350	0.392628
708.668757	0.392917
708.869145	0.393099
709.069516	0.393129
709.269868	0.393012
709.470201	0.392806
709.670517	0.392718
709.870814	0.392958
710.071093	0.392764
710.271354	0.392780
710.471597	0.392580
710.671821	0.392768
710.872028	0.392578
711.072216	0.392664
711.272385	0.392501
711.472537	0.392029
711.672670	0.391854
711.872785	0.391999
712.072882	0.391997
712.272961	0.392346
712.473021	0.391970
712.673063	0.392230
712.873087	0.392251
713.073093	0.392326
713.273081	0.392780
713.473050	0.392876
713.673001	0.392803
713.872934	0.392705
714.072849	0.392497
714.272745	0.392660
714.472623	0.392637
714.672483	0.392631
714.872325	0.392659
715.072148	0.392621
715.271954	0.392485
715.471741	0.392669
715.671509	0.392829
715.871260	0.392847
716.070992	0.392941
716.270707	0.392978
716.470403	0.393030
716.670080	0.393134
716.869740	0.393030
717.069381	0.393129
717.269004	0.392822
717.468609	0.392702
717.668195	0.392805
717.867764	0.392636
718.067314	0.392385
718.266846	0.391903
718.466360	0.391575
718.665855	0.391322
718.865332	0.391062
719.064791	0.391104
719.264232	0.390897
719.463655	0.390747
719.663059	0.390598
719.862445	0.390571
720.061813	0.390839
720.261163	0.390874
720.460494	0.390799
720.659807	0.390912
720.859102	0.390833
721.058379	0.391031
721.257638	0.390573
721.456878	0.390573
721.656100	0.390564
721.855304	0.390268
722.054490	0.390060
722.253657	0.390024
722.452806	0.389863
722.651937	0.389944
722.851050	0.389570
723.050145	0.389517
723.249221	0.389367
723.448279	0.389255
723.647319	0.389447
723.846340	0.389334
724.045344	0.389238
724.244329	0.388864
724.443296	0.388560
724.642245	0.388867
724.841175	0.388928
725.040088	0.389005
725.238982	0.388715
725.437857	0.388319
725.636715	0.388517
725.835554	0.388434
726.034376	0.388566
726.233179	0.388258
726.431963	0.387742
726.630730	0.387475
726.829478	0.387117
727.028208	0.386864
727.226920	0.386518
727.425614	0.386305
727.624289	0.386171
727.822946	0.386122
728.021585	0.386100
728.220206	0.385988
728.418808	0.385870
728.617392	0.385549
728.815958	0.385343
729.014506	0.385085
729.213036	0.384738
729.411547	0.384543
729.610040	0.384215
729.808515	0.383840
730.006972	0.383646
730.205410	0.383317
730.403831	0.383057
730.602233	0.383191
730.800616	0.383282
730.998982	0.383221
731.197329	0.382715
731.395658	0.382492
731.593969	0.382775
731.792262	0.382490
731.990536	0.382551
732.188793	0.382648
732.387031	0.382078
732.585250	0.382038
732.783452	0.381696
732.981635	0.381997
733.179800	0.381781
733.377947	0.381186
733.576076	0.381055
733.774186	0.380817
733.972278	0.380581
734.170352	0.380727
734.368408	0.380597
734.566446	0.380652
734.764465	0.380378
734.962466	0.380358
735.160449	0.379849
735.358413	0.379607
735.556360	0.379272
735.754288	0.379156
735.952198	0.378663
736.150090	0.378260
736.347963	0.377940
736.545818	0.377443
736.743655	0.376964
736.941474	0.377081
737.139275	0.376871
737.337057	0.376749
737.534821	0.376591
737.732567	0.376741
737.930295	0.376706
738.128005	0.376700
738.325696	0.376844
738.523369	0.377027
738.721024	0.376827
738.918660	0.376795
739.116279	0.376937
739.313879	0.376572
739.511461	0.376250
739.709024	0.375676
739.906570	0.375163
740.104097	0.374928
740.301606	0.374438
740.499097	0.374227
740.696569	0.373978
740.894024	0.373524
741.091460	0.373387
741.288878	0.372822
741.486277	0.372812
741.683659	0.372604
741.881022	0.372069
742.078367	0.371988
742.275694	0.371885
742.473002	0.371901
742.670293	0.371648
742.867565	0.371140
743.064819	0.371203
743.262054	0.370884
743.459272	0.370869
743.656471	0.370668
743.853652	0.370103
744.050815	0.369628
744.247959	0.368909
744.445085	0.368751
744.642194	0.368762
744.839283	0.368289
745.036355	0.368271
745.233408	0.367677
745.430444	0.367639
745.627461	0.367718
745.824459	0.367620
746.021440	0.367938
746.218402	0.367700
746.415346	0.367240
746.612272	0.367413
746.809180	0.367199
747.006069	0.367045
747.202940	0.366718
747.399793	0.366518
747.596628	0.366316
747.793444	0.365683
747.990243	0.365198
748.187023	0.365012
748.383784	0.364519
748.580528	0.363988
748.777253	0.364020
748.973960	0.363875
749.170649	0.363427
749.367320	0.363192
749.563973	0.363067
749.760607	0.362872
749.957223	0.362850
750.153821	0.362220
750.350400	0.362055
750.546962	0.361504
750.743505	0.361092
750.940030	0.361064
751.136536	0.360914
751.333025	0.360563
751.529495	0.360286
751.725947	0.360182
751.922381	0.360017
752.118796	0.359975
752.315194	0.360028
752.511573	0.359807
752.707934	0.359594
752.904276	0.359334
753.100601	0.359130
753.296907	0.358862
753.493195	0.358377
753.689465	0.358520
753.885716	0.358298
754.081949	0.357996
754.278164	0.357791
754.474361	0.357260
754.670540	0.356951
754.866700	0.356828
755.062843	0.356881
755.258967	0.356617
755.455072	0.356359
755.651160	0.356060
755.847229	0.355529
756.043280	0.355395
756.239313	0.355518
756.435328	0.355378
756.631324	0.355153
756.827302	0.354730
757.023262	0.354650
757.219204	0.354190
757.415127	0.353795
757.611033	0.353555
757.806920	0.353383
758.002788	0.353244
758.198639	0.352802
758.394471	0.352551
758.590286	0.352357
758.786081	0.351726
758.981859	0.351690
759.177619	0.351554
759.373360	0.351468
759.569083	0.351210
759.764788	0.350636
759.960474	0.350321
760.156143	0.350092
760.351793	0.349836
760.547425	0.349759
760.743038	0.349736
760.938634	0.349637
761.134211	0.349783
761.329770	0.349596
761.525311	0.349612
761.720833	0.349828
761.916338	0.349519
762.111824	0.349602
762.307292	0.349822
762.502741	0.349593
762.698173	0.349388
762.893586	0.349023
763.088981	0.348663
763.284358	0.348398
763.479716	0.347984
763.675057	0.347843
763.870379	0.347501
764.065683	0.347294
764.260968	0.347138
764.456236	0.347033
764.651485	0.347166
764.846716	0.346932
765.041929	0.346951
765.237123	0.346934
765.432299	0.346873
765.627457	0.347041
765.822597	0.346913
766.017719	0.346911
766.212822	0.346854
766.407907	0.346451
766.602974	0.346684
766.798023	0.346494
766.993054	0.346367
767.188066	0.346109
767.383060	0.345553
767.578036	0.345139
767.772993	0.344975
767.967933	0.344441
768.162854	0.344188
768.357757	0.344067
768.552642	0.343790
768.747508	0.343867
768.942356	0.343894
769.137186	0.343847
769.331998	0.343876
769.526792	0.343453
769.721567	0.343570
769.916324	0.343435
770.111063	0.343120
770.305784	0.343252
770.500486	0.342940
770.695171	0.342749
770.889837	0.342610
771.084484	0.342478
771.279114	0.342584
771.473725	0.342433
771.668318	0.342520
771.862893	0.342678
772.057450	0.342243
772.251988	0.341901
772.446509	0.341768
772.641011	0.341823
772.835494	0.341392
773.029960	0.341145
773.224407	0.341140
773.418836	0.340849
773.613247	0.340605
773.807640	0.340728
774.002014	0.340754
774.196370	0.340995
774.390708	0.340906
774.585028	0.341392
774.779330	0.341512
774.973613	0.341503
775.167878	0.341413
775.362125	0.341477
775.556354	0.341409
775.750564	0.341676
775.944756	0.341350
776.138930	0.341279
776.333086	0.341045
776.527223	0.340906
776.721343	0.340609
776.915444	0.340796
777.109526	0.340684
777.303591	0.340399
777.497637	0.339989
777.691666	0.340549
777.885676	0.340453
778.079667	0.340413
778.273641	0.340453
778.467596	0.340641
778.661533	0.340323
778.855452	0.340234
779.049352	0.340272
779.243235	0.340461
779.437099	0.340049
779.630945	0.340057
779.824773	0.339904
780.018582	0.340179
780.212373	0.340113
780.406146	0.340223
780.599901	0.339963
780.793638	0.339917
780.987356	0.340050
781.181056	0.340157
781.374738	0.339867
781.568402	0.339830
781.762047	0.339583
781.955674	0.339338
782.149283	0.339405
782.342874	0.339600
782.536447	0.339605
782.730001	0.339613
782.923537	0.339499
783.117055	0.339574
783.310555	0.339922
783.504036	0.339722
783.697499	0.340083
783.890944	0.340089
784.084371	0.340014
784.277780	0.340321
784.471170	0.339968
784.664542	0.339715
784.857896	0.340075
785.051231	0.339980
785.244549	0.340072
785.437848	0.340075
785.631129	0.340152
785.824392	0.340183
786.017636	0.340059
786.210863	0.340328
786.404071	0.340645
786.597260	0.340712
786.790432	0.340691
786.983585	0.341095
787.176721	0.341005
787.369838	0.340913
787.562936	0.341155
787.756017	0.341041
787.949079	0.341080
788.142123	0.341018
788.335149	0.341055
788.528156	0.341245
788.721146	0.341139
788.914117	0.341234
789.107070	0.341540
789.300005	0.341693
789.492921	0.341971
789.685819	0.342023
789.878699	0.342199
790.071561	0.342271
790.264405	0.342384
790.457230	0.342497
790.650037	0.342624
790.842826	0.342647
791.035597	0.342776
791.228349	0.343027
791.421084	0.343107
791.613800	0.343088
791.806497	0.343129
791.999177	0.343292
792.191838	0.343332
792.384481	0.343500
792.577106	0.343761
792.769713	0.343702
792.962301	0.343774
793.154871	0.343714
793.347423	0.343902
793.539957	0.344229
793.732473	0.344377
793.924970	0.344353
794.117449	0.344730
794.309910	0.344838
794.502353	0.345035
794.694777	0.344969
794.887183	0.345646
795.079571	0.346053
795.271941	0.346275
795.464293	0.346197
795.656626	0.346607
795.848941	0.346752
796.041238	0.347179
796.233516	0.347215
796.425777	0.347850
796.618019	0.347555
796.810243	0.347416
797.002449	0.347255
797.194636	0.347476
797.386805	0.347498
797.578956	0.347618
797.771089	0.347600
797.963204	0.347759
798.155300	0.347846
798.347378	0.348093
798.539438	0.348381
798.731480	0.348682
798.923503	0.348884
799.115509	0.349049
799.307496	0.349226
799.499465	0.349421
799.691415	0.349761
799.883348	0.349685
800.075262	0.350180
800.267158	0.350450
800.459035	0.350683
800.650895	0.350784
800.842736	0.351125
801.034559	0.351406
801.226364	0.351682
801.418150	0.351867
801.609919	0.352009
801.801669	0.351952
801.993401	0.351929
802.185114	0.352012
802.376810	0.352425
802.568487	0.352744
802.760146	0.353018
802.951787	0.353264
803.143409	0.353560
803.335014	0.354039
803.526600	0.354551
803.718168	0.354872
803.909717	0.355101
804.101249	0.355272
804.292762	0.355413
804.484257	0.355619
804.675734	0.355797
804.867192	0.356388
805.058632	0.356825
805.250054	0.357117
805.441458	0.357712
805.632844	0.358210
805.824211	0.358596
806.015561	0.358969
806.206891	0.359279
806.398204	0.359631
806.589499	0.359422
806.780775	0.359475
806.972033	0.359895
807.163273	0.360206
807.354495	0.360409
807.545698	0.360721
807.736883	0.360750
807.928050	0.361051
808.119199	0.361616
808.310329	0.362338
808.501441	0.362643
808.692535	0.362868
808.883611	0.362919
809.074669	0.363310
809.265708	0.363468
809.456729	0.363947
809.647732	0.364184
809.838717	0.364243
810.029683	0.364458
810.220632	0.365054
810.411562	0.365245
810.602474	0.365843
810.793367	0.366178
810.984242	0.366593
811.175100	0.367306
811.365938	0.367690
811.556759	0.367971
811.747562	0.368115
811.938346	0.368206
812.129112	0.368725
812.319860	0.369140
812.510589	0.369367
812.701300	0.369719
812.891994	0.369784
813.082668	0.370194
813.273325	0.370436
813.463964	0.370675
813.654584	0.371136
813.845186	0.371404
814.035769	0.371497
814.226335	0.372023
814.416882	0.372389
814.607411	0.373010
814.797922	0.373426
814.988415	0.374020
815.178889	0.374840
815.369345	0.375267
815.559783	0.375578
815.750203	0.375844
815.940605	0.376159
816.130988	0.376413
816.321353	0.376463
816.511700	0.377089
816.702028	0.377380
816.892339	0.377826
817.082631	0.378327
817.272905	0.378700
817.463161	0.379161
817.653398	0.379699
817.843617	0.380414
818.033819	0.381161
818.224001	0.381425
818.414166	0.382172
818.604312	0.382330
818.794440	0.382496
818.984550	0.383042
819.174642	0.383629
819.364716	0.383913
819.554771	0.384071
819.744808	0.384396
819.934827	0.384414
820.124827	0.384314
820.314810	0.384774
820.504774	0.385271
820.694720	0.385473
820.884647	0.385608
821.074557	0.385975
821.264448	0.386630
821.454321	0.386887
821.644176	0.387464
821.834012	0.388057
822.023831	0.388310
822.213631	0.388894
822.403413	0.389653
822.593176	0.390254
822.782922	0.390588
822.972649	0.391056
823.162358	0.391546
823.352049	0.392271
823.541721	0.392994
823.731376	0.393765
823.921012	0.394069
824.110629	0.394070
824.300229	0.394673
824.489811	0.395366
824.679374	0.395721
824.868919	0.396209
825.058445	0.396525
825.247954	0.396859
825.437444	0.397373
825.626916	0.397790
825.816370	0.398483
826.005806	0.398656
826.195223	0.399291
826.384622	0.399986
826.574003	0.400249
826.763366	0.400717
826.952711	0.401229
827.142037	0.401402
827.331345	0.401937
827.520635	0.402673
827.709906	0.403365
827.899160	0.404020
828.088395	0.404570
828.277612	0.405134
828.466810	0.405428
828.655991	0.405897
828.845153	0.406613
829.034297	0.407153
829.223423	0.407608
829.412531	0.408248
829.601620	0.408264
829.790691	0.408655
829.979744	0.409552
830.168779	0.410468
830.357795	0.410826
830.546793	0.411293
830.735773	0.412158
830.924735	0.412873
831.113679	0.413050
831.302604	0.413831
831.491511	0.414608
831.680400	0.414889
831.869271	0.415443
832.058123	0.415920
832.246957	0.416462
832.435773	0.416854
832.624571	0.417316
832.813351	0.418082
833.002112	0.418802
833.190855	0.419331
833.379580	0.420235
833.568287	0.420829
833.756975	0.421656
833.945645	0.422331
834.134297	0.422763
834.322931	0.422984
834.511547	0.423641
834.700144	0.424158
834.888723	0.424400
835.077284	0.424460
835.265826	0.424584
835.454351	0.425144
835.642857	0.425797
835.831345	0.426317
836.019815	0.426798
836.208266	0.427791
836.396699	0.428203
836.585114	0.428802
836.773511	0.429979
836.961890	0.430625
837.150250	0.431096
837.338592	0.431809
837.526916	0.432336
837.715222	0.433257
837.903510	0.433163
838.091779	0.433866
838.280030	0.434474
838.468263	0.435026
838.656477	0.435634
838.844674	0.436139
839.032852	0.436238
839.221012	0.437110
839.409153	0.437812
839.597277	0.438735
839.785382	0.439137
839.973469	0.439742
840.161538	0.439624
840.349589	0.440357
840.537621	0.440656
840.725635	0.441506
840.913631	0.442064
841.101609	0.442634
841.289568	0.443392
841.477509	0.443879
841.665432	0.444590
841.853337	0.445081
842.041224	0.445550
842.229092	0.446463
842.416942	0.447036
842.604774	0.447446
842.792588	0.448213
842.980383	0.448286
843.168160	0.449191
843.355919	0.449746
843.543660	0.450869
843.731382	0.451602
843.919087	0.452310
844.106773	0.452986
844.294441	0.453713
844.482090	0.453978
844.669722	0.455124
844.857335	0.455727
845.044930	0.456038
845.232507	0.456674
845.420065	0.457160
845.607605	0.457735
845.795127	0.458239
845.982631	0.458697
846.170117	0.459410
846.357584	0.460018
846.545033	0.460703
846.732464	0.461654
846.919877	0.462340
847.107272	0.463026
847.294648	0.463783
847.482006	0.464442
847.669346	0.464994
847.856667	0.465149
848.043971	0.465521
848.231256	0.465900
848.418523	0.466351
848.605771	0.467162
848.793002	0.467628
848.980214	0.468077
849.167408	0.468449
849.354584	0.468757
849.541742	0.469483
849.728881	0.469970
849.916002	0.470736
850.103105	0.471182
850.290190	0.471487
850.477256	0.472270
850.664304	0.473153
850.851334	0.473737
851.038346	0.474754
851.225340	0.475633
851.412315	0.476246
851.599272	0.476433
851.786211	0.477177
851.973132	0.478021
852.160034	0.478556
852.346918	0.478338
852.533784	0.478779
852.720632	0.479411
852.907462	0.480168
853.094273	0.480715
853.281066	0.481485
853.467841	0.481783
853.654598	0.482259
853.841336	0.482443
854.028056	0.483194
854.214758	0.483974
854.401442	0.484134
854.588107	0.483575
854.774755	0.484167
854.961384	0.484527
855.147995	0.485169
855.334587	0.485108
855.521162	0.486024
855.707718	0.487098
855.894256	0.487765
856.080775	0.488439
856.267277	0.489929
856.453760	0.490462
856.640225	0.491603
856.826672	0.492308
857.013101	0.493363
857.199511	0.493559
857.385903	0.493842
857.572277	0.494445
857.758633	0.494647
857.944970	0.494960
858.131290	0.495792
858.317591	0.496192
858.503873	0.496345
858.690138	0.497167
858.876384	0.498040
859.062612	0.498642
859.248822	0.499204
859.435014	0.500128
859.621188	0.500720
859.807343	0.500809
859.993480	0.501329
860.179599	0.502070
860.365699	0.501695
860.551781	0.502374
860.737846	0.502341
860.923891	0.502790
861.109919	0.503498
861.295929	0.504286
861.481920	0.504969
861.667893	0.505396
861.853848	0.505959
862.039784	0.506781
862.225702	0.507288
862.411603	0.508109
862.597484	0.508398
862.783348	0.508430
862.969193	0.508608
863.155021	0.508762
863.340830	0.509090
863.526620	0.509921
863.712393	0.510113
863.898147	0.510155
864.083883	0.510481
864.269601	0.511093
864.455301	0.511943
864.640982	0.512412
864.826645	0.513283
865.012290	0.513734
865.197917	0.513818
865.383526	0.514500
865.569116	0.515209
865.754688	0.516279
865.940242	0.516823
866.125777	0.517683
866.311295	0.518157
866.496794	0.518681
866.682275	0.519145
866.867737	0.519810
867.053182	0.520749
867.238608	0.521208
867.424016	0.521272
867.609406	0.521889
867.794778	0.522297
867.980131	0.522920
868.165466	0.523212
868.350783	0.523978
868.536082	0.524210
868.721362	0.524075
868.906625	0.524776
869.091869	0.525400
869.277094	0.525304
869.462302	0.525401
869.647491	0.525760
869.832662	0.526392
870.017815	0.526674
870.202950	0.527556
870.388066	0.528446
870.573165	0.528698
870.758245	0.529162
870.943306	0.530329
871.128350	0.530529
871.313375	0.530793
871.498382	0.530646
871.683371	0.530926
871.868342	0.531192
872.053294	0.532071
872.238229	0.532237
872.423144	0.532498
872.608042	0.532597
872.792922	0.532955
872.977783	0.533280
873.162626	0.534405
873.347451	0.534428
873.532258	0.534804
873.717046	0.534603
873.901816	0.535133
874.086568	0.535124
874.271302	0.535469
874.456017	0.535546
874.640715	0.536102
874.825394	0.535862
875.010055	0.536426
875.194697	0.536228
875.379322	0.536162
875.563928	0.535763
875.748516	0.535868
875.933085	0.535514
876.117637	0.535799
876.302170	0.536037
876.486685	0.536488
876.671182	0.536470
876.855661	0.537183
877.040121	0.537557
877.224563	0.538486
877.408987	0.539232
877.593393	0.539838
877.777780	0.540411
877.962150	0.540459
878.146501	0.540838
878.330833	0.541085
878.515148	0.541067
878.699444	0.541118
878.883722	0.540884
879.067982	0.540519
879.252224	0.540287
879.436447	0.540143
879.620653	0.540260
879.804840	0.539646
879.989008	0.540071
880.173159	0.540378
880.357291	0.540937
880.541405	0.541766
880.725501	0.542605
880.909579	0.543182
881.093638	0.543579
881.277680	0.543929
881.461703	0.544531
881.645707	0.544471
881.829694	0.544084
882.013662	0.544433
882.197612	0.544603
882.381544	0.544845
882.565458	0.544893
882.749353	0.545497
882.933230	0.545836
883.117089	0.545461
883.300930	0.546154
883.484753	0.546731
883.668557	0.546349
883.852343	0.546393
884.036111	0.545292
884.219861	0.545997
884.403592	0.545843
884.587305	0.545698
884.771000	0.546413
884.954677	0.546034
885.138335	0.545654
885.321976	0.546116
885.505598	0.545809
885.689201	0.546678
885.872787	0.545938
886.056354	0.545943
886.239904	0.545802
886.423434	0.545992
886.606947	0.546044
886.790442	0.546117
886.973918	0.545516
887.157376	0.545865
887.340816	0.546503
887.524237	0.546463
887.707641	0.546502
887.891026	0.546556
888.074393	0.545845
888.257741	0.545665
888.441072	0.546087
888.624384	0.546135
888.807678	0.545733
888.990954	0.545358
889.174211	0.545798
889.357451	0.546266
889.540672	0.546763
889.723875	0.547734
889.907059	0.547754
890.090226	0.547375
890.273374	0.548170
890.456504	0.548164
890.639616	0.548071
890.822709	0.548064
891.005785	0.547568
891.188842	0.547256
891.371881	0.546911
891.554901	0.547409
891.737904	0.548145
891.920888	0.547663
892.103854	0.547890
892.286802	0.547943
892.469731	0.548003
892.652643	0.548320
892.835536	0.548455
893.018410	0.548745
893.201267	0.548184
893.384106	0.548073
893.566926	0.548123
893.749728	0.548199
893.932511	0.547194
894.115277	0.546704
894.298024	0.546263
894.480753	0.546247
894.663464	0.545819
894.846157	0.545867
895.028831	0.545013
895.211487	0.545106
895.394125	0.544279
895.576745	0.544582
895.759346	0.544715
895.941930	0.544136
896.124495	0.543169
896.307041	0.543179
896.489570	0.543031
896.672080	0.543293
896.854573	0.542987
897.037046	0.542937
897.219502	0.542780
897.401940	0.542250
897.584359	0.542591
897.766760	0.542458
897.949143	0.541848
898.131507	0.541905
898.313854	0.541317
898.496182	0.540826
898.678492	0.540890
898.860783	0.540427
899.043057	0.540047
899.225312	0.539424
899.407549	0.539580
899.589768	0.539542
899.771968	0.538525
899.954151	0.538466
900.136315	0.538178
900.318461	0.537918
900.500588	0.538734
900.682698	0.538689
900.864789	0.538043
901.046862	0.537691
901.228917	0.536976
901.410953	0.536904
901.592971	0.535847
901.774972	0.535383
901.956953	0.534729
902.138917	0.533651
902.320862	0.533418
902.502790	0.532901
902.684699	0.532489
902.866589	0.532602
903.048462	0.532707
903.230316	0.532437
903.412152	0.531886
903.593970	0.531670
903.775770	0.530735
903.957551	0.530098
904.139314	0.530297
904.321059	0.529736
904.502786	0.529124
904.684494	0.528733
904.866185	0.529003
905.047857	0.528315
905.229510	0.528067
905.411146	0.527701
905.592763	0.527210
905.774363	0.526488
905.955943	0.525721
906.137506	0.525191
906.319051	0.524430
906.500577	0.524044
906.682085	0.523468
906.863575	0.523211
907.045046	0.523326
907.226500	0.522712
907.407935	0.522256
907.589352	0.522819
907.770750	0.522059
907.952131	0.521732
908.133493	0.520963
908.314837	0.520855
908.496163	0.519771
908.677470	0.518963
908.858760	0.518929
909.040031	0.518730
909.221284	0.517881
909.402518	0.517567
909.583735	0.516307
909.764933	0.515738
909.946113	0.514828
910.127275	0.514593
910.308418	0.514201
910.489544	0.513226
910.670651	0.512742
910.851740	0.511675
911.032810	0.510918
911.213863	0.510773
911.394897	0.510492
911.575913	0.511294
911.756911	0.511116
911.937890	0.510344
912.118851	0.509939
912.299794	0.508981
912.480719	0.508678
912.661626	0.508647
912.842514	0.507913
913.023384	0.507028
913.204236	0.505211
913.385070	0.503655
913.565886	0.502932
913.746683	0.502335
913.927462	0.501167
914.108223	0.500265
914.288965	0.499256
914.469690	0.498458
914.650396	0.497557
914.831084	0.497060
915.011754	0.496497
915.192405	0.495649
915.373038	0.494748
915.553653	0.493990
915.734250	0.493159
915.914829	0.492191
916.095389	0.491027
916.275931	0.490393
916.456455	0.489378
916.636961	0.488584
916.817448	0.487738
916.997917	0.487167
917.178368	0.487472
917.358801	0.486685
917.539216	0.485959
917.719612	0.485465
917.899990	0.484606
918.080350	0.483358
918.260692	0.482396
918.441015	0.482352
918.621320	0.481746
918.801607	0.479799
918.981876	0.478869
919.162127	0.478247
919.342359	0.477575
919.522573	0.475777
919.702769	0.476053
919.882947	0.475628
920.063106	0.474195
920.243247	0.472817
920.423370	0.472370
920.603475	0.471610
920.783562	0.471054
920.963630	0.469387
921.143680	0.470174
921.323712	0.468083
921.503725	0.466445
921.683721	0.466161
921.863698	0.464738
922.043657	0.463778
922.223598	0.462499
922.403520	0.460708
922.583424	0.460606
922.763311	0.459127
922.943178	0.459262
923.123028	0.459075
923.302859	0.457500
923.482673	0.457401
923.662467	0.456922
923.842244	0.455975
924.022003	0.455628
924.201743	0.454202
924.381465	0.452605
924.561169	0.451787
924.740854	0.449597
924.920522	0.448624
925.100171	0.447096
925.279802	0.445056
925.459414	0.443858
925.639009	0.442116
925.818585	0.440984
925.998143	0.441124
926.177683	0.439485
926.357205	0.438736
926.536708	0.437198
926.716193	0.436277
926.895660	0.435949
927.075109	0.435038
927.254539	0.433545
927.433951	0.433194
927.613345	0.430934
927.792721	0.429012
927.972079	0.428931
928.151418	0.428379
928.330739	0.428032
928.510042	0.426648
928.689327	0.425830
928.868593	0.425339
929.047841	0.423742
929.227071	0.422789
929.406283	0.421810
929.585476	0.419709
929.764652	0.418059
929.943809	0.415623
930.122948	0.413729
930.302068	0.412618
930.481171	0.411698
930.660255	0.410572
930.839321	0.409615
931.018369	0.409069
931.197398	0.408108
931.376409	0.407756
931.555402	0.407611
931.734377	0.407625
931.913334	0.405927
932.092272	0.404031
932.271192	0.403245
932.450094	0.400702
932.628978	0.398925
932.807844	0.397693
932.986691	0.396196
933.165520	0.394180
933.344331	0.392906
933.523123	0.391704
933.701898	0.390591
933.880654	0.388563
934.059392	0.388141
934.238111	0.387744
934.416813	0.386526
934.595496	0.384662
934.774161	0.383253
934.952808	0.381933
935.131437	0.381160
935.310047	0.379757
935.488639	0.378553
935.667213	0.377663
935.845769	0.376118
936.024306	0.374502
936.202825	0.373019
936.381326	0.372831
936.559809	0.371237
936.738274	0.370878
936.916720	0.369850
937.095148	0.368788
937.273558	0.367213
937.451950	0.365905
937.630323	0.365083
937.808678	0.364744
937.987015	0.361895
938.165334	0.360708
938.343635	0.358411
938.521917	0.357353
938.700181	0.356173
938.878427	0.355528
939.056655	0.353829
939.234864	0.352206
939.413055	0.350940
939.591228	0.349585
939.769383	0.348576
939.947519	0.347254
940.125638	0.345608
940.303738	0.344951
940.481820	0.342823
940.659883	0.340936
940.837929	0.339168
941.015956	0.337587
941.193965	0.337629
941.371955	0.334993
941.549928	0.332509
941.727882	0.331676
941.905818	0.328703
942.083736	0.327354
942.261636	0.326886
942.439517	0.325891
942.617380	0.324193
942.795225	0.322185
942.973052	0.321643
943.150860	0.320901
943.328651	0.318685
943.506423	0.317812
943.684176	0.316204
943.861912	0.313092
944.039629	0.311926
944.217328	0.310885
944.395009	0.309212
944.572672	0.307884
944.750317	0.305980
944.927943	0.303542
945.105551	0.301918
945.283141	0.299612
945.460712	0.299872
945.638265	0.297461
945.815801	0.295098
945.993317	0.293256
946.170816	0.290985
946.348297	0.289264
946.525759	0.288511
946.703203	0.287056
946.880629	0.287591
947.058036	0.285307
947.235425	0.284185
947.412797	0.281477
947.590149	0.280017
947.767484	0.278041
947.944800	0.277906
948.122099	0.276311
948.299379	0.274714
948.476640	0.272881
948.653884	0.271701
948.831109	0.270220
949.008316	0.270890
949.185505	0.269354
949.362676	0.267528
949.539828	0.265200
949.716962	0.263165
949.894078	0.261090
950.071176	0.257213
950.248256	0.254939
950.425317	0.253857
950.602360	0.253264
950.779385	0.252288
950.956391	0.251490
951.133380	0.249905
951.310350	0.248924
951.487302	0.249296
951.664235	0.248133
951.841151	0.246949
952.018048	0.244944
952.194927	0.241868
952.371788	0.238809
952.548631	0.238315
952.725455	0.238266
952.902261	0.236604
953.079049	0.234297
953.255819	0.233666
953.432570	0.232256
953.609303	0.229182
953.786018	0.226012
953.962715	0.226303
954.139394	0.223971
954.316054	0.220959
954.492696	0.220641
954.669320	0.218902
954.845926	0.219472
955.022513	0.217215
955.199083	0.217255
955.375634	0.217445
955.552166	0.214640
955.728681	0.212186
955.905177	0.212022
956.081655	0.209477
956.258115	0.208088
956.434557	0.203995
956.610980	0.204093
956.787385	0.204731
956.963772	0.203283
957.140141	0.202263
957.316492	0.202930
957.492824	0.201000
957.669138	0.200757
957.845434	0.200185
958.021712	0.200550
958.197971	0.200672
958.374212	0.197850
958.550435	0.196509
958.726640	0.194557
958.902826	0.194287
959.078995	0.193275
959.255145	0.191937
959.431277	0.191376
959.607390	0.190111
959.783486	0.187081
959.959563	0.187137
960.135622	0.186918
960.311662	0.189352
960.487685	0.187200
960.663689	0.187417
960.839675	0.190128
961.015643	0.187980
961.191593	0.187305
961.367524	0.188864
961.543437	0.189169
961.719332	0.186840
961.895209	0.185793
962.071067	0.184619
962.246907	0.181277
962.422730	0.179747
962.598533	0.179639
962.774319	0.178290
962.950086	0.176373
963.125835	0.175841
963.301566	0.178158
963.477279	0.179025
963.652973	0.180974
963.828650	0.183544
964.004308	0.179847
964.179947	0.178837
964.355569	0.175760
964.531172	0.175693
964.706757	0.177102
964.882324	0.175487
965.057873	0.173539
965.233403	0.172713
965.408916	0.170229
965.584410	0.172036
965.759885	0.170709
965.935343	0.173590
966.110782	0.174146
966.286203	0.169431
966.461606	0.171221
966.636991	0.167877
966.812357	0.165250
966.987705	0.163658
967.163035	0.162183
967.338347	0.162809
967.513641	0.163723
967.688916	0.163035
967.864173	0.164942
968.039412	0.162388
968.214632	0.165460
968.389835	0.165892
968.565019	0.166214
968.740185	0.165903
968.915333	0.168463
969.090462	0.170598
969.265573	0.171413
969.440667	0.172226
969.615741	0.173101
969.790798	0.173607
969.965836	0.173262
970.140856	0.175694
970.315858	0.177113
970.490842	0.176329
970.665808	0.172231
970.840755	0.168511
971.015684	0.168477
971.190595	0.168373
971.365487	0.167291
971.540362	0.166670
971.715218	0.166295
971.890056	0.165104
972.064875	0.164235
972.239677	0.166543
972.414460	0.166901
972.589225	0.164943
972.763972	0.163989
972.938700	0.161421
973.113411	0.164327
973.288103	0.164899
973.462777	0.163097
973.637432	0.162249
973.812070	0.158786
973.986689	0.161426
974.161290	0.163102
974.335873	0.162783
974.510437	0.164757
974.684984	0.165070
974.859512	0.166561
975.034022	0.169519
975.208513	0.169977
975.382987	0.172157
975.557442	0.169738
975.731879	0.168539
975.906298	0.167971
976.080698	0.167366
976.255080	0.166884
976.429445	0.162520
976.603790	0.161077
976.778118	0.159866
976.952427	0.160539
977.126719	0.160782
977.300992	0.161250
977.475246	0.161292
977.649483	0.161848
977.823701	0.160687
977.997901	0.163026
978.172083	0.163722
978.346247	0.165325
978.520392	0.166730
978.694519	0.168682
978.868628	0.169604
979.042719	0.169069
979.216791	0.169529
979.390845	0.169580
979.564882	0.170663
979.738899	0.170161
979.912899	0.172134
980.086880	0.168964
980.260843	0.169159
980.434788	0.168424
980.608715	0.170543
980.782623	0.172165
980.956514	0.172801
981.130386	0.170898
981.304240	0.172249
981.478075	0.170952
981.651892	0.175740
981.825692	0.173859
981.999472	0.176077
982.173235	0.174371
982.346980	0.171589
982.520706	0.171069
982.694414	0.169654
982.868104	0.167119
983.041775	0.167437
983.215428	0.165629
983.389064	0.165860
983.562680	0.162773
983.736279	0.163856
983.909860	0.164410
984.083422	0.165804
984.256966	0.167440
984.430491	0.165917
984.603999	0.164391
984.777488	0.163551
984.950959	0.164385
985.124412	0.165568
985.297847	0.165861
985.471263	0.166527
985.644661	0.164817
985.818041	0.165560
985.991403	0.167773
986.164747	0.169712
986.338072	0.168623
986.511379	0.168077
986.684668	0.169870
986.857938	0.169131
987.031191	0.170122
987.204425	0.169726
987.377641	0.169204
987.550839	0.170194
987.724018	0.169396
987.897179	0.168269
988.070322	0.170604
988.243447	0.168443
988.416554	0.166394
988.589642	0.163642
988.762712	0.162741
988.935764	0.163604
989.108798	0.161815
989.281813	0.160907
989.454811	0.165702
989.627790	0.163532
989.800751	0.162845
989.973693	0.165247
990.146617	0.168077
990.319524	0.169677
990.492412	0.168909
990.665281	0.170700
990.838133	0.172145
991.010966	0.169639
991.183781	0.169503
991.356578	0.170345
991.529356	0.171700
991.702117	0.171427
991.874859	0.172612
992.047583	0.173054
992.220288	0.173028
992.392976	0.172195
992.565645	0.171472
992.738296	0.171405
992.910929	0.170453
993.083543	0.168472
993.256139	0.166623
993.428718	0.166549
993.601277	0.165849
993.773819	0.164883
993.946342	0.163619
994.118848	0.165377
994.291335	0.166940
994.463803	0.166963
994.636254	0.168616
994.808686	0.170750
994.981100	0.169044
995.153496	0.169158
995.325874	0.170603
995.498233	0.169997
995.670574	0.167999
995.842897	0.168615
996.015202	0.168761
996.187488	0.168431
996.359757	0.167697
996.532007	0.169005
996.704239	0.169841
996.876452	0.168812
997.048648	0.173254
997.220825	0.175102
997.392984	0.172091
997.565124	0.172696
997.737247	0.173658
997.909351	0.174602
998.081437	0.172848
998.253505	0.173280
998.425554	0.173178
998.597586	0.168695
998.769599	0.168862
998.941594	0.170457
999.113571	0.169138
999.285529	0.169302
999.457469	0.168226
999.629391	0.170650
999.801295	0.169788
999.973181	0.171432
1000.145048	0.174320
1000.316897	0.173768
1000.488728	0.176183
1000.660541	0.178615
1000.832335	0.176239
1001.004111	0.177031
1001.175869	0.176287
1001.347609	0.178188
1001.519331	0.177864
1001.691034	0.176309
1001.862719	0.175863
1002.034386	0.171265
1002.206035	0.169318
1002.377665	0.171686
1002.549277	0.171050
1002.720871	0.170840
1002.892447	0.168191
1003.064004	0.167761
1003.235544	0.168234
1003.407065	0.170771
1003.578568	0.174486
1003.750052	0.175759
1003.921519	0.175498
1004.092967	0.177309
1004.264397	0.176966
1004.435809	0.177599
1004.607202	0.176683
1004.778577	0.176367
1004.949934	0.176255
1005.121273	0.175597
1005.292594	0.174537
1005.463896	0.174953
1005.635180	0.174127
1005.806446	0.173889
1005.977694	0.174742
1006.148923	0.175652
1006.320135	0.177255
1006.491328	0.172912
1006.662503	0.172648
1006.833659	0.172799
1007.004798	0.169967
1007.175918	0.167672
1007.347020	0.168053
1007.518103	0.168240
1007.689169	0.168906
1007.860216	0.167905
1008.031245	0.170092
1008.202256	0.168988
1008.373248	0.168256
1008.544223	0.171404
1008.715179	0.170638
1008.886117	0.170913
1009.057036	0.170086
1009.227938	0.169322
1009.398821	0.169088
1009.569686	0.168477
1009.740533	0.169564
1009.911361	0.169897
1010.082172	0.169431
1010.252964	0.173903
1010.423738	0.171680
1010.594493	0.172684
1010.765231	0.172491
1010.935950	0.174498
1011.106651	0.175187
1011.277334	0.175895
1011.447998	0.175074
1011.618645	0.174703
1011.789273	0.171623
1011.959882	0.176365
1012.130474	0.173150
1012.301048	0.174746
1012.471603	0.172653
1012.642140	0.171871
1012.812658	0.170181
1012.983159	0.172836
1013.153641	0.171920
1013.324105	0.170115
1013.494551	0.166970
1013.664979	0.167030
1013.835388	0.164949
1014.005779	0.164145
1014.176152	0.165450
1014.346507	0.166230
1014.516843	0.165426
1014.687162	0.164968
1014.857462	0.166503
1015.027744	0.167624
1015.198007	0.169196
1015.368252	0.170250
1015.538480	0.171351
1015.708689	0.169501
1015.878879	0.168548
1016.049052	0.168509
1016.219206	0.168604
1016.389342	0.169729
1016.559460	0.169681
1016.729559	0.169988
1016.899641	0.168834
1017.069704	0.167409
1017.239749	0.168200
1017.409775	0.169548
1017.579784	0.169679
1017.749774	0.170180
1017.919746	0.169978
1018.089700	0.170236
1018.259635	0.169943
1018.429553	0.169145
1018.599452	0.171672
1018.769333	0.170806
1018.939195	0.170554
1019.109040	0.170999
1019.278866	0.170775
1019.448674	0.170068
1019.618464	0.166657
1019.788235	0.166981
1019.957989	0.167682
1020.127724	0.167429
1020.297441	0.169409
1020.467139	0.167657
1020.636820	0.166843
1020.806482	0.167900
1020.976126	0.168391
1021.145752	0.172396
1021.315359	0.171543
1021.484948	0.171659
1021.654519	0.171818
1021.824072	0.171010
1021.993607	0.172881
1022.163123	0.171531
1022.332621	0.170975
1022.502101	0.169918
1022.671563	0.168994
1022.841007	0.170548
1023.010432	0.172361
1023.179839	0.170181
1023.349228	0.170037
1023.518598	0.168418
1023.687951	0.169136
1023.857285	0.168864
1024.026601	0.169319
1024.195899	0.169099
1024.365178	0.167420
1024.534439	0.167802
1024.703682	0.169545
1024.872907	0.168439
1025.042114	0.167983
1025.211302	0.167264
1025.380472	0.166558
1025.549624	0.167580
1025.718758	0.166895
1025.887873	0.168687
1026.056970	0.166186
1026.226049	0.166171
1026.395110	0.166027
1026.564153	0.168541
1026.733177	0.170595
1026.902183	0.170988
1027.071171	0.171873
1027.240141	0.173014
1027.409092	0.172812
1027.578026	0.173505
1027.746940	0.172837
1027.915837	0.173982
1028.084716	0.172099
1028.253576	0.172518
1028.422418	0.174513
1028.591242	0.174264
1028.760048	0.173833
1028.928835	0.173248
1029.097604	0.173799
1029.266355	0.175865
1029.435088	0.176115
1029.603803	0.174521
1029.772499	0.173857
1029.941177	0.170690
1030.109837	0.171368
1030.278478	0.170120
1030.447102	0.168715
1030.615707	0.168413
1030.784294	0.165129
1030.952863	0.163802
1031.121413	0.166782
1031.289945	0.166556
1031.458460	0.169315
1031.626955	0.167445
1031.795433	0.168549
1031.963892	0.168447
1032.132334	0.168712
1032.300756	0.169563
1032.469161	0.170600
1032.637548	0.167313
1032.805916	0.165396
1032.974266	0.163620
1033.142598	0.163846
1033.310911	0.164207
1033.479207	0.165862
1033.647484	0.165267
1033.815743	0.166124
1033.983983	0.164037
1034.152206	0.167016
1034.320410	0.167064
1034.488596	0.167555
1034.656764	0.165557
1034.824914	0.163684
1034.993045	0.162573
1035.161158	0.164193
1035.329253	0.164279
1035.497330	0.165931
1035.665388	0.165057
1035.833428	0.165390
1036.001450	0.165639
1036.169454	0.167580
1036.337440	0.168660
1036.505407	0.169871
1036.673356	0.169697
1036.841287	0.167859
1037.009200	0.168352
1037.177094	0.168591
1037.344970	0.171279
1037.512828	0.169839
1037.680668	0.168744
1037.848489	0.168191
1038.016293	0.167856
1038.184078	0.166165
1038.351845	0.165318
1038.519593	0.164700
1038.687324	0.165979
1038.855036	0.165175
1039.022730	0.167260
1039.190406	0.169193
1039.358063	0.168982
1039.525702	0.168095
1039.693323	0.171251
1039.860926	0.172813
1040.028511	0.172240
1040.196077	0.170453
1040.363625	0.169961
1040.531155	0.169065
1040.698667	0.166452
1040.866161	0.167108
1041.033636	0.168283
1041.201093	0.166424
1041.368532	0.165852
1041.535952	0.166775
1041.703355	0.169199
1041.870739	0.170928
1042.038105	0.170011
1042.205452	0.171708
1042.372782	0.172497
1042.540093	0.170709
1042.707386	0.167816
1042.874661	0.168166
1043.041918	0.167765
1043.209156	0.164759
1043.376376	0.162287
1043.543578	0.162191
1043.710762	0.160830
1043.877927	0.159771
1044.045074	0.160436
1044.212203	0.164180
1044.379314	0.164215
1044.546407	0.165590
1044.713481	0.170284
1044.880537	0.170155
1045.047575	0.169700
1045.214595	0.170290
1045.381596	0.170380
1045.548579	0.169946
1045.715544	0.167890
1045.882491	0.166173
1046.049420	0.165945
1046.216330	0.162213
1046.383222	0.162755
1046.550096	0.164430
1046.716951	0.164895
1046.883789	0.166057
1047.050608	0.165959
1047.217409	0.166015
1047.384192	0.168143
1047.550956	0.168242
1047.717703	0.168638
1047.884431	0.168745
1048.051140	0.168779
1048.217832	0.168536
1048.384505	0.167440
1048.551161	0.169140
1048.717798	0.170875
1048.884416	0.169509
1049.051017	0.168788
1049.217599	0.167799
1049.384163	0.168356
1049.550709	0.165827
1049.717237	0.166517
1049.883746	0.165540
1050.050237	0.166161
1050.216710	0.165095
1050.383165	0.166217
1050.549601	0.165281
1050.716019	0.165594
1050.882420	0.165440
1051.048801	0.167512
1051.215165	0.167259
1051.381510	0.168563
1051.547837	0.166511
1051.714146	0.165503
1051.880437	0.165602
1052.046709	0.163671
1052.212964	0.163177
1052.379200	0.160768
1052.545417	0.160679
1052.711617	0.163194
1052.877798	0.161757
1053.043961	0.164666
1053.210106	0.162946
1053.376233	0.163441
1053.542341	0.164194
1053.708432	0.166012
1053.874504	0.169544
1054.040557	0.169031
1054.206593	0.167521
1054.372610	0.169946
1054.538609	0.168123
1054.704590	0.167422
1054.870553	0.168399
1055.036497	0.171417
1055.202424	0.170668
1055.368331	0.168763
1055.534221	0.169581
1055.700093	0.170128
1055.865946	0.168496
1056.031781	0.168162
1056.197598	0.173234
1056.363397	0.173492
1056.529177	0.172941
1056.694939	0.174348
1056.860683	0.175529
1057.026409	0.176440
1057.192116	0.172971
1057.357806	0.175259
1057.523477	0.177399
1057.689130	0.176243
1057.854764	0.174301
1058.020381	0.175519
1058.185979	0.174299
1058.351559	0.173670
1058.517120	0.174427
1058.682664	0.176078
1058.848189	0.175217
1059.013696	0.174213
1059.179185	0.171949
1059.344656	0.174455
1059.510108	0.173160
1059.675542	0.174701
1059.840958	0.174777
1060.006356	0.175036
1060.171735	0.176624
1060.337096	0.174940
1060.502439	0.173351
1060.667764	0.174520
1060.833071	0.173686
1060.998359	0.174985
1061.163629	0.174518
1061.328881	0.175347
1061.494115	0.172287
1061.659330	0.170047
1061.824527	0.173044
1061.989706	0.174887
1062.154867	0.175426
1062.320010	0.176720
1062.485134	0.175880
1062.650240	0.177560
1062.815328	0.177713
1062.980398	0.178370
1063.145449	0.180349
1063.310482	0.178988
1063.475497	0.177668
1063.640494	0.179802
1063.805473	0.177196
1063.970433	0.174793
1064.135375	0.171391
1064.300299	0.169628
1064.465204	0.169250
1064.630092	0.169945
1064.794961	0.170371
1064.959812	0.174002
1065.124645	0.172838
1065.289459	0.172974
1065.454256	0.173766
1065.619034	0.174793
1065.783793	0.175951
1065.948535	0.177254
1066.113258	0.177787
1066.277964	0.177622
1066.442651	0.176297
1066.607319	0.174014
1066.771970	0.174426
1066.936602	0.175690
1067.101216	0.176577
1067.265812	0.176224
1067.430389	0.174869
1067.594949	0.173857
1067.759490	0.172795
1067.924013	0.168536
1068.088518	0.168571
1068.253004	0.168652
1068.417472	0.169513
1068.581922	0.170428
1068.746354	0.172331
1068.910768	0.172610
1069.075163	0.169693
1069.239540	0.171800
1069.403899	0.177887
1069.568240	0.178677
1069.732562	0.179581
1069.896866	0.179221
1070.061152	0.178027
1070.225420	0.176125
1070.389670	0.175563
1070.553901	0.179226
1070.718114	0.178497
1070.882309	0.174872
1071.046486	0.177109
1071.210644	0.177218
1071.374784	0.178893
1071.538906	0.178999
1071.703010	0.176412
1071.867096	0.177382
1072.031163	0.177095
1072.195212	0.176570
1072.359243	0.178574
1072.523256	0.177580
1072.687250	0.177240
1072.851226	0.178246
1073.015184	0.179518
1073.179124	0.185425
1073.343045	0.183817
1073.506949	0.184615
1073.670834	0.185620
1073.834701	0.184024
1073.998549	0.183717
1074.162380	0.186149
1074.326192	0.181684
1074.489986	0.180889
1074.653761	0.179717
1074.817519	0.183221
1074.981258	0.182664
1075.144979	0.181809
1075.308682	0.181782
1075.472367	0.180635
1075.636033	0.179209
1075.799681	0.181657
1075.963311	0.182145
1076.126923	0.179376
1076.290516	0.177214
1076.454092	0.178965
1076.617649	0.179942
1076.781187	0.182649
1076.944708	0.184055
1077.108210	0.183862
1077.271695	0.185479
1077.435160	0.185458
1077.598608	0.185916
1077.762038	0.184968
1077.925449	0.180709
1078.088842	0.178993
1078.252217	0.177849
1078.415573	0.175910
1078.578912	0.178277
1078.742232	0.174205
1078.905534	0.174896
1079.068817	0.176566
1079.232083	0.177722
1079.395330	0.181721
1079.558559	0.183141
1079.721770	0.180480
1079.884962	0.184571
1080.048136	0.179683
1080.211293	0.181762
1080.374430	0.179070
1080.537550	0.180137
1080.700651	0.182697
1080.863735	0.178387
1081.026800	0.179226
1081.189846	0.180789
1081.352875	0.178026
1081.515885	0.179887
1081.678877	0.179934
1081.841851	0.182177
1082.004807	0.179014
1082.167744	0.177401
1082.330663	0.180416
1082.493564	0.178360
1082.656447	0.178588
1082.819312	0.181254
1082.982158	0.180721
1083.144986	0.181857
1083.307796	0.180919
1083.470587	0.181852
1083.633361	0.183263
1083.796116	0.182222
1083.958853	0.188042
1084.121571	0.185504
1084.284272	0.183329
1084.446954	0.187617
1084.609618	0.185940
1084.772264	0.186176
1084.934892	0.187015
1085.097501	0.186175
1085.260092	0.188349
1085.422665	0.184627
1085.585220	0.188739
1085.747756	0.189384
1085.910274	0.185368
1086.072774	0.189208
1086.235256	0.187666
1086.397720	0.184694
1086.560165	0.183992
1086.722592	0.182897
1086.885001	0.183643
1087.047392	0.183008
1087.209764	0.185919
1087.372119	0.187934
1087.534455	0.184845
1087.696772	0.189840
1087.859072	0.196693
1088.021353	0.197838
1088.183616	0.199383
1088.345861	0.199090
1088.508088	0.198193
1088.670296	0.195065
1088.832486	0.198456
1088.994658	0.198170
1089.156812	0.196118
1089.318948	0.195081
1089.481065	0.195799
1089.643164	0.193675
1089.805245	0.193905
1089.967308	0.196630
1090.129352	0.196380
1090.291378	0.193357
1090.453386	0.192031
1090.615376	0.191809
1090.777347	0.192360
1090.939301	0.191592
1091.101236	0.193886
1091.263153	0.191396
1091.425051	0.188578
1091.586932	0.189798
1091.748794	0.192468
1091.910638	0.197652
1092.072463	0.198488
1092.234271	0.197070
1092.396060	0.198704
1092.557831	0.195581
1092.719584	0.199726
1092.881319	0.200803
1093.043035	0.203146
1093.204733	0.197397
1093.366413	0.193112
1093.528075	0.192560
1093.689718	0.195786
1093.851343	0.196902
1094.012950	0.199434
1094.174539	0.198902
1094.336110	0.202676
1094.497662	0.200552
1094.659196	0.200184
1094.820712	0.200520
1094.982210	0.199705
1095.143689	0.198568
1095.305151	0.194594
1095.466594	0.191915
1095.628018	0.193561
1095.789425	0.187337
1095.950813	0.189393
1096.112183	0.190921
1096.273535	0.191846
1096.434869	0.196291
1096.596184	0.194276
1096.757482	0.195854
1096.918761	0.199911
1097.080021	0.195295
1097.241264	0.194380
1097.402488	0.194160
1097.563694	0.195175
1097.724882	0.195029
1097.886052	0.190542
1098.047203	0.189619
1098.208336	0.189388
1098.369451	0.191456
1098.530548	0.191055
1098.691627	0.197993
1098.852687	0.197391
1099.013729	0.198891
1099.174753	0.204679
1099.335758	0.207342
1099.496746	0.206117
1099.657715	0.204454
1099.818666	0.200339
1099.979599	0.203243
1100.140513	0.200332
1100.301409	0.198090
1100.462287	0.197594
1100.623147	0.196925
1100.783989	0.195466
1100.944812	0.202664
1101.105617	0.202586
1101.266404	0.200325
1101.427173	0.196222
1101.587923	0.195841
1101.748656	0.197102
1101.909370	0.200507
1102.070066	0.196609
1102.230743	0.192470
1102.391403	0.186811
1102.552044	0.189010
1102.712667	0.188653
1102.873271	0.194917
1103.033858	0.192534
1103.194426	0.194017
1103.354976	0.189540
1103.515508	0.194857
1103.676021	0.200632
1103.836517	0.202227
1103.996994	0.203586
1104.157453	0.208304
1104.317893	0.207963
1104.478316	0.209564
1104.638720	0.208395
1104.799106	0.205460
1104.959474	0.203249
1105.119823	0.199412
1105.280155	0.196335
1105.440468	0.194344
1105.600763	0.192010
1105.761039	0.188155
1105.921298	0.189737
1106.081538	0.184360
1106.241760	0.190274
1106.401964	0.187376
1106.562149	0.192286
1106.722316	0.196577
1106.882465	0.195987
1107.042596	0.198794
1107.202709	0.204259
1107.362803	0.208602
1107.522879	0.218072
1107.682937	0.216647
1107.842977	0.216014
1108.002999	0.214262
1108.163002	0.207597
1108.322987	0.210163
1108.482954	0.205989
1108.642902	0.201124
1108.802833	0.195177
1108.962745	0.189950
1109.122639	0.190544
1109.282515	0.193095
1109.442372	0.187886
1109.602211	0.194865
1109.762032	0.191431
1109.921835	0.193660
1110.081620	0.193387
1110.241386	0.198026
1110.401134	0.205206
1110.560864	0.205589
1110.720576	0.205629
1110.880269	0.212634
1111.039945	0.212722
1111.199602	0.216210
1111.359240	0.218864
1111.518861	0.218829
1111.678463	0.219207
1111.838047	0.212044
1111.997613	0.217347
1112.157161	0.216814
1112.316690	0.213833
1112.476202	0.212738
1112.635695	0.209825
1112.795169	0.208404
1112.954626	0.215538
1113.114064	0.211016
1113.273484	0.215300
1113.432886	0.205103
1113.592270	0.204248
1113.751635	0.206845
1113.910983	0.205972
1114.070312	0.213774
1114.229622	0.212183
1114.388915	0.208689
1114.548189	0.207767
1114.707445	0.208355
1114.866683	0.216998
1115.025903	0.214926
1115.185104	0.210949
1115.344287	0.211571
1115.503452	0.206939
1115.662599	0.210098
1115.821727	0.206043
1115.980838	0.211477
1116.139930	0.209719
1116.299004	0.205399
1116.458059	0.203244
1116.617097	0.203825
1116.776116	0.204184
1116.935117	0.203109
1117.094099	0.203251
1117.253064	0.206688
1117.412010	0.204287
1117.570938	0.197464
1117.729848	0.195895
1117.888740	0.202505
1118.047613	0.204024
1118.206468	0.202621
1118.365305	0.208472
1118.524124	0.206673
1118.682924	0.201693
1118.841707	0.202754
1119.000471	0.210987
1119.159216	0.213443
1119.317944	0.209557
1119.476653	0.207574
1119.635344	0.207606
1119.794017	0.205973
1119.952672	0.199865
1120.111308	0.199892
1120.269927	0.195998
1120.428527	0.192147
1120.587108	0.192789
1120.745672	0.197520
1120.904217	0.197999
1121.062744	0.194422
1121.221253	0.192285
1121.379744	0.201210
1121.538216	0.204504
1121.696671	0.205639
1121.855107	0.203819
1122.013524	0.203162
1122.171924	0.200441
1122.330305	0.199098
1122.488668	0.200342
1122.647013	0.198690
1122.805340	0.193601
1122.963648	0.194409
1123.121938	0.187067
1123.280210	0.185930
1123.438464	0.181214
1123.596700	0.181555
1123.754917	0.186924
1123.913116	0.195677
1124.071297	0.201276
1124.229459	0.202450
1124.387604	0.199790
1124.545730	0.207619
1124.703838	0.215994
1124.861928	0.217094
1125.019999	0.214039
1125.178052	0.209817
1125.336088	0.205759
1125.494104	0.198050
1125.652103	0.197915
1125.810083	0.204468
1125.968045	0.209597
1126.125989	0.209451
1126.283915	0.207607
1126.441823	0.210355
1126.599712	0.213713
1126.757583	0.212163
1126.915436	0.219323
1127.073270	0.225106
1127.231087	0.219393
1127.388885	0.220891
1127.546665	0.217170
1127.704426	0.225448
1127.862170	0.229219
1128.019895	0.232173
1128.177602	0.233814
1128.335291	0.224360
1128.492961	0.215189
1128.650614	0.212313
1128.808248	0.199408
1128.965864	0.200878
1129.123461	0.197744
1129.281041	0.190608
1129.438602	0.182464
1129.596145	0.179119
1129.753670	0.188273
1129.911176	0.190964
1130.068665	0.193678
1130.226135	0.205564
1130.383587	0.205081
1130.541020	0.208243
1130.698436	0.207188
1130.855833	0.209845
1131.013212	0.213730
1131.170573	0.212561
1131.327915	0.214547
1131.485239	0.214944
1131.642545	0.204836
1131.799833	0.207530
1131.957103	0.214224
1132.114354	0.215509
1132.271588	0.217869
1132.428803	0.224226
1132.585999	0.224103
1132.743178	0.224799
1132.900338	0.229019
1133.057480	0.241284
1133.214604	0.241299
1133.371710	0.234384
1133.528797	0.229611
1133.685866	0.228757
1133.842917	0.223103
1133.999950	0.216228
1134.156964	0.215392
1134.313960	0.215205
1134.470938	0.215836
1134.627898	0.218156
1134.784840	0.213955
1134.941763	0.219074
1135.098668	0.219011
1135.255555	0.214555
1135.412424	0.221645
1135.569274	0.225905
1135.726107	0.223939
1135.882921	0.213435
1136.039716	0.208733
1136.196494	0.201904
1136.353253	0.206148
1136.509995	0.204243
1136.666717	0.198210
1136.823422	0.199028
1136.980109	0.198375
1137.136777	0.196517
1137.293427	0.197495
1137.450059	0.191164
1137.606672	0.192470
1137.763267	0.190335
1137.919844	0.187026
1138.076403	0.193792
1138.232944	0.186527
1138.389466	0.179183
1138.545971	0.181026
1138.702457	0.176356
1138.858924	0.183528
1139.015374	0.193690
1139.171805	0.194698
1139.328218	0.201061
1139.484613	0.204379
1139.640990	0.205667
1139.797348	0.213329
1139.953688	0.217689
1140.110010	0.225752
1140.266314	0.231428
1140.422600	0.220716
1140.578867	0.225943
1140.735116	0.233601
1140.891347	0.231916
1141.047559	0.242226
1141.203754	0.240355
1141.359930	0.236828
1141.516088	0.242025
1141.672228	0.234594
1141.828349	0.229438
1141.984452	0.226047
1142.140537	0.217190
1142.296604	0.217099
1142.452653	0.212432
1142.608683	0.214926
1142.764695	0.208952
1142.920689	0.206365
1143.076665	0.202796
1143.232622	0.221930
1143.388562	0.213270
1143.544483	0.209727
1143.700385	0.209316
1143.856270	0.211440
1144.012136	0.213368
1144.167985	0.218373
1144.323814	0.218224
1144.479626	0.231539
1144.635420	0.223368
1144.791195	0.226394
1144.946952	0.227884
1145.102691	0.225445
1145.258411	0.219768
1145.414113	0.214673
1145.569798	0.214698
1145.725463	0.211979
1145.881111	0.197880
1146.036741	0.195559
1146.192352	0.198136
1146.347945	0.198306
1146.503519	0.189485
1146.659076	0.192914
1146.814614	0.180215
1146.970134	0.181231
1147.125636	0.183847
1147.281120	0.188132
1147.436585	0.192666
1147.592032	0.191201
1147.747461	0.190046
1147.902872	0.202840
1148.058265	0.197766
1148.213639	0.211481
1148.368995	0.216683
1148.524333	0.212355
1148.679653	0.197270
1148.834954	0.190583
1148.990237	0.197800
1149.145502	0.196928
1149.300749	0.186396
1149.455977	0.191675
1149.611188	0.186414
1149.766380	0.182724
1149.921553	0.179479
1150.076709	0.194211
1150.231846	0.202337
1150.386966	0.194230
1150.542066	0.193277
1150.697149	0.194920
1150.852214	0.189174
1151.007260	0.197420
1151.162288	0.194235
1151.317298	0.200872
1151.472289	0.205284
1151.627263	0.196259
1151.782218	0.200221
1151.937155	0.204266
1152.092073	0.204284
1152.246974	0.210313
1152.401856	0.192561
1152.556720	0.196232
1152.711566	0.190592
1152.866393	0.187064
1153.021203	0.187257
1153.175994	0.193299
1153.330767	0.196044
1153.485521	0.193353
1153.640258	0.191877
1153.794976	0.198516
1153.949676	0.191395
1154.104358	0.186590
1154.259021	0.183942
1154.413667	0.201135
1154.568294	0.194095
1154.722903	0.185740
1154.877493	0.187219
1155.032066	0.182809
1155.186620	0.192109
1155.341156	0.195084
1155.495674	0.199863
1155.650173	0.204179
1155.804654	0.190602
1155.959118	0.186223
1156.113562	0.196610
1156.267989	0.208249
1156.422397	0.215468
1156.576788	0.213286
1156.731160	0.215072
1156.885513	0.212076
1157.039849	0.197597
1157.194166	0.200979
1157.348465	0.200581
1157.502746	0.197211
1157.657009	0.195228
1157.811253	0.182450
1157.965479	0.168066
1158.119687	0.169825
1158.273877	0.176537
1158.428048	0.181715
1158.582201	0.182200
1158.736337	0.187871
1158.890453	0.177186
1159.044552	0.170055
1159.198632	0.178513
1159.352694	0.191658
1159.506738	0.183100
1159.660764	0.174939
1159.814771	0.190875
1159.968761	0.186833
1160.122732	0.184524
1160.276685	0.195765
1160.430619	0.204169
1160.584535	0.207544
1160.738434	0.219394
1160.892313	0.233454
1161.046175	0.236735
1161.200019	0.224490
1161.353844	0.230143
1161.507651	0.227295
1161.661440	0.232751
1161.815210	0.219542
1161.968962	0.212745
1162.122697	0.187809
1162.276412	0.178938
1162.430110	0.187568
1162.583789	0.190752
1162.737451	0.186953
1162.891094	0.200758
1163.044718	0.198939
1163.198325	0.215435
1163.351913	0.218634
1163.505483	0.234803
1163.659035	0.246057
1163.812569	0.239868
1163.966084	0.227444
1164.119581	0.222766
1164.273060	0.220428
1164.426521	0.211433
1164.579964	0.200462
1164.733388	0.198018
1164.886794	0.197618
1165.040182	0.195020
1165.193551	0.201238
1165.346903	0.210225
1165.500236	0.217387
1165.653551	0.200006
1165.806848	0.205131
1165.960126	0.208038
1166.113386	0.198367
1166.266628	0.212265
1166.419852	0.221643
1166.573058	0.207555
1166.726245	0.212645
1166.879414	0.206666
1167.032565	0.226347
1167.185698	0.236790
1167.338812	0.237707
1167.491909	0.249625
1167.644987	0.238578
1167.798046	0.228803
1167.951088	0.234039
1168.104111	0.216189
1168.257117	0.209941
1168.410103	0.202069
1168.563072	0.186127
1168.716023	0.180110
1168.868955	0.182030
1169.021869	0.182495
1169.174765	0.182243
1169.327642	0.191711
1169.480501	0.196508
1169.633343	0.199955
1169.786165	0.191002
1169.938970	0.196034
1170.091757	0.205209
1170.244525	0.193776
1170.397275	0.190820
1170.550007	0.189853
1170.702720	0.182920
1170.855415	0.184310
1171.008092	0.191582
1171.160751	0.201925
1171.313392	0.205183
1171.466014	0.156290
1171.618619	0.233634
1171.771205	0.233634
1171.923772	0.233634
