sample name	sample
index	1361
start time	 05-03-2021  01:52:43 PM
880	0.393956
Peak Time (s)	91.039
Peak Height 	0.394
calc peak height	90,93
Baseline Time (s)	9.536
Baseline Value 	-0.001452
subtract baseline	10,4
Abs	0.278725
Peak Time (s)	92.537
Peak Height 	0.2787
calc peak height	90,93
Baseline Time (s)	8.535
Baseline Value 	0.004263
subtract baseline	10,3
PK_550	0.160167
Peak Time (s)	92.537
Peak Height 	0.1602
calc peak height	90,93
Baseline Time (s)	11.537
Baseline Value 	3.4349E-4
subtract baseline	10,2
PK_880	0.275481
Peak Time (s)	90.535
Peak Height 	0.2755
calc peak height	90,93
Baseline Time (s)	10.039
Baseline Value 	-2.8647E-4
subtract baseline	10,1


Time (s)	A880-A510	A880-A775	A880-A975	A880	I510	I775	I975	I880	
0.038500	-0.000288	-0.000490	-0.009053	0.004284	6109.028898	42253.578951	3893.327403	21985.031376
0.536000	-0.002933	-0.000277	-0.006203	0.002921	6099.710365	42396.310927	3902.764732	22044.882862
1.039500	0.000353	0.000181	0.000303	0.003138	6122.054201	42418.206800	3917.025496	22035.330545
1.537000	0.001306	0.000291	-0.002842	0.000890	6145.531665	42632.893462	3914.978125	22134.435327
2.037000	-0.002207	-0.000570	-0.004783	0.003690	6099.399586	42300.016260	3904.231620	22011.090434
2.535000	0.001084	-0.000561	0.000729	0.000744	6144.972411	42568.480798	3923.486220	22140.886025
3.035000	0.003113	-0.000043	-0.001444	-0.001369	6175.592755	42809.050355	3923.349697	22234.515053
3.535500	0.002230	0.000411	-0.000895	0.000693	6153.796711	42661.881445	3919.877146	22143.156182
4.038500	-0.000092	-0.000186	-0.007275	0.005853	6099.050713	42139.301238	3893.792398	21916.335405
4.535500	0.000496	-0.001265	-0.002975	-0.000718	6151.409097	42637.749527	3918.346842	22205.656719
5.036000	0.000750	-0.001205	-0.003803	-0.000211	6149.548276	42596.940262	3915.298422	22183.177014
5.539500	0.002706	0.000362	-0.006284	0.000292	6160.267884	42694.090184	3908.518830	22160.887960
6.037000	0.001832	0.000718	0.004026	0.000911	6149.247675	42670.001370	3930.709530	22133.516306
6.536500	0.002553	0.000121	-0.000042	0.000801	6155.371902	42625.523634	3921.585062	22138.352546
7.034000	0.002631	0.000363	-0.004518	0.001072	6153.954324	42622.897956	3910.753728	22126.407771
7.537000	0.001067	-0.000689	-0.002097	0.000542	6146.333317	42575.310132	3917.475085	22149.839705
8.035000	0.000968	-0.001410	-0.002858	-0.000446	6152.880184	42599.598038	3917.990724	22193.566500
8.535000	0.000621	-0.000706	0.000000	-0.000007	6147.088723	42623.840333	3923.538429	22174.130537
9.035500	-0.001310	0.000288	-0.005857	0.004777	6098.019015	42279.263065	3899.369711	21963.407674
9.536000	-0.001178	0.000098	0.000182	0.000000	6133.820379	42696.603032	3923.941300	22173.813575
10.039000	0.000000	-0.000538	0.001126	-0.000542	6146.459605	42688.030686	3927.365687	22197.841199
10.536500	0.001261	-0.000459	0.002978	-0.000008	6151.814691	42646.427818	3930.409081	22174.159621
11.036500	-0.000779	0.000500	-0.000429	0.004265	6105.598766	42344.951965	3912.789359	21985.879528
11.536500	0.003301	0.000000	-0.003886	0.000085	6166.201592	42679.852588	3914.432741	22170.029403
12.034500	0.001451	0.000668	-0.003947	0.000492	6149.534145	42703.779280	3913.370153	22152.054664
12.537500	0.001350	0.000292	-0.004177	-0.000148	6153.502335	42727.947489	3914.303673	22180.378341
13.035000	-0.001380	-0.000704	-0.003895	0.004289	6101.055313	42233.715783	3904.882111	21984.799604
13.535000	0.002152	-0.000302	-0.001471	-0.000599	6162.763752	42714.885237	3921.520373	22200.379253
14.036000	0.003049	-0.000110	-0.002450	-0.000459	6168.368943	42719.561638	3918.956175	22194.156202
14.538500	-0.000016	-0.000119	-0.000598	0.001151	6133.902990	42571.737627	3919.510424	22122.915830
15.036500	-0.003689	0.000097	-0.008219	0.004323	6084.092255	42303.149785	3895.100232	21983.314223
15.569500	0.002081	0.000225	-0.000713	-0.000297	6159.999843	42735.426944	3922.565765	22186.965730
16.037000	-0.001331	0.000137	-0.000728	-0.000733	6138.078598	42767.292743	3923.534074	22206.300832
16.537500	-0.000864	-0.000508	-0.000692	-0.000952	6143.116728	42728.258496	3924.117931	22215.998829
17.037500	-0.002315	-0.000518	-0.001412	0.004355	6093.793061	42244.570628	3910.351614	21981.908585
17.535500	0.000228	-0.000117	0.000321	-0.000608	6148.623992	42732.592487	3925.660697	22200.757423
18.035500	-0.002043	0.000124	0.001907	0.002260	6110.983348	42492.881390	3922.711376	22073.992245
18.538000	0.001986	-0.000025	-0.001208	0.000324	6154.718080	42655.783092	3920.005922	22159.488097
19.038500	0.000702	0.000501	-0.002482	0.002518	6129.142437	42503.646513	3912.091530	22062.607629
19.539000	-0.000685	0.000536	0.004322	0.001449	6126.810704	42604.203009	3930.148895	22109.734377
20.036500	0.000025	-0.000234	0.003965	0.000617	6138.118026	42609.883000	3931.246514	22146.490710
20.536500	0.000179	0.000904	-0.005363	0.001331	6134.007292	42648.619808	3908.249107	22114.945244
21.037000	-0.000568	0.000461	-0.000141	0.003037	6116.072320	42452.809789	3916.243061	22039.786270
21.537500	0.000720	0.000765	0.000544	0.001569	6136.234674	42614.211791	3921.169349	22104.463678
22.034500	0.000445	0.000042	-0.002236	0.000606	6141.282785	42636.102262	3917.008661	22146.991044
22.535000	0.001855	0.000308	0.002790	0.001135	6147.765767	42612.081600	3927.333308	22123.613734
23.035000	0.001631	-0.000160	0.003467	0.000897	6147.872094	42591.098496	3929.446935	22134.131693
23.535500	-0.001109	0.000369	-0.002579	0.001251	6125.162042	42607.088754	3914.755206	22118.503272
24.036500	0.001892	0.000263	0.002857	0.001015	6148.920788	42618.970937	3927.765167	22128.909065
24.535500	-0.000378	0.000300	0.003011	0.001207	6130.839518	42604.829546	3927.678840	22120.435502
25.036000	0.000168	0.000354	-0.004236	0.000828	6137.618901	42644.335695	3911.947434	22137.185088
25.537000	0.002796	0.000825	0.000981	0.001775	6149.988406	42600.866163	3921.697313	22095.360920
26.037000	0.001911	0.001351	-0.000527	0.001758	6143.594607	42650.446755	3918.280432	22096.098378
26.535000	0.001188	0.000372	0.000792	0.001508	6140.123514	42583.974470	3921.877627	22107.169462
27.035000	-0.000790	0.000301	0.001780	0.000937	6129.794282	42629.520855	3925.461603	22132.352240
27.535500	0.002386	0.000965	-0.005461	0.001551	6148.617964	42634.196322	3907.532567	22105.268608
28.038500	0.001757	0.000649	-0.000575	0.004713	6120.804859	42317.781444	3911.437132	21966.210288
28.535500	-0.000072	0.000030	-0.000744	-0.000000	6141.943376	42690.468296	3921.813541	22173.833938
29.036000	0.001616	0.001212	0.001663	0.000400	6151.421548	42761.983543	3926.430515	22156.108238
29.536500	0.001685	0.000309	-0.004553	-0.000004	6154.914132	42716.330664	3913.119503	22173.998872
30.037000	-0.001663	0.000079	-0.000455	0.005496	6090.257787	42195.398638	3909.935454	21931.963612
30.537000	-0.000890	-0.000350	0.002493	0.000092	6135.262118	42647.289573	3929.057904	22169.750944
31.034500	0.003455	0.000580	0.000860	0.000772	6162.259242	42670.089389	3923.724837	22139.665203
31.548500	0.000793	0.000418	0.000302	0.000659	6143.455374	42665.582674	3922.699878	22144.635698
32.035000	-0.003293	-0.000625	-0.002361	0.001969	6104.012063	42451.234467	3913.617480	22086.827408
32.538000	0.000734	0.000550	-0.001244	0.000500	6144.189040	42692.192905	3919.520047	22151.675555
33.038000	-0.000988	-0.000226	-0.005864	0.005954	6091.829520	42126.558342	3896.717758	21911.928049
33.536000	0.000980	0.000122	0.002369	-0.000185	6151.044413	42715.696986	3929.410046	22181.996137
34.036500	-0.001446	-0.001145	0.002561	0.004525	6098.857526	42172.583643	3919.015150	21974.451866
34.541500	0.002687	-0.000034	-0.004667	0.000240	6160.516853	42662.618065	3912.303260	22163.181908
35.037000	-0.000519	0.000141	-0.006374	0.005548	6098.169414	42196.362897	3896.487403	21929.692798
35.537000	0.003343	-0.000368	-0.001718	0.001504	6156.017176	42516.829725	3916.140725	22107.319083
36.037500	0.000049	0.000595	-0.003567	0.002458	6124.800076	42517.627869	3909.765658	22065.257314
36.538000	-0.001066	-0.000167	-0.001441	0.001528	6123.447470	42532.977180	3916.718575	22106.249326
37.040500	-0.000519	-0.000182	-0.001918	0.002827	6117.960563	42413.516062	3912.672616	22049.042110
37.535500	-0.000347	0.000712	-0.004388	0.001917	6125.867447	42577.626653	3909.131916	22089.109564
38.036000	-0.000708	-0.000213	-0.003533	0.001735	6124.555652	42509.971113	3911.484694	22097.153066
38.536500	-0.001248	0.000198	-0.001128	0.001699	6120.877934	42550.661926	3917.043898	22098.740419
39.036000	0.002752	0.001115	0.004073	0.002316	6145.674455	42577.986238	3927.569223	22071.512428
39.537000	0.000196	0.000246	0.000481	0.001492	6132.950000	42573.849745	3921.200231	22107.839901
40.037000	-0.000061	-0.000289	-0.000306	0.001356	6132.064107	42537.512680	3919.707350	22113.854101
40.537000	0.001875	0.000852	-0.001859	0.002073	6141.011088	42576.213929	3914.522304	22082.230303
41.037500	0.001123	0.000642	0.005092	0.001798	6137.508078	42582.053277	3931.122317	22094.341669
41.538000	0.001437	-0.000559	0.000601	0.000957	6146.004207	42549.281027	3922.704319	22131.478280
42.035500	0.000900	0.000024	0.003939	0.001189	6140.344074	42581.204028	3929.863698	22121.209690
42.536000	0.002516	-0.000177	0.001809	0.001336	6151.155681	42549.544792	3924.609900	22114.719368
43.036000	0.001756	-0.000144	-0.000601	0.001511	6144.275998	42536.627103	3918.679309	22107.036238
43.536500	-0.000321	-0.000014	-0.003530	0.001334	6130.322953	42564.588003	3912.401912	22114.818635
44.037000	-0.000744	0.000096	-0.002323	0.001665	6124.803238	42544.506810	3914.395628	22100.231788
44.536500	0.001513	-0.000397	-0.003088	0.001590	6141.902664	42506.425103	3912.824975	22103.537439
45.037000	-0.001286	0.000445	0.001972	0.002641	6113.718403	42487.300918	3921.984474	22057.196939
45.538000	0.005509	0.001082	-0.002617	-0.002342	6200.728515	43001.940296	3922.890641	22277.802127
46.038000	0.002407	0.000262	0.003608	0.000022	6160.058194	42709.686579	3931.801142	22172.855748
46.538000	0.003026	0.000110	-0.000958	-0.000505	6168.541576	42743.935824	3922.481246	22196.176867
47.035500	-0.001006	0.000469	-0.001324	0.005193	6097.212076	42258.014090	3908.650085	21945.204684
47.536000	0.002558	0.000667	-0.000266	-0.000161	6162.529704	42763.463540	3923.279895	22180.945061
48.036000	0.000615	0.000067	0.001696	0.000520	6143.165988	42646.251962	3926.230508	22150.806316
48.536500	0.002360	0.000111	-0.004163	-0.000758	6165.482403	42767.220709	3915.723826	22207.412465
49.036000	-0.001408	0.000836	0.002407	0.004126	6102.038343	42387.964078	3919.577145	21991.967064
49.537000	0.001030	0.000121	-0.005937	0.001365	6140.008047	42574.114133	3906.875982	22113.455951
50.037500	-0.000757	0.000345	-0.002701	0.000265	6134.960035	42694.953331	3916.727285	22162.077139
50.537500	0.000318	-0.000397	0.000818	-0.001215	6153.762668	42762.604623	3928.207028	22227.709999
51.035000	-0.002380	0.001729	-0.000356	0.005639	6084.038745	42331.722920	3909.833050	21925.693154
51.535000	0.004728	0.001322	0.002442	-0.000856	6183.796238	42887.319862	3931.133437	22211.770063
52.036000	0.002564	0.001136	0.000415	0.000352	6158.779998	42759.442754	3923.665931	22158.229132
52.536500	0.002918	-0.000141	0.005879	0.023265	5996.296499	40604.114312	3884.341316	21170.632729
53.036000	0.023146	-0.033522	0.026283	0.608072	3779.460505	12041.475959	3186.629326	7683.388338
53.537000	0.012926	-0.021173	-0.032998	0.008821	6172.795446	40037.710390	3831.863848	21787.109085
54.037000	0.004852	-0.045646	-0.032439	-0.204542	8121.004703	60230.264406	4409.043645	33743.169414
54.537000	0.016100	-0.088674	-0.021969	-0.283017	9307.917858	65099.302644	4746.324447	39843.506536
55.040500	0.012052	-0.077519	-0.019469	-0.267714	9030.791681	64508.702991	4693.413605	38565.823604
55.534500	0.015669	-0.049062	-0.010033	-0.226013	8520.189816	62660.589794	4566.803954	35304.278346
56.035500	0.012630	-0.036278	-0.010977	-0.202441	8189.053827	61196.320015	4476.695343	33594.504067
56.535000	0.011928	-0.031522	-0.012551	-0.196287	8106.996221	61009.266364	4449.330631	33163.267012
57.035500	0.009996	-0.028487	-0.007921	-0.193803	8054.806567	61082.855644	4456.879506	32990.867771
57.535500	0.022398	-0.030466	0.000688	-0.200686	8286.639769	61742.680978	4512.507438	33470.909501
58.036000	0.034395	-0.010660	0.011811	-0.138683	7706.108739	56301.708058	4337.015242	29409.155597
58.536500	0.044480	0.000238	0.032329	-0.077175	7174.901524	50436.025874	4209.850206	25913.916412
59.037000	0.061774	0.012442	0.047320	-0.023643	6836.594294	46128.116508	4100.749282	23249.871178
59.537000	0.081265	0.025059	0.066811	0.018222	6641.381599	43317.745611	4041.714694	21383.567535
60.034500	0.099411	0.037153	0.089313	0.051947	6511.276792	41357.742321	4013.229003	20005.643494
60.535000	0.115899	0.050853	0.107066	0.125297	6074.103892	36432.324131	3882.476376	17353.811239
61.035000	0.135777	0.062813	0.129847	0.140957	6104.608670	36148.499185	3898.304334	16843.381937
61.536000	0.157908	0.074541	0.146688	0.153880	6172.222308	36057.325557	3907.122346	16435.792167
62.036000	0.175515	0.086851	0.164877	0.187416	6056.139176	34479.439758	3873.027101	15432.974124
62.536500	0.187911	0.096566	0.180812	0.231999	5834.185688	32049.152091	3812.514125	14214.259745
63.036000	0.201658	0.104614	0.190177	0.269781	5678.853420	30125.446700	3756.309101	13275.030915
63.537000	0.212810	0.114074	0.207269	0.286965	5641.201017	29646.864032	3756.132764	12874.135950
64.040000	0.212582	0.121902	0.211422	0.304371	5534.068918	29065.110359	3731.154637	12483.899452
64.549500	0.217171	0.127072	0.211883	0.306240	5550.314466	29264.159207	3728.546562	12442.927833
65.035000	0.223802	0.130089	0.213374	0.312382	5553.240978	29075.659763	3719.986549	12309.491643
65.559500	0.225971	0.131080	0.223310	0.311476	5571.747655	29189.936323	3740.081663	12329.059302
66.035000	0.224635	0.131239	0.218639	0.310686	5568.456361	29247.323143	3732.830914	12346.159478
66.536000	0.229666	0.135781	0.225201	0.313983	5578.928087	29322.688504	3738.926567	12275.018793
67.036000	0.233631	0.138833	0.229367	0.317528	5581.476031	29292.833180	3740.091355	12199.152049
67.536500	0.235698	0.139229	0.231799	0.319002	5585.074646	29227.560446	3741.890555	12167.786287
68.036500	0.238039	0.141385	0.236921	0.322338	5579.040738	29156.387333	3745.256794	12097.187294
68.539500	0.239673	0.143932	0.241477	0.326043	5566.529579	29086.680210	3746.865386	12019.414883
69.037500	0.243653	0.144733	0.239553	0.329030	5572.516500	28955.524483	3737.623778	11957.172589
69.535000	0.244821	0.147886	0.249193	0.332857	5556.503814	28915.230150	3748.573818	11878.076241
70.034500	0.244037	0.147481	0.239068	0.334839	5539.952674	28773.098471	3725.933821	11837.387291
70.535500	0.250634	0.150580	0.246772	0.339316	5552.629598	28691.395144	3731.907309	11746.158099
71.035500	0.248177	0.151156	0.239192	0.345259	5502.755422	28375.586460	3707.173291	11626.500280
71.538500	0.253452	0.153662	0.253171	0.343561	5544.091620	28622.604159	3735.920217	11660.521769
72.036000	0.253619	0.153579	0.255992	0.345468	5533.712535	28505.357974	3737.626325	11622.309114
72.536000	0.252127	0.154891	0.245225	0.347904	5510.444415	28439.419371	3713.296676	11573.760186
73.039000	0.252783	0.155837	0.245609	0.355905	5467.483865	28029.104003	3699.592415	11416.178454
73.537000	0.255107	0.157261	0.257199	0.352755	5499.427219	28294.333264	3726.331201	11477.864858
74.037000	0.254168	0.156351	0.250538	0.353316	5490.636270	28208.724617	3713.117033	11466.851018
74.535000	0.258234	0.158445	0.261049	0.355984	5498.829822	28175.446625	3727.477345	11414.642656
75.035000	0.253895	0.157063	0.251629	0.361904	5439.300246	27755.297855	3699.631112	11299.919084
75.535000	0.260467	0.159043	0.257745	0.359758	5489.800279	27991.846716	3714.506081	11341.328828
76.035500	0.256933	0.158659	0.250028	0.361860	5457.040647	27849.041497	3696.858869	11300.766816
76.536000	0.258993	0.160573	0.262930	0.364521	5453.568863	27806.326035	3715.274004	11249.707627
77.036000	0.254854	0.160383	0.259434	0.372205	5386.305482	27360.211899	3695.192507	11104.004406
77.539500	0.260249	0.161038	0.266871	0.368830	5436.024713	27587.533259	3714.605181	11167.678687
78.037000	0.260740	0.161598	0.262888	0.371315	5424.633644	27478.653332	3702.934314	11120.741749
78.537000	0.259776	0.161160	0.267848	0.372673	5411.431755	27377.565259	3709.411270	11095.205251
79.034500	0.259505	0.160621	0.266304	0.380493	5365.980277	26912.406845	3692.682774	10949.702457
79.538000	0.256896	0.160058	0.265685	0.375527	5379.136019	27156.339597	3700.403924	11041.804226
80.035000	0.259289	0.162078	0.263637	0.379931	5367.904193	27023.917064	3688.969575	10960.060659
80.538500	0.263715	0.160357	0.267848	0.380212	5391.102746	26913.337467	3695.914005	10954.881619
81.036000	0.258685	0.158504	0.260998	0.384813	5337.545664	26560.294751	3675.856228	10870.442831
81.535500	0.262953	0.160714	0.263517	0.381930	5377.198763	26838.486343	3685.253741	10923.252711
82.039000	0.264475	0.159909	0.265582	0.381769	5386.623128	26803.064720	3689.157927	10926.196613
82.536500	0.263043	0.159075	0.265817	0.381367	5380.851925	26779.414684	3690.280024	10933.596027
83.034000	0.266337	0.159178	0.268289	0.381879	5396.479571	26757.053684	3693.741541	10924.188038
83.537000	0.267113	0.160783	0.270118	0.384635	5385.347946	26694.077585	3692.102893	10873.689252
84.037500	0.266502	0.159402	0.272125	0.383241	5389.740703	26694.766213	3698.132068	10899.181140
84.535000	0.269231	0.159489	0.276298	0.384468	5398.194390	26632.600947	3703.392544	10876.730405
85.035000	0.269966	0.160948	0.272171	0.385913	5394.200507	26633.404090	3693.472266	10850.379413
85.535500	0.269534	0.160406	0.275615	0.386292	5389.637933	26583.267841	3698.913590	10843.478554
86.036000	0.269867	0.161075	0.279596	0.387609	5384.115798	26548.113334	3703.677071	10819.559430
86.536000	0.267931	0.158467	0.273052	0.386777	5377.931737	26451.864553	3693.502390	10834.660090
87.036500	0.268750	0.160048	0.266229	0.388068	5375.290658	26467.540984	3679.278670	10811.230768
87.536500	0.271903	0.160709	0.278039	0.388764	5389.057532	26465.685655	3698.829518	10798.635587
88.037500	0.270831	0.160352	0.274965	0.388680	5383.514102	26450.936147	3693.521325	10800.153727
88.534500	0.271554	0.158946	0.267079	0.387651	5393.356759	26430.557717	3681.482463	10818.795506
89.037000	0.273079	0.159666	0.271556	0.389387	5392.168239	26375.739702	3686.271265	10787.366361
89.535000	0.273400	0.159431	0.265491	0.388606	5398.373249	26405.181607	3677.066390	10801.490962
90.035500	0.273202	0.159610	0.277335	0.388992	5395.080225	26394.033150	3697.169543	10794.507111
90.535500	0.275481	0.159502	0.274584	0.389047	5407.641138	26385.214856	3692.198017	10793.507444
91.039000	0.270091	0.158741	0.266732	0.393956	5350.019717	26081.588285	3669.985213	10705.249978
91.536000	0.272250	0.158332	0.276556	0.387765	5396.632787	26391.280817	3697.966317	10816.725204
92.036500	0.268532	0.158008	0.274992	0.388099	5373.902330	26355.805013	3694.597220	10810.670639
92.537000	0.270825	0.160167	0.278725	0.389975	5376.227047	26371.019758	3697.893744	10776.747149
93.037000	0.270647	0.159186	0.277356	0.394650	5349.255862	26068.335363	3687.213718	10692.854865
93.535000	0.275223	0.158597	0.280343	0.389456	5403.869692	26314.502183	3701.706800	10786.118257
94.035000	0.275753	0.159909	0.282860	0.389737	5405.278278	26369.983319	3705.715043	10781.046572
94.535500	0.279171	0.160159	0.278233	0.390022	5423.055834	26368.093804	3696.934971	10775.895325
95.035500	0.275262	0.159021	0.274802	0.395385	5370.799825	26020.583824	3681.463304	10679.753729
95.538500	0.273992	0.158278	0.284786	0.390044	5393.609385	26265.862613	3708.630041	10775.511045
96.062000	0.273442	0.158939	0.282010	0.390011	5390.700166	26303.044844	3703.697814	10776.101770
96.536000	0.277385	0.159099	0.277355	0.390243	5411.650189	26299.189329	3694.984083	10771.916470
97.039500	0.273112	0.158328	0.276000	0.395881	5356.091077	25957.601994	3682.688339	10670.923802
97.537000	0.276317	0.158215	0.272798	0.390992	5401.370860	26211.653776	3685.635491	10758.421911
98.034500	0.277443	0.159531	0.275963	0.390680	5409.504183	26298.971707	3691.750304	10764.046715
98.534500	0.277208	0.158966	0.274162	0.391540	5403.302483	26222.506002	3687.065783	10748.555734
99.040500	0.271122	0.156633	0.274126	0.394927	5350.352483	25918.372116	3681.083654	10687.908857
99.536000	0.272877	0.158068	0.283992	0.392994	5370.831891	26096.986522	3701.904621	10722.463528
