sample name	sample
index	1243
start time	 04-29-2021  11:45:37 AM


Wavelength (nm)	Absorbance
494.344910	0.115397
494.563924	0.115397
494.782919	0.115397
495.001897	0.000972
495.220856	0.032184
495.439797	0.006142
495.658719	0.004705
495.877624	-0.019902
496.096510	-0.038369
496.315378	-0.021518
496.534227	-0.037751
496.753059	-0.031972
496.971872	-0.005847
497.190667	0.095642
497.409444	0.128063
497.628203	0.144729
497.846943	0.152835
498.065665	0.155325
498.284369	0.157690
498.503055	0.159273
498.721723	0.160799
498.940372	0.160271
499.159003	0.160082
499.377616	0.161362
499.596210	0.159871
499.814787	0.159121
500.033345	0.160985
500.251885	0.159919
500.470406	0.159955
500.688910	0.159600
500.907395	0.160358
501.125862	0.162386
501.344311	0.162503
501.562742	0.162973
501.781154	0.163921
501.999548	0.163466
502.217924	0.164770
502.436282	0.164783
502.654621	0.163705
502.872942	0.163863
503.091245	0.163136
503.309530	0.164317
503.527797	0.164877
503.746045	0.164242
503.964275	0.163545
504.182487	0.162107
504.400681	0.161760
504.618856	0.163565
504.837013	0.163453
505.055152	0.163895
505.273273	0.161949
505.491376	0.160816
505.709460	0.161348
505.927526	0.162201
506.145574	0.162454
506.363604	0.163185
506.581615	0.162273
506.799608	0.162922
507.017583	0.162605
507.235540	0.162996
507.453478	0.164091
507.671399	0.163539
507.889301	0.163656
508.107185	0.163817
508.325050	0.162634
508.542898	0.162709
508.760727	0.162538
508.978538	0.163432
509.196330	0.164200
509.414105	0.164186
509.631861	0.164853
509.849599	0.164879
510.067319	0.165609
510.285021	0.166855
510.502704	0.167528
510.720369	0.166408
510.938016	0.166407
511.155645	0.167110
511.373255	0.167425
511.590848	0.166571
511.808422	0.167355
512.025977	0.167650
512.243515	0.167847
512.461034	0.168852
512.678536	0.169931
512.896018	0.169657
513.113483	0.168858
513.330930	0.168373
513.548358	0.169237
513.765768	0.168806
513.983160	0.169763
514.200533	0.169579
514.417889	0.168459
514.635226	0.168607
514.852545	0.169737
515.069845	0.170595
515.287128	0.171432
515.504392	0.171985
515.721638	0.172117
515.938866	0.171691
516.156075	0.172519
516.373267	0.172432
516.590440	0.173201
516.807594	0.172730
517.024731	0.172500
517.241850	0.172393
517.458950	0.172248
517.676032	0.172324
517.893095	0.172566
518.110141	0.172707
518.327168	0.173803
518.544177	0.173016
518.761168	0.173001
518.978141	0.173923
519.195095	0.174274
519.412031	0.174708
519.628949	0.174657
519.845849	0.174579
520.062731	0.174425
520.279594	0.175160
520.496439	0.176505
520.713266	0.176703
520.930074	0.176293
521.146865	0.176789
521.363637	0.177693
521.580391	0.178867
521.797127	0.178806
522.013844	0.179082
522.230543	0.178580
522.447224	0.178403
522.663887	0.179000
522.880532	0.179773
523.097158	0.179897
523.313766	0.180277
523.530356	0.180802
523.746928	0.182103
523.963481	0.182827
524.180017	0.183155
524.396534	0.183142
524.613032	0.183287
524.829513	0.183596
525.045975	0.183133
525.262420	0.182476
525.478845	0.181849
525.695253	0.181502
525.911643	0.180982
526.128014	0.181159
526.344367	0.181805
526.560702	0.181884
526.777018	0.181778
526.993316	0.182061
527.209597	0.182120
527.425858	0.182688
527.642102	0.182718
527.858328	0.184051
528.074535	0.184277
528.290724	0.184001
528.506894	0.184606
528.723047	0.185407
528.939181	0.186304
529.155297	0.186669
529.371395	0.186502
529.587475	0.187504
529.803536	0.186926
530.019579	0.188101
530.235604	0.188985
530.451611	0.189026
530.667600	0.188967
530.883570	0.189279
531.099522	0.189460
531.315456	0.191035
531.531372	0.191030
531.747269	0.192252
531.963148	0.191245
532.179009	0.191528
532.394852	0.191460
532.610676	0.191871
532.826482	0.192899
533.042271	0.193409
533.258040	0.193491
533.473792	0.193949
533.689525	0.192996
533.905240	0.193881
534.120937	0.194134
534.336616	0.195453
534.552277	0.195745
534.767919	0.195784
534.983543	0.196427
535.199149	0.196582
535.414736	0.196595
535.630306	0.197624
535.845857	0.197855
536.061390	0.198162
536.276904	0.197711
536.492401	0.198539
536.707879	0.197906
536.923339	0.198079
537.138781	0.198610
537.354204	0.199259
537.569610	0.199243
537.784997	0.199427
538.000366	0.199922
538.215716	0.200369
538.431049	0.199751
538.646363	0.200418
538.861659	0.200777
539.076937	0.200594
539.292196	0.201368
539.507438	0.202206
539.722661	0.203131
539.937866	0.203561
540.153052	0.204218
540.368221	0.204673
540.583371	0.204767
540.798503	0.205231
541.013617	0.205295
541.228712	0.205168
541.443789	0.204939
541.658848	0.204651
541.873889	0.204616
542.088912	0.204096
542.303916	0.204708
542.518902	0.204877
542.733870	0.204621
542.948820	0.204316
543.163752	0.204430
543.378665	0.205027
543.593560	0.205421
543.808437	0.205802
544.023295	0.206911
544.238136	0.207095
544.452958	0.207136
544.667762	0.207370
544.882548	0.208003
545.097315	0.208322
545.312064	0.208629
545.526795	0.208909
545.741508	0.208830
545.956203	0.208541
546.170879	0.209000
546.385537	0.209083
546.600177	0.209961
546.814799	0.210370
547.029402	0.210488
547.243988	0.210750
547.458555	0.211062
547.673103	0.211685
547.887634	0.212116
548.102146	0.212298
548.316640	0.213061
548.531116	0.212906
548.745574	0.213389
548.960013	0.213436
549.174435	0.213321
549.388838	0.213758
549.603222	0.213832
549.817589	0.214061
550.031937	0.214377
550.246267	0.214376
550.460579	0.214743
550.674873	0.215050
550.889148	0.215394
551.103405	0.216047
551.317644	0.215842
551.531865	0.215976
551.746068	0.216153
551.960252	0.216260
552.174418	0.216907
552.388566	0.216785
552.602696	0.216631
552.816807	0.216532
553.030900	0.216268
553.244975	0.216726
553.459032	0.216918
553.673070	0.217460
553.887091	0.217939
554.101093	0.217794
554.315077	0.218500
554.529042	0.218969
554.742990	0.219676
554.956919	0.220130
555.170830	0.220178
555.384722	0.220285
555.598597	0.220336
555.812453	0.220206
556.026291	0.220134
556.240111	0.219715
556.453913	0.219192
556.667696	0.219327
556.881461	0.219187
557.095208	0.219290
557.308937	0.219276
557.522647	0.219368
557.736339	0.219833
557.950013	0.220673
558.163669	0.220906
558.377307	0.221873
558.590926	0.221991
558.804527	0.222307
559.018110	0.222872
559.231675	0.223467
559.445221	0.223619
559.658749	0.223103
559.872259	0.223219
560.085751	0.223290
560.299225	0.223268
560.512680	0.223330
560.726117	0.223478
560.939536	0.222994
561.152937	0.223137
561.366319	0.223630
561.579683	0.223887
561.793029	0.223850
562.006357	0.224661
562.219667	0.224620
562.432958	0.224644
562.646231	0.224594
562.859486	0.224856
563.072723	0.225133
563.285941	0.224516
563.499141	0.224753
563.712323	0.224842
563.925487	0.224721
564.138632	0.224654
564.351760	0.225140
564.564869	0.225233
564.777960	0.225892
564.991032	0.225769
565.204087	0.226450
565.417123	0.226957
565.630141	0.227235
565.843140	0.227007
566.056122	0.227329
566.269085	0.227257
566.482030	0.227426
566.694957	0.227136
566.907866	0.227156
567.120756	0.226792
567.333628	0.226834
567.546482	0.227090
567.759318	0.227103
567.972135	0.227538
568.184935	0.227559
568.397716	0.227771
568.610478	0.227799
568.823223	0.227941
569.035949	0.228576
569.248657	0.228413
569.461347	0.228206
569.674019	0.228654
569.886672	0.228489
570.099308	0.228708
570.311925	0.229122
570.524523	0.229505
570.737104	0.229725
570.949666	0.229370
571.162210	0.228960
571.374736	0.229014
571.587244	0.228664
571.799733	0.228770
572.012205	0.228944
572.224658	0.228765
572.437092	0.228342
572.649509	0.228281
572.861907	0.228651
573.074287	0.228905
573.286649	0.229165
573.498993	0.229827
573.711318	0.229887
573.923625	0.229809
574.135914	0.229761
574.348185	0.230040
574.560438	0.230086
574.772672	0.230136
574.984888	0.230478
575.197086	0.230547
575.409266	0.230502
575.621427	0.230081
575.833570	0.230478
576.045695	0.231108
576.257802	0.231373
576.469890	0.231841
576.681961	0.231916
576.894013	0.232335
577.106046	0.232700
577.318062	0.232985
577.530059	0.233615
577.742039	0.233416
577.954000	0.233632
578.165942	0.233942
578.377867	0.234006
578.589773	0.233953
578.801661	0.233863
579.013531	0.234264
579.225382	0.234245
579.437216	0.234331
579.649031	0.234472
579.860828	0.234272
580.072606	0.234071
580.284367	0.234246
580.496109	0.234341
580.707833	0.234836
580.919539	0.234565
581.131227	0.234792
581.342896	0.235068
581.554547	0.234908
581.766180	0.234982
581.977795	0.235708
582.189391	0.235713
582.400969	0.235952
582.612529	0.236102
582.824071	0.236176
583.035595	0.236105
583.247100	0.236609
583.458587	0.237306
583.670056	0.237512
583.881506	0.237224
584.092939	0.237308
584.304353	0.237930
584.515749	0.238285
584.727127	0.238639
584.938486	0.239430
585.149828	0.239253
585.361151	0.238807
585.572456	0.239001
585.783742	0.239121
585.995011	0.239325
586.206261	0.239013
586.417493	0.238829
586.628706	0.238777
586.839902	0.238471
587.051079	0.238797
587.262238	0.239428
587.473379	0.239955
587.684502	0.240452
587.895606	0.240609
588.106692	0.241445
588.317760	0.241729
588.528810	0.242016
588.739841	0.242206
588.950855	0.242101
589.161850	0.242114
589.372827	0.241750
589.583785	0.242112
589.794726	0.242056
590.005648	0.241778
590.216552	0.242171
590.427437	0.242333
590.638305	0.242471
590.849154	0.242607
591.059985	0.242753
591.270798	0.243293
591.481592	0.242929
591.692369	0.243645
591.903127	0.243734
592.113867	0.243131
592.324588	0.243102
592.535292	0.243199
592.745977	0.243404
592.956644	0.243497
593.167293	0.242950
593.377923	0.243392
593.588536	0.243376
593.799130	0.243583
594.009706	0.244182
594.220263	0.243971
594.430803	0.244474
594.641324	0.244566
594.851827	0.245144
595.062312	0.245513
595.272778	0.245273
595.483227	0.245175
595.693657	0.244989
595.904069	0.244962
596.114462	0.245578
596.324838	0.245161
596.535195	0.245596
596.745534	0.245369
596.955855	0.245770
597.166157	0.246246
597.376441	0.246663
597.586707	0.246885
597.796955	0.247006
598.007185	0.246959
598.217396	0.247367
598.427589	0.247641
598.637764	0.247992
598.847921	0.248146
599.058060	0.248158
599.268180	0.248062
599.478282	0.248332
599.688366	0.248529
599.898431	0.248942
600.108479	0.249172
600.318508	0.248916
600.528519	0.249123
600.738511	0.249086
600.948486	0.249256
601.158442	0.248954
601.368380	0.248868
601.578300	0.248930
601.788202	0.248744
601.998085	0.248708
602.207950	0.248707
602.417797	0.248606
602.627626	0.248683
602.837436	0.248782
603.047228	0.249175
603.257002	0.249468
603.466758	0.249752
603.676496	0.250112
603.886215	0.250225
604.095916	0.250257
604.305599	0.250620
604.515264	0.251151
604.724910	0.251121
604.934538	0.251255
605.144148	0.251646
605.353740	0.251610
605.563314	0.251749
605.772869	0.251782
605.982406	0.252369
606.191925	0.252421
606.401425	0.252460
606.610908	0.252709
606.820372	0.252938
607.029818	0.252809
607.239246	0.252907
607.448655	0.252832
607.658047	0.252972
607.867420	0.253037
608.076775	0.253146
608.286111	0.253219
608.495430	0.253522
608.704730	0.253802
608.914012	0.254046
609.123275	0.254169
609.332521	0.254369
609.541748	0.254712
609.750957	0.254813
609.960148	0.254922
610.169321	0.255036
610.378475	0.255350
610.587611	0.255545
610.796729	0.255420
611.005829	0.255773
611.214910	0.256059
611.423974	0.256361
611.633019	0.256631
611.842045	0.257033
612.051054	0.257017
612.260044	0.257126
612.469017	0.257411
612.677970	0.257858
612.886906	0.258004
613.095824	0.258119
613.304723	0.258303
613.513604	0.258023
613.722467	0.258191
613.931311	0.258504
614.140138	0.258280
614.348946	0.258137
614.557736	0.258045
614.766507	0.257828
614.975261	0.258053
615.183996	0.257855
615.392713	0.258226
615.601412	0.258073
615.810092	0.258027
616.018754	0.258412
616.227399	0.258454
616.436024	0.258806
616.644632	0.259262
616.853222	0.259132
617.061793	0.259460
617.270346	0.259283
617.478880	0.259464
617.687397	0.260027
617.895895	0.259848
618.104375	0.259841
618.312837	0.259982
618.521281	0.260151
618.729706	0.260481
618.938113	0.260362
619.146502	0.260893
619.354873	0.261046
619.563226	0.261129
619.771560	0.261607
619.979876	0.261945
620.188174	0.262170
620.396453	0.262189
620.604715	0.262277
620.812958	0.262441
621.021183	0.262379
621.229390	0.262355
621.437578	0.262076
621.645748	0.261900
621.853900	0.261914
622.062034	0.261843
622.270150	0.262086
622.478247	0.262140
622.686326	0.262536
622.894387	0.263098
623.102430	0.263283
623.310454	0.263836
623.518461	0.264122
623.726449	0.264654
623.934418	0.265119
624.142370	0.265463
624.350303	0.265831
624.558218	0.265854
624.766115	0.265494
624.973994	0.265699
625.181855	0.265491
625.389697	0.265903
625.597521	0.265831
625.805327	0.265691
626.013114	0.265477
626.220883	0.265638
626.428634	0.265714
626.636367	0.265994
626.844082	0.266079
627.051778	0.266336
627.259457	0.266283
627.467117	0.266557
627.674758	0.266843
627.882382	0.267263
628.089987	0.267132
628.297574	0.267285
628.505143	0.267595
628.712694	0.267657
628.920226	0.267846
629.127740	0.267884
629.335236	0.268000
629.542714	0.267723
629.750174	0.267596
629.957615	0.267829
630.165038	0.267932
630.372443	0.267805
630.579829	0.267963
630.787198	0.268289
630.994548	0.268530
631.201880	0.268848
631.409194	0.269161
631.616489	0.269398
631.823766	0.269448
632.031025	0.269557
632.238266	0.269795
632.445489	0.270182
632.652693	0.270226
632.859879	0.270460
633.067047	0.270383
633.274197	0.270662
633.481329	0.270748
633.688442	0.270979
633.895537	0.271255
634.102614	0.271444
634.309672	0.271322
634.516713	0.271136
634.723735	0.271193
634.930739	0.271198
635.137724	0.271270
635.344692	0.271110
635.551641	0.271324
635.758572	0.271346
635.965485	0.271420
636.172379	0.271704
636.379256	0.271934
636.586114	0.272083
636.792954	0.272215
636.999775	0.272363
637.206579	0.272858
637.413364	0.272663
637.620131	0.272860
637.826880	0.272955
638.033610	0.273074
638.240323	0.273279
638.447017	0.273294
638.653692	0.273427
638.860350	0.273658
639.066990	0.273627
639.273611	0.273918
639.480214	0.274147
639.686798	0.274573
639.893365	0.274878
640.099913	0.275017
640.306443	0.275364
640.512955	0.275554
640.719449	0.275521
640.925924	0.275625
641.132381	0.275703
641.338820	0.275876
641.545241	0.275752
641.751644	0.275751
641.958028	0.275893
642.164394	0.275880
642.370742	0.275971
642.577071	0.276368
642.783383	0.276682
642.989676	0.277086
643.195951	0.276981
643.402207	0.277471
643.608446	0.277754
643.814666	0.278101
644.020868	0.278112
644.227052	0.278395
644.433218	0.278526
644.639365	0.278675
644.845494	0.278896
645.051605	0.279248
645.257698	0.279180
645.463772	0.278933
645.669828	0.278729
645.875866	0.279101
646.081886	0.279331
646.287888	0.279625
646.493871	0.279792
646.699836	0.279685
646.905783	0.279913
647.111712	0.280015
647.317622	0.280463
647.523514	0.280718
647.729388	0.280653
647.935244	0.280504
648.141082	0.280414
648.346901	0.280558
648.552702	0.280757
648.758485	0.280942
648.964250	0.281186
649.169996	0.281276
649.375724	0.281567
649.581434	0.281804
649.787126	0.282065
649.992800	0.282242
650.198455	0.282217
650.404092	0.282338
650.609711	0.282517
650.815311	0.282587
651.020894	0.282630
651.226458	0.282578
651.432004	0.282611
651.637532	0.282799
651.843041	0.282705
652.048532	0.282789
652.254006	0.283160
652.459460	0.283076
652.664897	0.283256
652.870315	0.283524
653.075716	0.283603
653.281097	0.283857
653.486461	0.284120
653.691807	0.284455
653.897134	0.284476
654.102443	0.284578
654.307734	0.284859
654.513006	0.284797
654.718261	0.284896
654.923497	0.285375
655.128715	0.285774
655.333915	0.285731
655.539096	0.285989
655.744259	0.286552
655.949404	0.286532
656.154531	0.286888
656.359640	0.287453
656.564730	0.287903
656.769802	0.288220
656.974856	0.287957
657.179892	0.288158
657.384909	0.288179
657.589908	0.288171
657.794889	0.288363
657.999852	0.288438
658.204797	0.288503
658.409723	0.288342
658.614631	0.288247
658.819521	0.288831
659.024393	0.289101
659.229246	0.289489
659.434081	0.289956
659.638898	0.290426
659.843697	0.290641
660.048478	0.290879
660.253240	0.291127
660.457984	0.291297
660.662710	0.291178
660.867417	0.291419
661.072107	0.291627
661.276778	0.291622
661.481431	0.291927
661.686066	0.291925
661.890682	0.291911
662.095281	0.292110
662.299861	0.292252
662.504422	0.292240
662.708966	0.292360
662.913491	0.292425
663.117999	0.292566
663.322488	0.292416
663.526958	0.292631
663.731411	0.292715
663.935845	0.292964
664.140261	0.293349
664.344659	0.293723
664.549038	0.293855
664.753400	0.294015
664.957743	0.294267
665.162068	0.294422
665.366375	0.294832
665.570663	0.295303
665.774933	0.295416
665.979185	0.295397
666.183419	0.295691
666.387635	0.295990
666.591832	0.296139
666.796011	0.296545
667.000172	0.296794
667.204315	0.296706
667.408439	0.297009
667.612545	0.297486
667.816634	0.298085
668.020703	0.298405
668.224755	0.298867
668.428788	0.299158
668.632803	0.299274
668.836800	0.299631
669.040779	0.300160
669.244739	0.300590
669.448681	0.300721
669.652605	0.301052
669.856511	0.301467
670.060399	0.301448
670.264268	0.301636
670.468119	0.301950
670.671952	0.302185
670.875767	0.302036
671.079563	0.301920
671.283341	0.302129
671.487101	0.302138
671.690843	0.302262
671.894567	0.302557
672.098272	0.303016
672.301959	0.303435
672.505628	0.303404
672.709278	0.303826
672.912911	0.304198
673.116525	0.304280
673.320121	0.304298
673.523699	0.304303
673.727258	0.304252
673.930799	0.304217
674.134322	0.303877
674.337827	0.304052
674.541314	0.304048
674.744782	0.303990
674.948232	0.304098
675.151664	0.304136
675.355078	0.304189
675.558474	0.304321
675.761851	0.304528
675.965210	0.304737
676.168551	0.305024
676.371873	0.305411
676.575178	0.305507
676.778464	0.305734
676.981732	0.306141
677.184981	0.306274
677.388213	0.306827
677.591426	0.306932
677.794621	0.307225
677.997798	0.307636
678.200956	0.307642
678.404097	0.308047
678.607219	0.308263
678.810323	0.308280
679.013408	0.308747
679.216476	0.308618
679.419525	0.308900
679.622556	0.309102
679.825569	0.309082
680.028563	0.309428
680.231540	0.309475
680.434498	0.309455
680.637438	0.309635
680.840359	0.309596
681.043263	0.309823
681.246148	0.309926
681.449015	0.310074
681.651864	0.310308
681.854694	0.310125
682.057506	0.310219
682.260301	0.310486
682.463076	0.310659
682.665834	0.310618
682.868573	0.310512
683.071295	0.310890
683.273998	0.311002
683.476682	0.311120
683.679349	0.311539
683.881997	0.311742
684.084627	0.311937
684.287239	0.312298
684.489833	0.312922
684.692408	0.313380
684.894965	0.313306
685.097504	0.313662
685.300025	0.314080
685.502527	0.314412
685.705012	0.314639
685.907478	0.314708
686.109925	0.314695
686.312355	0.314846
686.514766	0.315232
686.717159	0.315583
686.919534	0.315854
687.121891	0.315663
687.324230	0.315760
687.526550	0.316119
687.728852	0.316750
687.931136	0.317028
688.133401	0.317020
688.335649	0.316966
688.537878	0.317077
688.740089	0.317046
688.942281	0.317309
689.144456	0.317565
689.346612	0.317470
689.548750	0.317358
689.750870	0.317738
689.952971	0.318023
690.155055	0.318213
690.357120	0.318327
690.559167	0.318361
690.761195	0.318708
690.963206	0.318639
691.165198	0.318987
691.367172	0.319118
691.569128	0.319017
691.771065	0.318953
691.972984	0.319190
692.174885	0.319386
692.376768	0.319722
692.578633	0.319678
692.780479	0.319801
692.982308	0.319620
693.184118	0.319838
693.385909	0.319930
693.587683	0.320035
693.789438	0.320298
693.991175	0.320205
694.192894	0.320199
694.394595	0.320133
694.596277	0.320372
694.797941	0.320921
694.999587	0.320830
695.201215	0.321041
695.402824	0.321537
695.604416	0.321627
695.805989	0.321897
696.007543	0.322216
696.209080	0.322438
696.410598	0.322640
696.612099	0.322573
696.813580	0.322670
697.015044	0.322970
697.216490	0.322889
697.417917	0.322806
697.619326	0.322984
697.820717	0.322890
698.022089	0.323199
698.223444	0.323208
698.424780	0.323313
698.626098	0.323521
698.827397	0.323355
699.028679	0.323392
699.229942	0.323435
699.431187	0.323557
699.632414	0.323802
699.833622	0.323832
700.034813	0.323820
700.235985	0.323944
700.437139	0.324288
700.638274	0.324211
700.839392	0.324680
701.040491	0.324908
701.241572	0.324983
701.442635	0.325226
701.643679	0.325347
701.844706	0.325441
702.045714	0.325368
702.246704	0.325435
702.447675	0.326092
702.648629	0.325885
702.849564	0.325841
703.050481	0.325926
703.251380	0.325796
703.452260	0.325916
703.653122	0.326156
703.853966	0.326560
704.054792	0.326334
704.255600	0.326105
704.456389	0.326207
704.657160	0.326210
704.857913	0.326023
705.058648	0.326096
705.259365	0.325814
705.460063	0.325450
705.660743	0.325174
705.861405	0.325548
706.062048	0.325678
706.262674	0.325759
706.463281	0.325779
706.663870	0.325891
706.864441	0.325759
707.064993	0.325885
707.265527	0.326177
707.466043	0.326286
707.666541	0.326456
707.867021	0.326488
708.067482	0.326454
708.267925	0.326697
708.468350	0.326890
708.668757	0.327067
708.869145	0.327466
709.069516	0.327626
709.269868	0.327681
709.470201	0.327117
709.670517	0.327057
709.870814	0.327280
710.071093	0.327287
710.271354	0.327439
710.471597	0.327420
710.671821	0.327130
710.872028	0.326940
711.072216	0.327023
711.272385	0.327374
711.472537	0.327467
711.672670	0.327464
711.872785	0.327517
712.072882	0.327605
712.272961	0.327833
712.473021	0.327869
712.673063	0.328007
712.873087	0.327823
713.073093	0.327849
713.273081	0.327909
713.473050	0.327743
713.673001	0.327631
713.872934	0.327560
714.072849	0.327487
714.272745	0.327771
714.472623	0.327664
714.672483	0.327624
714.872325	0.327459
715.072148	0.327288
715.271954	0.327476
715.471741	0.327531
715.671509	0.327502
715.871260	0.327490
716.070992	0.327152
716.270707	0.327364
716.470403	0.327460
716.670080	0.327519
716.869740	0.327496
717.069381	0.327253
717.269004	0.327012
717.468609	0.326685
717.668195	0.326213
717.867764	0.326132
718.067314	0.325893
718.266846	0.326128
718.466360	0.325848
718.665855	0.325690
718.865332	0.325697
719.064791	0.325653
719.264232	0.325468
719.463655	0.325393
719.663059	0.325223
719.862445	0.324962
720.061813	0.324424
720.261163	0.324479
720.460494	0.324257
720.659807	0.323847
720.859102	0.323839
721.058379	0.323902
721.257638	0.324083
721.456878	0.324153
721.656100	0.324496
721.855304	0.324368
722.054490	0.324540
722.253657	0.324579
722.452806	0.325073
722.651937	0.324992
722.851050	0.324994
723.050145	0.325202
723.249221	0.324923
723.448279	0.324571
723.647319	0.324859
723.846340	0.324762
724.045344	0.324846
724.244329	0.324355
724.443296	0.324399
724.642245	0.324222
724.841175	0.324022
725.040088	0.323904
725.238982	0.324000
725.437857	0.323315
725.636715	0.322973
725.835554	0.322619
726.034376	0.322382
726.233179	0.322190
726.431963	0.322136
726.630730	0.321530
726.829478	0.321573
727.028208	0.321158
727.226920	0.321416
727.425614	0.321421
727.624289	0.321327
727.822946	0.321428
728.021585	0.321206
728.220206	0.320886
728.418808	0.320798
728.617392	0.320890
728.815958	0.320686
729.014506	0.320493
729.213036	0.320178
729.411547	0.319989
729.610040	0.319823
729.808515	0.319623
730.006972	0.319583
730.205410	0.319635
730.403831	0.319272
730.602233	0.319345
730.800616	0.319145
730.998982	0.318970
731.197329	0.318783
731.395658	0.318646
731.593969	0.318846
731.792262	0.318696
731.990536	0.318433
732.188793	0.318186
732.387031	0.317907
732.585250	0.317846
732.783452	0.317964
732.981635	0.317912
733.179800	0.317665
733.377947	0.317254
733.576076	0.317241
733.774186	0.317024
733.972278	0.316989
734.170352	0.317078
734.368408	0.316970
734.566446	0.316454
734.764465	0.316279
734.962466	0.316338
735.160449	0.316303
735.358413	0.316194
735.556360	0.316303
735.754288	0.316137
735.952198	0.315990
736.150090	0.316007
736.347963	0.316232
736.545818	0.316128
736.743655	0.315735
736.941474	0.315674
737.139275	0.315500
737.337057	0.315601
737.534821	0.315563
737.732567	0.315400
737.930295	0.315229
738.128005	0.315078
738.325696	0.315032
738.523369	0.315188
738.721024	0.315269
738.918660	0.314938
739.116279	0.314506
739.313879	0.314558
739.511461	0.314610
739.709024	0.314857
739.906570	0.314830
740.104097	0.314912
740.301606	0.314635
740.499097	0.314345
740.696569	0.314411
740.894024	0.314472
741.091460	0.313978
741.288878	0.313515
741.486277	0.313017
741.683659	0.312792
741.881022	0.312432
742.078367	0.312386
742.275694	0.311955
742.473002	0.311699
742.670293	0.311201
742.867565	0.311196
743.064819	0.311115
743.262054	0.310977
743.459272	0.310606
743.656471	0.310498
743.853652	0.310372
744.050815	0.310202
744.247959	0.310193
744.445085	0.310228
744.642194	0.310092
744.839283	0.310073
745.036355	0.309623
745.233408	0.309503
745.430444	0.309417
745.627461	0.309169
745.824459	0.309160
746.021440	0.308904
746.218402	0.308790
746.415346	0.308602
746.612272	0.308312
746.809180	0.308410
747.006069	0.308474
747.202940	0.308242
747.399793	0.308078
747.596628	0.308111
747.793444	0.308055
747.990243	0.307982
748.187023	0.308188
748.383784	0.308120
748.580528	0.308032
748.777253	0.307787
748.973960	0.307461
749.170649	0.307512
749.367320	0.307153
749.563973	0.306920
749.760607	0.306756
749.957223	0.306461
750.153821	0.306210
750.350400	0.305856
750.546962	0.305588
750.743505	0.305725
750.940030	0.305155
751.136536	0.304946
751.333025	0.304643
751.529495	0.304415
751.725947	0.304082
751.922381	0.304100
752.118796	0.303909
752.315194	0.303923
752.511573	0.303625
752.707934	0.303804
752.904276	0.303695
753.100601	0.303602
753.296907	0.303337
753.493195	0.303155
753.689465	0.302954
753.885716	0.302768
754.081949	0.302300
754.278164	0.301999
754.474361	0.301505
754.670540	0.301281
754.866700	0.301180
755.062843	0.301019
755.258967	0.300805
755.455072	0.300359
755.651160	0.300245
755.847229	0.300368
756.043280	0.300223
756.239313	0.300523
756.435328	0.300555
756.631324	0.300538
756.827302	0.300446
757.023262	0.300370
757.219204	0.300358
757.415127	0.300215
757.611033	0.300075
757.806920	0.300038
758.002788	0.299406
758.198639	0.299189
758.394471	0.299277
758.590286	0.299250
758.786081	0.299357
758.981859	0.299194
759.177619	0.299160
759.373360	0.299097
759.569083	0.299235
759.764788	0.299587
759.960474	0.299267
760.156143	0.298943
760.351793	0.298803
760.547425	0.298678
760.743038	0.298866
760.938634	0.298523
761.134211	0.298129
761.329770	0.297597
761.525311	0.297130
761.720833	0.297176
761.916338	0.296951
762.111824	0.296595
762.307292	0.296122
762.502741	0.295769
762.698173	0.295866
762.893586	0.296087
763.088981	0.295949
763.284358	0.296294
763.479716	0.296314
763.675057	0.296436
763.870379	0.296536
764.065683	0.296637
764.260968	0.296713
764.456236	0.296674
764.651485	0.296366
764.846716	0.296311
765.041929	0.295682
765.237123	0.295308
765.432299	0.295361
765.627457	0.295267
765.822597	0.295083
766.017719	0.295153
766.212822	0.295153
766.407907	0.295255
766.602974	0.295377
766.798023	0.295458
766.993054	0.295448
767.188066	0.295291
767.383060	0.295269
767.578036	0.295367
767.772993	0.294934
767.967933	0.294793
768.162854	0.294519
768.357757	0.294716
768.552642	0.294692
768.747508	0.294701
768.942356	0.294615
769.137186	0.294468
769.331998	0.294327
769.526792	0.294681
769.721567	0.294601
769.916324	0.294928
770.111063	0.294682
770.305784	0.294781
770.500486	0.294939
770.695171	0.294479
770.889837	0.294549
771.084484	0.294432
771.279114	0.294054
771.473725	0.294111
771.668318	0.293656
771.862893	0.293460
772.057450	0.293339
772.251988	0.292953
772.446509	0.293027
772.641011	0.292721
772.835494	0.292604
773.029960	0.292565
773.224407	0.292258
773.418836	0.292289
773.613247	0.292381
773.807640	0.292293
774.002014	0.292447
774.196370	0.292555
774.390708	0.292724
774.585028	0.292847
774.779330	0.292883
774.973613	0.293312
775.167878	0.293195
775.362125	0.293165
775.556354	0.293171
775.750564	0.293057
775.944756	0.292922
776.138930	0.292880
776.333086	0.292650
776.527223	0.292633
776.721343	0.292238
776.915444	0.292232
777.109526	0.292129
777.303591	0.292055
777.497637	0.292157
777.691666	0.291998
777.885676	0.291713
778.079667	0.291940
778.273641	0.291935
778.467596	0.292052
778.661533	0.292090
778.855452	0.292206
779.049352	0.292286
779.243235	0.292395
779.437099	0.292649
779.630945	0.292892
779.824773	0.292891
780.018582	0.292914
780.212373	0.292805
780.406146	0.292868
780.599901	0.292611
780.793638	0.292545
780.987356	0.292421
781.181056	0.292179
781.374738	0.292171
781.568402	0.292147
781.762047	0.292210
781.955674	0.292439
782.149283	0.292325
782.342874	0.292496
782.536447	0.292562
782.730001	0.292349
782.923537	0.292505
783.117055	0.292376
783.310555	0.292300
783.504036	0.291868
783.697499	0.291631
783.890944	0.291742
784.084371	0.291926
784.277780	0.291887
784.471170	0.292124
784.664542	0.292069
784.857896	0.292339
785.051231	0.292349
785.244549	0.292791
785.437848	0.293031
785.631129	0.293145
785.824392	0.293138
786.017636	0.293372
786.210863	0.293672
786.404071	0.293604
786.597260	0.293715
786.790432	0.293961
786.983585	0.294298
787.176721	0.294353
787.369838	0.294356
787.562936	0.294443
787.756017	0.294291
787.949079	0.294286
788.142123	0.294825
788.335149	0.294999
788.528156	0.295111
788.721146	0.294906
788.914117	0.294847
789.107070	0.294919
789.300005	0.295073
789.492921	0.295416
789.685819	0.295354
789.878699	0.295257
790.071561	0.295343
790.264405	0.295553
790.457230	0.295858
790.650037	0.296204
790.842826	0.296384
791.035597	0.296614
791.228349	0.296616
791.421084	0.297134
791.613800	0.297367
791.806497	0.297422
791.999177	0.297707
792.191838	0.297642
792.384481	0.297553
792.577106	0.297750
792.769713	0.297786
792.962301	0.298100
793.154871	0.297932
793.347423	0.298174
793.539957	0.298125
793.732473	0.297955
793.924970	0.298189
794.117449	0.298377
794.309910	0.298402
794.502353	0.298538
794.694777	0.298490
794.887183	0.298588
795.079571	0.298501
795.271941	0.298721
795.464293	0.299217
795.656626	0.299252
795.848941	0.299451
796.041238	0.299578
796.233516	0.299642
796.425777	0.299826
796.618019	0.299827
796.810243	0.300111
797.002449	0.300444
797.194636	0.300248
797.386805	0.300457
797.578956	0.300713
797.771089	0.301272
797.963204	0.301658
798.155300	0.301852
798.347378	0.302348
798.539438	0.302581
798.731480	0.302602
798.923503	0.302911
799.115509	0.303226
799.307496	0.303235
799.499465	0.302881
799.691415	0.303048
799.883348	0.303089
800.075262	0.303186
800.267158	0.303314
800.459035	0.303536
800.650895	0.303763
800.842736	0.303702
801.034559	0.304015
801.226364	0.304491
801.418150	0.304812
801.609919	0.305242
801.801669	0.305389
801.993401	0.305310
802.185114	0.305839
802.376810	0.305897
802.568487	0.305959
802.760146	0.305862
802.951787	0.306084
803.143409	0.305606
803.335014	0.305508
803.526600	0.305454
803.718168	0.305408
803.909717	0.305091
804.101249	0.305105
804.292762	0.305068
804.484257	0.305520
804.675734	0.305502
804.867192	0.305875
805.058632	0.306158
805.250054	0.306309
805.441458	0.306847
805.632844	0.307203
805.824211	0.307488
806.015561	0.308373
806.206891	0.308462
806.398204	0.309042
806.589499	0.309534
806.780775	0.309920
806.972033	0.310656
807.163273	0.311035
807.354495	0.311442
807.545698	0.311821
807.736883	0.312053
807.928050	0.312677
808.119199	0.312955
808.310329	0.313186
808.501441	0.313339
808.692535	0.313495
808.883611	0.313937
809.074669	0.314038
809.265708	0.314256
809.456729	0.314455
809.647732	0.314600
809.838717	0.314810
810.029683	0.315055
810.220632	0.315656
810.411562	0.316280
810.602474	0.316571
810.793367	0.316949
810.984242	0.317450
811.175100	0.318050
811.365938	0.318053
811.556759	0.318233
811.747562	0.318469
811.938346	0.318571
812.129112	0.318757
812.319860	0.318779
812.510589	0.319043
812.701300	0.319347
812.891994	0.319271
813.082668	0.319779
813.273325	0.320125
813.463964	0.320582
813.654584	0.320873
813.845186	0.320937
814.035769	0.321455
814.226335	0.321900
814.416882	0.322242
814.607411	0.322409
814.797922	0.322622
814.988415	0.322977
815.178889	0.323227
815.369345	0.323493
815.559783	0.323652
815.750203	0.324127
815.940605	0.324477
816.130988	0.324773
816.321353	0.325238
816.511700	0.325495
816.702028	0.325742
816.892339	0.326108
817.082631	0.326337
817.272905	0.326846
817.463161	0.326913
817.653398	0.327111
817.843617	0.327049
818.033819	0.327422
818.224001	0.327851
818.414166	0.328174
818.604312	0.328166
818.794440	0.328581
818.984550	0.328425
819.174642	0.328834
819.364716	0.329272
819.554771	0.329776
819.744808	0.329901
819.934827	0.330397
820.124827	0.330507
820.314810	0.330927
820.504774	0.331356
820.694720	0.332264
820.884647	0.332419
821.074557	0.332750
821.264448	0.332943
821.454321	0.333701
821.644176	0.333741
821.834012	0.334200
822.023831	0.334966
822.213631	0.335259
822.403413	0.335645
822.593176	0.335979
822.782922	0.336183
822.972649	0.336763
823.162358	0.336944
823.352049	0.337617
823.541721	0.338415
823.731376	0.338695
823.921012	0.338831
824.110629	0.339048
824.300229	0.339537
824.489811	0.339979
824.679374	0.340222
824.868919	0.340216
825.058445	0.340643
825.247954	0.340360
825.437444	0.340742
825.626916	0.341068
825.816370	0.341360
826.005806	0.341663
826.195223	0.342133
826.384622	0.342715
826.574003	0.343287
826.763366	0.343461
826.952711	0.344075
827.142037	0.344155
827.331345	0.344861
827.520635	0.345313
827.709906	0.345880
827.899160	0.346096
828.088395	0.346435
828.277612	0.346722
828.466810	0.347315
828.655991	0.347815
828.845153	0.348039
829.034297	0.348238
829.223423	0.348480
829.412531	0.348816
829.601620	0.349474
829.790691	0.349425
829.979744	0.349901
830.168779	0.349789
830.357795	0.350171
830.546793	0.351115
830.735773	0.351531
830.924735	0.351902
831.113679	0.352302
831.302604	0.352590
831.491511	0.353220
831.680400	0.353777
831.869271	0.354755
832.058123	0.355370
832.246957	0.355715
832.435773	0.355947
832.624571	0.356192
832.813351	0.356518
833.002112	0.356822
833.190855	0.357365
833.379580	0.357704
833.568287	0.357819
833.756975	0.357757
833.945645	0.357918
834.134297	0.358733
834.322931	0.359552
834.511547	0.360079
834.700144	0.360722
834.888723	0.361169
835.077284	0.361763
835.265826	0.362407
835.454351	0.362929
835.642857	0.363359
835.831345	0.363755
836.019815	0.364185
836.208266	0.364414
836.396699	0.364569
836.585114	0.365097
836.773511	0.365226
836.961890	0.365588
837.150250	0.366519
837.338592	0.366990
837.526916	0.367475
837.715222	0.368113
837.903510	0.368995
838.091779	0.369573
838.280030	0.370257
838.468263	0.370762
838.656477	0.371301
838.844674	0.371745
839.032852	0.372469
839.221012	0.373022
839.409153	0.373646
839.597277	0.373714
839.785382	0.374319
839.973469	0.374368
840.161538	0.374966
840.349589	0.375340
840.537621	0.375787
840.725635	0.376045
840.913631	0.376606
841.101609	0.377091
841.289568	0.377790
841.477509	0.378494
841.665432	0.378886
841.853337	0.379649
842.041224	0.380187
842.229092	0.380465
842.416942	0.380928
842.604774	0.381098
842.792588	0.381394
842.980383	0.381864
843.168160	0.381584
843.355919	0.382162
843.543660	0.382522
843.731382	0.382904
843.919087	0.383187
844.106773	0.383764
844.294441	0.384206
844.482090	0.384381
844.669722	0.384707
844.857335	0.385604
845.044930	0.386010
845.232507	0.386494
845.420065	0.387073
845.607605	0.387699
845.795127	0.388364
845.982631	0.388989
846.170117	0.389474
846.357584	0.389872
846.545033	0.390108
846.732464	0.390648
846.919877	0.391038
847.107272	0.391474
847.294648	0.392027
847.482006	0.392551
847.669346	0.393111
847.856667	0.393402
848.043971	0.393934
848.231256	0.394761
848.418523	0.395218
848.605771	0.395642
848.793002	0.396234
848.980214	0.396498
849.167408	0.396711
849.354584	0.397011
849.541742	0.397790
849.728881	0.398308
849.916002	0.398531
850.103105	0.399094
850.290190	0.399531
850.477256	0.399988
850.664304	0.400519
850.851334	0.400786
851.038346	0.401232
851.225340	0.401399
851.412315	0.401957
851.599272	0.402615
851.786211	0.402724
851.973132	0.402959
852.160034	0.402898
852.346918	0.403260
852.533784	0.403712
852.720632	0.404164
852.907462	0.404923
853.094273	0.405456
853.281066	0.405560
853.467841	0.406209
853.654598	0.406655
853.841336	0.407386
854.028056	0.407571
854.214758	0.407780
854.401442	0.408247
854.588107	0.408434
854.774755	0.408637
854.961384	0.409243
855.147995	0.409602
855.334587	0.410183
855.521162	0.410809
855.707718	0.411582
855.894256	0.412453
856.080775	0.412792
856.267277	0.413603
856.453760	0.414059
856.640225	0.414727
856.826672	0.415243
857.013101	0.415870
857.199511	0.416513
857.385903	0.417029
857.572277	0.417320
857.758633	0.418015
857.944970	0.418292
858.131290	0.419160
858.317591	0.419714
858.503873	0.420075
858.690138	0.420408
858.876384	0.420385
859.062612	0.420587
859.248822	0.420946
859.435014	0.421167
859.621188	0.421271
859.807343	0.421455
859.993480	0.422186
860.179599	0.422838
860.365699	0.423394
860.551781	0.424289
860.737846	0.425477
860.923891	0.426268
861.109919	0.426744
861.295929	0.427766
861.481920	0.428129
861.667893	0.428152
861.853848	0.428576
862.039784	0.428940
862.225702	0.428973
862.411603	0.428942
862.597484	0.429166
862.783348	0.429832
862.969193	0.429301
863.155021	0.429533
863.340830	0.429423
863.526620	0.429765
863.712393	0.429726
863.898147	0.430238
864.083883	0.430208
864.269601	0.430613
864.455301	0.430475
864.640982	0.431455
864.826645	0.432106
865.012290	0.432647
865.197917	0.432972
865.383526	0.433842
865.569116	0.433790
865.754688	0.434176
865.940242	0.434412
866.125777	0.434976
866.311295	0.435419
866.496794	0.435545
866.682275	0.436077
866.867737	0.436478
867.053182	0.436499
867.238608	0.437303
867.424016	0.437877
867.609406	0.438083
867.794778	0.438512
867.980131	0.438758
868.165466	0.439195
868.350783	0.439113
868.536082	0.439408
868.721362	0.439847
868.906625	0.439866
869.091869	0.439916
869.277094	0.440396
869.462302	0.440555
869.647491	0.440768
869.832662	0.440477
870.017815	0.440882
870.202950	0.441448
870.388066	0.441242
870.573165	0.441438
870.758245	0.441648
870.943306	0.441779
871.128350	0.442060
871.313375	0.442429
871.498382	0.442989
871.683371	0.443301
871.868342	0.443392
872.053294	0.444238
872.238229	0.444591
872.423144	0.444790
872.608042	0.445747
872.792922	0.445843
872.977783	0.446158
873.162626	0.446422
873.347451	0.446855
873.532258	0.446755
873.717046	0.446661
873.901816	0.446881
874.086568	0.447704
874.271302	0.447035
874.456017	0.447142
874.640715	0.447221
874.825394	0.447664
875.010055	0.447591
875.194697	0.447874
875.379322	0.448053
875.563928	0.448407
875.748516	0.448560
875.933085	0.448674
876.117637	0.449356
876.302170	0.449396
876.486685	0.449452
876.671182	0.449964
876.855661	0.450305
877.040121	0.450685
877.224563	0.451147
877.408987	0.451103
877.593393	0.451929
877.777780	0.451774
877.962150	0.451721
878.146501	0.452031
878.330833	0.451832
878.515148	0.451552
878.699444	0.451585
878.883722	0.451224
879.067982	0.451531
879.252224	0.451218
879.436447	0.451051
879.620653	0.451279
879.804840	0.451497
879.989008	0.452040
880.173159	0.452306
880.357291	0.452739
880.541405	0.453007
880.725501	0.453445
880.909579	0.453955
881.093638	0.454673
881.277680	0.455253
881.461703	0.455734
881.645707	0.455940
881.829694	0.456288
882.013662	0.456655
882.197612	0.456871
882.381544	0.456930
882.565458	0.456727
882.749353	0.456339
882.933230	0.456272
883.117089	0.455875
883.300930	0.455722
883.484753	0.455778
883.668557	0.455525
883.852343	0.455815
884.036111	0.455340
884.219861	0.455810
884.403592	0.456439
884.587305	0.456267
884.771000	0.456411
884.954677	0.456341
885.138335	0.457038
885.321976	0.457522
885.505598	0.457747
885.689201	0.457737
885.872787	0.457424
886.056354	0.457492
886.239904	0.458085
886.423434	0.458270
886.606947	0.458333
886.790442	0.458085
886.973918	0.457488
887.157376	0.457490
887.340816	0.457897
887.524237	0.458168
887.707641	0.457903
887.891026	0.457692
888.074393	0.457330
888.257741	0.457730
888.441072	0.457596
888.624384	0.457774
888.807678	0.457316
888.990954	0.457363
889.174211	0.457410
889.357451	0.457768
889.540672	0.457443
889.723875	0.457213
889.907059	0.456960
890.090226	0.456927
890.273374	0.456651
890.456504	0.456690
890.639616	0.456204
890.822709	0.456512
891.005785	0.456414
891.188842	0.456915
891.371881	0.456903
891.554901	0.457116
891.737904	0.457507
891.920888	0.457963
892.103854	0.458134
892.286802	0.458105
892.469731	0.457409
892.652643	0.456540
892.835536	0.456345
893.018410	0.456601
893.201267	0.456393
893.384106	0.455911
893.566926	0.455356
893.749728	0.455146
893.932511	0.455029
894.115277	0.455178
894.298024	0.455868
894.480753	0.455456
894.663464	0.455061
894.846157	0.455058
895.028831	0.454988
895.211487	0.455207
895.394125	0.454925
895.576745	0.454972
895.759346	0.454917
895.941930	0.453934
896.124495	0.453907
896.307041	0.454415
896.489570	0.453927
896.672080	0.454249
896.854573	0.453717
897.037046	0.453697
897.219502	0.453402
897.401940	0.452471
897.584359	0.452649
897.766760	0.452122
897.949143	0.451921
898.131507	0.451025
898.313854	0.450349
898.496182	0.450612
898.678492	0.450094
898.860783	0.450459
899.043057	0.450737
899.225312	0.450893
899.407549	0.451185
899.589768	0.450679
899.771968	0.451083
899.954151	0.450668
900.136315	0.450492
900.318461	0.450649
900.500588	0.449986
900.682698	0.450409
900.864789	0.449575
901.046862	0.448550
901.228917	0.447950
901.410953	0.446884
901.592971	0.445804
901.774972	0.444991
901.956953	0.444073
902.138917	0.443670
902.320862	0.442396
902.502790	0.442532
902.684699	0.442938
902.866589	0.442626
903.048462	0.443248
903.230316	0.443470
903.412152	0.443142
903.593970	0.442719
903.775770	0.442438
903.957551	0.442245
904.139314	0.441360
904.321059	0.440285
904.502786	0.439783
904.684494	0.438869
904.866185	0.438373
905.047857	0.438006
905.229510	0.438040
905.411146	0.437171
905.592763	0.436678
905.774363	0.436974
905.955943	0.436845
906.137506	0.436375
906.319051	0.436606
906.500577	0.436614
906.682085	0.436108
906.863575	0.435140
907.045046	0.435081
907.226500	0.434846
907.407935	0.434115
907.589352	0.433580
907.770750	0.433158
907.952131	0.432613
908.133493	0.432277
908.314837	0.432157
908.496163	0.432067
908.677470	0.431875
908.858760	0.431082
909.040031	0.431026
909.221284	0.430809
909.402518	0.430561
909.583735	0.429934
909.764933	0.428207
909.946113	0.427726
910.127275	0.427525
910.308418	0.426186
910.489544	0.425530
910.670651	0.424464
910.851740	0.424654
911.032810	0.423440
911.213863	0.422950
911.394897	0.422921
911.575913	0.421938
911.756911	0.421172
911.937890	0.421282
912.118851	0.420974
912.299794	0.420695
912.480719	0.419789
912.661626	0.420251
912.842514	0.419592
913.023384	0.419521
913.204236	0.419186
913.385070	0.418376
913.565886	0.418233
913.746683	0.417538
913.927462	0.416640
914.108223	0.415782
914.288965	0.415075
914.469690	0.414826
914.650396	0.414103
914.831084	0.414370
915.011754	0.413551
915.192405	0.413008
915.373038	0.412967
915.553653	0.412838
915.734250	0.411183
915.914829	0.409934
916.095389	0.409310
916.275931	0.408931
916.456455	0.406977
916.636961	0.407117
916.817448	0.405667
916.997917	0.404560
917.178368	0.403267
917.358801	0.403656
917.539216	0.403043
917.719612	0.401458
917.899990	0.400207
918.080350	0.400463
918.260692	0.399171
918.441015	0.398833
918.621320	0.397794
918.801607	0.396882
918.981876	0.395832
919.162127	0.395945
919.342359	0.395546
919.522573	0.395119
919.702769	0.394804
919.882947	0.394564
920.063106	0.393518
920.243247	0.392941
920.423370	0.392573
920.603475	0.391820
920.783562	0.390255
920.963630	0.389949
921.143680	0.389869
921.323712	0.387590
921.503725	0.387041
921.683721	0.386446
921.863698	0.385157
922.043657	0.383860
922.223598	0.382939
922.403520	0.381967
922.583424	0.380307
922.763311	0.378972
922.943178	0.378338
923.123028	0.376910
923.302859	0.376098
923.482673	0.375721
923.662467	0.375526
923.842244	0.375160
924.022003	0.374555
924.201743	0.374566
924.381465	0.373706
924.561169	0.373618
924.740854	0.372859
924.920522	0.371219
925.100171	0.370708
925.279802	0.369560
925.459414	0.368013
925.639009	0.367377
925.818585	0.366503
925.998143	0.364771
926.177683	0.362997
926.357205	0.361793
926.536708	0.361041
926.716193	0.359555
926.895660	0.358279
927.075109	0.357129
927.254539	0.356588
927.433951	0.354598
927.613345	0.353892
927.792721	0.353514
927.972079	0.352258
928.151418	0.350891
928.330739	0.349259
928.510042	0.347732
928.689327	0.346558
928.868593	0.344228
929.047841	0.343535
929.227071	0.342205
929.406283	0.340611
929.585476	0.339557
929.764652	0.338535
929.943809	0.338518
930.122948	0.338440
930.302068	0.338417
930.481171	0.338293
930.660255	0.337834
930.839321	0.337474
931.018369	0.336553
931.197398	0.335571
931.376409	0.335148
931.555402	0.334480
931.734377	0.333268
931.913334	0.331047
932.092272	0.328757
932.271192	0.327716
932.450094	0.326096
932.628978	0.325850
932.807844	0.324985
932.986691	0.323352
933.165520	0.322250
933.344331	0.321578
933.523123	0.322173
933.701898	0.321239
933.880654	0.319592
934.059392	0.317988
934.238111	0.315893
934.416813	0.314683
934.595496	0.313795
934.774161	0.311806
934.952808	0.309847
935.131437	0.307833
935.310047	0.307600
935.488639	0.306549
935.667213	0.306359
935.845769	0.304972
936.024306	0.304357
936.202825	0.303181
936.381326	0.302406
936.559809	0.301035
936.738274	0.299809
936.916720	0.298234
937.095148	0.297167
937.273558	0.295316
937.451950	0.293253
937.630323	0.290265
937.808678	0.289179
937.987015	0.287297
938.165334	0.286724
938.343635	0.285328
938.521917	0.283942
938.700181	0.282729
938.878427	0.283065
939.056655	0.282508
939.234864	0.282632
939.413055	0.282323
939.591228	0.282032
939.769383	0.281322
939.947519	0.280617
940.125638	0.279877
940.303738	0.278716
940.481820	0.276439
940.659883	0.274452
940.837929	0.273814
941.015956	0.271987
941.193965	0.271376
941.371955	0.270042
941.549928	0.267705
941.727882	0.266788
941.905818	0.265581
942.083736	0.264944
942.261636	0.265078
942.439517	0.263830
942.617380	0.263233
942.795225	0.260503
942.973052	0.259097
943.150860	0.258932
943.328651	0.257583
943.506423	0.255938
943.684176	0.254341
943.861912	0.253798
944.039629	0.251554
944.217328	0.249390
944.395009	0.247830
944.572672	0.246873
944.750317	0.244190
944.927943	0.242846
945.105551	0.243062
945.283141	0.242001
945.460712	0.240131
945.638265	0.238807
945.815801	0.238708
945.993317	0.238734
946.170816	0.237579
946.348297	0.236195
946.525759	0.233693
946.703203	0.231431
946.880629	0.230352
947.058036	0.228969
947.235425	0.228133
947.412797	0.225095
947.590149	0.224068
947.767484	0.220674
947.944800	0.220784
948.122099	0.221610
948.299379	0.220017
948.476640	0.216652
948.653884	0.215017
948.831109	0.215860
949.008316	0.216380
949.185505	0.214590
949.362676	0.213923
949.539828	0.212633
949.716962	0.212179
949.894078	0.210323
950.071176	0.210264
950.248256	0.210162
950.425317	0.206219
950.602360	0.203258
950.779385	0.202274
950.956391	0.201494
951.133380	0.199861
951.310350	0.197832
951.487302	0.197011
951.664235	0.197954
951.841151	0.196766
952.018048	0.195774
952.194927	0.194061
952.371788	0.193154
952.548631	0.192079
952.725455	0.191849
952.902261	0.188758
953.079049	0.187456
953.255819	0.186610
953.432570	0.185465
953.609303	0.184088
953.786018	0.183612
953.962715	0.181173
954.139394	0.181306
954.316054	0.181000
954.492696	0.179845
954.669320	0.178207
954.845926	0.174803
955.022513	0.174274
955.199083	0.175216
955.375634	0.175028
955.552166	0.174796
955.728681	0.172820
955.905177	0.171194
956.081655	0.170768
956.258115	0.170877
956.434557	0.171091
956.610980	0.168229
956.787385	0.167243
956.963772	0.168533
957.140141	0.166655
957.316492	0.165860
957.492824	0.163732
957.669138	0.163300
957.845434	0.163444
958.021712	0.163032
958.197971	0.161511
958.374212	0.160256
958.550435	0.157532
958.726640	0.158206
958.902826	0.158076
959.078995	0.158092
959.255145	0.156894
959.431277	0.155944
959.607390	0.152925
959.783486	0.155360
959.959563	0.153729
960.135622	0.153507
960.311662	0.153003
960.487685	0.153913
960.663689	0.153801
960.839675	0.154719
961.015643	0.155745
961.191593	0.156670
961.367524	0.155056
961.543437	0.156455
961.719332	0.156455
961.895209	0.156307
962.071067	0.154677
962.246907	0.155220
962.422730	0.153760
962.598533	0.151720
962.774319	0.152030
962.950086	0.153203
963.125835	0.151579
963.301566	0.153408
963.477279	0.152816
963.652973	0.153356
963.828650	0.150432
964.004308	0.151188
964.179947	0.152185
964.355569	0.151927
964.531172	0.150888
964.706757	0.152609
964.882324	0.151964
965.057873	0.152864
965.233403	0.152007
965.408916	0.153476
965.584410	0.153624
965.759885	0.153593
965.935343	0.154107
966.110782	0.153540
966.286203	0.153147
966.461606	0.150314
966.636991	0.149586
966.812357	0.147058
966.987705	0.145755
967.163035	0.144548
967.338347	0.142480
967.513641	0.141143
967.688916	0.142583
967.864173	0.141523
968.039412	0.142495
968.214632	0.143375
968.389835	0.145794
968.565019	0.148964
968.740185	0.149111
968.915333	0.148502
969.090462	0.150237
969.265573	0.149825
969.440667	0.150459
969.615741	0.150266
969.790798	0.149692
969.965836	0.148849
970.140856	0.148786
970.315858	0.149085
970.490842	0.150313
970.665808	0.149663
970.840755	0.149679
971.015684	0.149129
971.190595	0.148882
971.365487	0.148585
971.540362	0.150631
971.715218	0.150813
971.890056	0.151076
972.064875	0.150471
972.239677	0.147415
972.414460	0.146705
972.589225	0.146120
972.763972	0.148317
972.938700	0.148448
973.113411	0.146544
973.288103	0.144326
973.462777	0.144577
973.637432	0.145460
973.812070	0.148388
973.986689	0.147827
974.161290	0.149497
974.335873	0.146237
974.510437	0.147213
974.684984	0.147450
974.859512	0.150108
975.034022	0.148788
975.208513	0.149549
975.382987	0.147943
975.557442	0.149810
975.731879	0.150341
975.906298	0.151631
976.080698	0.152002
976.255080	0.150693
976.429445	0.148183
976.603790	0.148005
976.778118	0.145573
976.952427	0.145762
977.126719	0.144878
977.300992	0.140234
977.475246	0.139617
977.649483	0.137800
977.823701	0.139677
977.997901	0.140562
978.172083	0.140822
978.346247	0.140487
978.520392	0.139053
978.694519	0.138261
978.868628	0.140023
979.042719	0.140302
979.216791	0.139438
979.390845	0.141435
979.564882	0.141544
979.738899	0.143260
979.912899	0.144974
980.086880	0.147854
980.260843	0.148833
980.434788	0.150767
980.608715	0.151288
980.782623	0.149812
980.956514	0.147422
981.130386	0.148156
981.304240	0.146543
981.478075	0.146357
981.651892	0.144904
981.825692	0.143443
981.999472	0.141615
982.173235	0.142188
982.346980	0.144487
982.520706	0.142916
982.694414	0.140211
982.868104	0.139517
983.041775	0.138714
983.215428	0.139272
983.389064	0.141893
983.562680	0.143336
983.736279	0.141081
983.909860	0.139875
984.083422	0.140877
984.256966	0.142037
984.430491	0.144480
984.603999	0.146577
984.777488	0.147217
984.950959	0.145827
985.124412	0.144010
985.297847	0.144821
985.471263	0.145612
985.644661	0.146380
985.818041	0.144415
985.991403	0.143480
986.164747	0.141759
986.338072	0.140529
986.511379	0.141305
986.684668	0.143424
986.857938	0.143462
987.031191	0.143647
987.204425	0.144145
987.377641	0.148165
987.550839	0.147519
987.724018	0.147956
987.897179	0.149139
988.070322	0.148114
988.243447	0.148359
988.416554	0.149748
988.589642	0.151276
988.762712	0.152190
988.935764	0.152013
989.108798	0.151965
989.281813	0.154650
989.454811	0.154587
989.627790	0.153143
989.800751	0.151261
989.973693	0.149491
990.146617	0.149033
990.319524	0.147723
990.492412	0.145567
990.665281	0.146552
990.838133	0.144960
991.010966	0.143473
991.183781	0.145071
991.356578	0.147438
991.529356	0.149276
991.702117	0.149390
991.874859	0.148974
992.047583	0.148522
992.220288	0.150542
992.392976	0.151609
992.565645	0.152840
992.738296	0.153303
992.910929	0.153269
993.083543	0.151328
993.256139	0.151182
993.428718	0.149841
993.601277	0.153158
993.773819	0.152107
993.946342	0.151399
994.118848	0.150924
994.291335	0.151346
994.463803	0.150434
994.636254	0.151943
994.808686	0.152148
994.981100	0.151929
995.153496	0.148599
995.325874	0.148707
995.498233	0.146672
995.670574	0.147666
995.842897	0.147345
996.015202	0.147893
996.187488	0.147307
996.359757	0.144819
996.532007	0.146019
996.704239	0.146845
996.876452	0.143616
997.048648	0.145041
997.220825	0.145484
997.392984	0.143785
997.565124	0.145809
997.737247	0.146370
997.909351	0.149020
998.081437	0.150774
998.253505	0.150762
998.425554	0.152670
998.597586	0.153005
998.769599	0.150176
998.941594	0.151468
999.113571	0.147707
999.285529	0.147294
999.457469	0.144396
999.629391	0.141666
999.801295	0.141381
999.973181	0.140811
1000.145048	0.139057
1000.316897	0.140963
1000.488728	0.140774
1000.660541	0.141266
1000.832335	0.142030
1001.004111	0.144477
1001.175869	0.146967
1001.347609	0.145751
1001.519331	0.145790
1001.691034	0.146323
1001.862719	0.145979
1002.034386	0.145173
1002.206035	0.145175
1002.377665	0.145697
1002.549277	0.145027
1002.720871	0.143148
1002.892447	0.143168
1003.064004	0.142934
1003.235544	0.141687
1003.407065	0.143864
1003.578568	0.146375
1003.750052	0.146929
1003.921519	0.145668
1004.092967	0.147665
1004.264397	0.147151
1004.435809	0.147530
1004.607202	0.150624
1004.778577	0.152889
1004.949934	0.150868
1005.121273	0.149125
1005.292594	0.149085
1005.463896	0.149408
1005.635180	0.147783
1005.806446	0.147766
1005.977694	0.149225
1006.148923	0.145308
1006.320135	0.146173
1006.491328	0.145897
1006.662503	0.142650
1006.833659	0.140346
1007.004798	0.138365
1007.175918	0.138946
1007.347020	0.140341
1007.518103	0.140208
1007.689169	0.139721
1007.860216	0.139515
1008.031245	0.139370
1008.202256	0.142610
1008.373248	0.144513
1008.544223	0.146948
1008.715179	0.145575
1008.886117	0.144356
1009.057036	0.144511
1009.227938	0.145841
1009.398821	0.144310
1009.569686	0.145467
1009.740533	0.145266
1009.911361	0.146551
1010.082172	0.146453
1010.252964	0.146971
1010.423738	0.147482
1010.594493	0.145741
1010.765231	0.146191
1010.935950	0.146383
1011.106651	0.145805
1011.277334	0.147790
1011.447998	0.146922
1011.618645	0.147171
1011.789273	0.147977
1011.959882	0.147364
1012.130474	0.149479
1012.301048	0.150686
1012.471603	0.151011
1012.642140	0.150667
1012.812658	0.150895
1012.983159	0.151517
1013.153641	0.149344
1013.324105	0.147982
1013.494551	0.148727
1013.664979	0.147611
1013.835388	0.145159
1014.005779	0.143312
1014.176152	0.142885
1014.346507	0.141489
1014.516843	0.139721
1014.687162	0.140267
1014.857462	0.139980
1015.027744	0.140972
1015.198007	0.141255
1015.368252	0.143678
1015.538480	0.146281
1015.708689	0.147477
1015.878879	0.145207
1016.049052	0.146471
1016.219206	0.147399
1016.389342	0.150127
1016.559460	0.148796
1016.729559	0.151328
1016.899641	0.151305
1017.069704	0.150376
1017.239749	0.150086
1017.409775	0.151679
1017.579784	0.150797
1017.749774	0.151274
1017.919746	0.150140
1018.089700	0.150353
1018.259635	0.147574
1018.429553	0.147090
1018.599452	0.148242
1018.769333	0.147629
1018.939195	0.147450
1019.109040	0.147678
1019.278866	0.146751
1019.448674	0.148274
1019.618464	0.151116
1019.788235	0.150036
1019.957989	0.151688
1020.127724	0.150966
1020.297441	0.151429
1020.467139	0.150599
1020.636820	0.151202
1020.806482	0.151105
1020.976126	0.148795
1021.145752	0.146324
1021.315359	0.147799
1021.484948	0.146833
1021.654519	0.146480
1021.824072	0.146331
1021.993607	0.148120
1022.163123	0.147077
1022.332621	0.147664
1022.502101	0.147703
1022.671563	0.149015
1022.841007	0.148999
1023.010432	0.146316
1023.179839	0.145352
1023.349228	0.145057
1023.518598	0.145721
1023.687951	0.146117
1023.857285	0.145934
1024.026601	0.144281
1024.195899	0.142788
1024.365178	0.143261
1024.534439	0.143263
1024.703682	0.143186
1024.872907	0.143159
1025.042114	0.143060
1025.211302	0.144255
1025.380472	0.142794
1025.549624	0.144016
1025.718758	0.143558
1025.887873	0.141111
1026.056970	0.143937
1026.226049	0.145053
1026.395110	0.144715
1026.564153	0.143347
1026.733177	0.143970
1026.902183	0.144634
1027.071171	0.144277
1027.240141	0.146969
1027.409092	0.149409
1027.578026	0.149314
1027.746940	0.151427
1027.915837	0.150103
1028.084716	0.151180
1028.253576	0.149405
1028.422418	0.148991
1028.591242	0.149939
1028.760048	0.146105
1028.928835	0.144916
1029.097604	0.143544
1029.266355	0.140511
1029.435088	0.140470
1029.603803	0.138700
1029.772499	0.138791
1029.941177	0.139053
1030.109837	0.137797
1030.278478	0.139018
1030.447102	0.139056
1030.615707	0.137112
1030.784294	0.137251
1030.952863	0.138116
1031.121413	0.138671
1031.289945	0.136669
1031.458460	0.137470
1031.626955	0.138658
1031.795433	0.137499
1031.963892	0.138630
1032.132334	0.139787
1032.300756	0.141751
1032.469161	0.141182
1032.637548	0.138205
1032.805916	0.140144
1032.974266	0.141841
1033.142598	0.141158
1033.310911	0.142834
1033.479207	0.141263
1033.647484	0.142245
1033.815743	0.141274
1033.983983	0.142219
1034.152206	0.146307
1034.320410	0.145819
1034.488596	0.144577
1034.656764	0.144744
1034.824914	0.144996
1034.993045	0.145378
1035.161158	0.144747
1035.329253	0.143034
1035.497330	0.143193
1035.665388	0.141725
1035.833428	0.142017
1036.001450	0.141911
1036.169454	0.141571
1036.337440	0.141198
1036.505407	0.140362
1036.673356	0.141301
1036.841287	0.142590
1037.009200	0.144423
1037.177094	0.144289
1037.344970	0.145904
1037.512828	0.145543
1037.680668	0.146022
1037.848489	0.146257
1038.016293	0.145806
1038.184078	0.145452
1038.351845	0.147200
1038.519593	0.143668
1038.687324	0.144141
1038.855036	0.142028
1039.022730	0.141691
1039.190406	0.140635
1039.358063	0.140553
1039.525702	0.141007
1039.693323	0.141152
1039.860926	0.139478
1040.028511	0.141453
1040.196077	0.142682
1040.363625	0.143804
1040.531155	0.143134
1040.698667	0.144464
1040.866161	0.145422
1041.033636	0.146674
1041.201093	0.145751
1041.368532	0.146155
1041.535952	0.145791
1041.703355	0.143323
1041.870739	0.140973
1042.038105	0.141360
1042.205452	0.141351
1042.372782	0.141423
1042.540093	0.140769
1042.707386	0.138957
1042.874661	0.137023
1043.041918	0.136534
1043.209156	0.137571
1043.376376	0.137905
1043.543578	0.139713
1043.710762	0.138645
1043.877927	0.138161
1044.045074	0.137637
1044.212203	0.138945
1044.379314	0.140896
1044.546407	0.140051
1044.713481	0.140094
1044.880537	0.140490
1045.047575	0.137509
1045.214595	0.136927
1045.381596	0.135090
1045.548579	0.136295
1045.715544	0.135589
1045.882491	0.133995
1046.049420	0.135647
1046.216330	0.134306
1046.383222	0.136059
1046.550096	0.137832
1046.716951	0.137446
1046.883789	0.139472
1047.050608	0.138513
1047.217409	0.139337
1047.384192	0.138649
1047.550956	0.137228
1047.717703	0.137129
1047.884431	0.136398
1048.051140	0.133603
1048.217832	0.135520
1048.384505	0.135301
1048.551161	0.135038
1048.717798	0.134152
1048.884416	0.135874
1049.051017	0.138457
1049.217599	0.139045
1049.384163	0.138807
1049.550709	0.139919
1049.717237	0.139609
1049.883746	0.140014
1050.050237	0.140637
1050.216710	0.143353
1050.383165	0.144466
1050.549601	0.142352
1050.716019	0.143752
1050.882420	0.144493
1051.048801	0.144025
1051.215165	0.144491
1051.381510	0.142784
1051.547837	0.143400
1051.714146	0.141762
1051.880437	0.139370
1052.046709	0.140710
1052.212964	0.141184
1052.379200	0.139979
1052.545417	0.141075
1052.711617	0.139281
1052.877798	0.140725
1053.043961	0.140393
1053.210106	0.141800
1053.376233	0.143907
1053.542341	0.143822
1053.708432	0.143558
1053.874504	0.145009
1054.040557	0.145433
1054.206593	0.146719
1054.372610	0.143798
1054.538609	0.143797
1054.704590	0.141771
1054.870553	0.140425
1055.036497	0.140554
1055.202424	0.139190
1055.368331	0.137838
1055.534221	0.140537
1055.700093	0.141564
1055.865946	0.143742
1056.031781	0.142104
1056.197598	0.144334
1056.363397	0.143574
1056.529177	0.142099
1056.694939	0.142344
1056.860683	0.143449
1057.026409	0.140269
1057.192116	0.137163
1057.357806	0.136315
1057.523477	0.140992
1057.689130	0.138179
1057.854764	0.139759
1058.020381	0.140162
1058.185979	0.142613
1058.351559	0.143823
1058.517120	0.144456
1058.682664	0.146417
1058.848189	0.145755
1059.013696	0.144282
1059.179185	0.146751
1059.344656	0.147222
1059.510108	0.147098
1059.675542	0.145764
1059.840958	0.144060
1060.006356	0.142346
1060.171735	0.142793
1060.337096	0.144420
1060.502439	0.143153
1060.667764	0.140597
1060.833071	0.137879
1060.998359	0.137256
1061.163629	0.136256
1061.328881	0.136548
1061.494115	0.139517
1061.659330	0.140088
1061.824527	0.138235
1061.989706	0.137907
1062.154867	0.139942
1062.320010	0.141785
1062.485134	0.143378
1062.650240	0.142647
1062.815328	0.141413
1062.980398	0.143159
1063.145449	0.144003
1063.310482	0.146530
1063.475497	0.147586
1063.640494	0.147677
1063.805473	0.145773
1063.970433	0.146775
1064.135375	0.149560
1064.300299	0.152991
1064.465204	0.149988
1064.630092	0.147405
1064.794961	0.145250
1064.959812	0.143958
1065.124645	0.142675
1065.289459	0.144610
1065.454256	0.143678
1065.619034	0.141512
1065.783793	0.139432
1065.948535	0.139121
1066.113258	0.140296
1066.277964	0.142833
1066.442651	0.143195
1066.607319	0.144908
1066.771970	0.143477
1066.936602	0.144954
1067.101216	0.146540
1067.265812	0.145316
1067.430389	0.146652
1067.594949	0.146019
1067.759490	0.142833
1067.924013	0.142821
1068.088518	0.143806
1068.253004	0.144488
1068.417472	0.142067
1068.581922	0.139635
1068.746354	0.142201
1068.910768	0.141785
1069.075163	0.141911
1069.239540	0.144678
1069.403899	0.144928
1069.568240	0.143605
1069.732562	0.146430
1069.896866	0.146303
1070.061152	0.148551
1070.225420	0.146703
1070.389670	0.145401
1070.553901	0.144764
1070.718114	0.143932
1070.882309	0.143130
1071.046486	0.143008
1071.210644	0.141684
1071.374784	0.142516
1071.538906	0.140908
1071.703010	0.141486
1071.867096	0.143871
1072.031163	0.144337
1072.195212	0.144774
1072.359243	0.145510
1072.523256	0.145278
1072.687250	0.146172
1072.851226	0.145945
1073.015184	0.147029
1073.179124	0.145810
1073.343045	0.143099
1073.506949	0.143802
1073.670834	0.143746
1073.834701	0.144226
1073.998549	0.145811
1074.162380	0.143660
1074.326192	0.143984
1074.489986	0.142439
1074.653761	0.142712
1074.817519	0.143806
1074.981258	0.143276
1075.144979	0.144124
1075.308682	0.143661
1075.472367	0.141194
1075.636033	0.141561
1075.799681	0.142378
1075.963311	0.143602
1076.126923	0.144931
1076.290516	0.145491
1076.454092	0.148748
1076.617649	0.146097
1076.781187	0.145094
1076.944708	0.145498
1077.108210	0.147680
1077.271695	0.148374
1077.435160	0.145593
1077.598608	0.144941
1077.762038	0.144489
1077.925449	0.140493
1078.088842	0.143137
1078.252217	0.144975
1078.415573	0.146705
1078.578912	0.146165
1078.742232	0.146016
1078.905534	0.148421
1079.068817	0.146379
1079.232083	0.148232
1079.395330	0.150821
1079.558559	0.148594
1079.721770	0.144553
1079.884962	0.145509
1080.048136	0.145896
1080.211293	0.145134
1080.374430	0.145154
1080.537550	0.148113
1080.700651	0.149465
1080.863735	0.149289
1081.026800	0.150661
1081.189846	0.154435
1081.352875	0.153803
1081.515885	0.153695
1081.678877	0.153006
1081.841851	0.153151
1082.004807	0.150951
1082.167744	0.147752
1082.330663	0.150342
1082.493564	0.152925
1082.656447	0.156569
1082.819312	0.153032
1082.982158	0.153684
1083.144986	0.154216
1083.307796	0.157062
1083.470587	0.160457
1083.633361	0.161146
1083.796116	0.158777
1083.958853	0.155083
1084.121571	0.150848
1084.284272	0.152261
1084.446954	0.149794
1084.609618	0.148586
1084.772264	0.149424
1084.934892	0.148156
1085.097501	0.147153
1085.260092	0.143476
1085.422665	0.145541
1085.585220	0.146851
1085.747756	0.148429
1085.910274	0.151046
1086.072774	0.151450
1086.235256	0.146599
1086.397720	0.144698
1086.560165	0.147218
1086.722592	0.149117
1086.885001	0.149922
1087.047392	0.148369
1087.209764	0.149629
1087.372119	0.148780
1087.534455	0.148361
1087.696772	0.148775
1087.859072	0.148963
1088.021353	0.148684
1088.183616	0.151455
1088.345861	0.146432
1088.508088	0.147319
1088.670296	0.145102
1088.832486	0.144040
1088.994658	0.144511
1089.156812	0.144617
1089.318948	0.144747
1089.481065	0.142048
1089.643164	0.141188
1089.805245	0.146896
1089.967308	0.148891
1090.129352	0.150688
1090.291378	0.151378
1090.453386	0.151066
1090.615376	0.149774
1090.777347	0.153312
1090.939301	0.155170
1091.101236	0.155041
1091.263153	0.152349
1091.425051	0.150533
1091.586932	0.147783
1091.748794	0.148851
1091.910638	0.150369
1092.072463	0.152326
1092.234271	0.151915
1092.396060	0.152337
1092.557831	0.152560
1092.719584	0.154567
1092.881319	0.156486
1093.043035	0.160991
1093.204733	0.158432
1093.366413	0.156274
1093.528075	0.155459
1093.689718	0.156310
1093.851343	0.155107
1094.012950	0.153621
1094.174539	0.154171
1094.336110	0.150531
1094.497662	0.148152
1094.659196	0.148615
1094.820712	0.148854
1094.982210	0.149220
1095.143689	0.147753
1095.305151	0.148920
1095.466594	0.148181
1095.628018	0.148049
1095.789425	0.148175
1095.950813	0.145540
1096.112183	0.147297
1096.273535	0.147801
1096.434869	0.147745
1096.596184	0.147768
1096.757482	0.150858
1096.918761	0.151100
1097.080021	0.148607
1097.241264	0.150340
1097.402488	0.152443
1097.563694	0.151785
1097.724882	0.156961
1097.886052	0.159531
1098.047203	0.157888
1098.208336	0.152213
1098.369451	0.150946
1098.530548	0.151189
1098.691627	0.151705
1098.852687	0.149978
1099.013729	0.149113
1099.174753	0.142746
1099.335758	0.144414
1099.496746	0.147931
1099.657715	0.148176
1099.818666	0.149770
1099.979599	0.151901
1100.140513	0.151221
1100.301409	0.150897
1100.462287	0.150233
1100.623147	0.152370
1100.783989	0.150382
1100.944812	0.146235
1101.105617	0.144997
1101.266404	0.149314
1101.427173	0.149136
1101.587923	0.148550
1101.748656	0.149370
1101.909370	0.150208
1102.070066	0.151433
1102.230743	0.150671
1102.391403	0.155426
1102.552044	0.158864
1102.712667	0.155822
1102.873271	0.155263
1103.033858	0.154390
1103.194426	0.152267
1103.354976	0.155670
1103.515508	0.153915
1103.676021	0.157190
1103.836517	0.152959
1103.996994	0.156519
1104.157453	0.156882
1104.317893	0.158239
1104.478316	0.160155
1104.638720	0.167072
1104.799106	0.161970
1104.959474	0.165770
1105.119823	0.163141
1105.280155	0.165857
1105.440468	0.161566
1105.600763	0.160187
1105.761039	0.157126
1105.921298	0.157922
1106.081538	0.153868
1106.241760	0.158508
1106.401964	0.157365
1106.562149	0.153559
1106.722316	0.152363
1106.882465	0.154520
1107.042596	0.157673
1107.202709	0.160536
1107.362803	0.161534
1107.522879	0.161211
1107.682937	0.159823
1107.842977	0.157989
1108.002999	0.161783
1108.163002	0.160320
1108.322987	0.160644
1108.482954	0.152881
1108.642902	0.144409
1108.802833	0.140698
1108.962745	0.144839
1109.122639	0.143289
1109.282515	0.139401
1109.442372	0.140425
1109.602211	0.138717
1109.762032	0.137665
1109.921835	0.145528
1110.081620	0.149200
1110.241386	0.151195
1110.401134	0.147013
1110.560864	0.143289
1110.720576	0.147832
1110.880269	0.146969
1111.039945	0.150460
1111.199602	0.146324
1111.359240	0.139233
1111.518861	0.143193
1111.678463	0.140906
1111.838047	0.144102
1111.997613	0.146158
1112.157161	0.143805
1112.316690	0.141555
1112.476202	0.139457
1112.635695	0.141638
1112.795169	0.147827
1112.954626	0.151641
1113.114064	0.155632
1113.273484	0.157155
1113.432886	0.165027
1113.592270	0.168637
1113.751635	0.174822
1113.910983	0.173244
1114.070312	0.177344
1114.229622	0.175713
1114.388915	0.171457
1114.548189	0.173077
1114.707445	0.169543
1114.866683	0.160555
1115.025903	0.158828
1115.185104	0.153204
1115.344287	0.154875
1115.503452	0.154863
1115.662599	0.155148
1115.821727	0.151105
1115.980838	0.149408
1116.139930	0.149840
1116.299004	0.151464
1116.458059	0.146808
1116.617097	0.147119
1116.776116	0.150298
1116.935117	0.147554
1117.094099	0.143845
1117.253064	0.151736
1117.412010	0.150748
1117.570938	0.150044
1117.729848	0.152112
1117.888740	0.154866
1118.047613	0.154436
1118.206468	0.150281
1118.365305	0.148677
1118.524124	0.152288
1118.682924	0.147651
1118.841707	0.146750
1119.000471	0.147965
1119.159216	0.151342
1119.317944	0.146586
1119.476653	0.147647
1119.635344	0.149913
1119.794017	0.148867
1119.952672	0.146887
1120.111308	0.145794
1120.269927	0.140950
1120.428527	0.141537
1120.587108	0.133157
1120.745672	0.138824
1120.904217	0.142718
1121.062744	0.146702
1121.221253	0.151208
1121.379744	0.152104
1121.538216	0.152648
1121.696671	0.158033
1121.855107	0.154807
1122.013524	0.159331
1122.171924	0.162198
1122.330305	0.155808
1122.488668	0.149455
1122.647013	0.143186
1122.805340	0.141226
1122.963648	0.138477
1123.121938	0.135775
1123.280210	0.138510
1123.438464	0.138182
1123.596700	0.134670
1123.754917	0.144041
1123.913116	0.142849
1124.071297	0.146395
1124.229459	0.153815
1124.387604	0.153095
1124.545730	0.158422
1124.703838	0.163968
1124.861928	0.164766
1125.019999	0.163926
1125.178052	0.159835
1125.336088	0.165030
1125.494104	0.169518
1125.652103	0.165876
1125.810083	0.166159
1125.968045	0.165160
1126.125989	0.159288
1126.283915	0.151064
1126.441823	0.152116
1126.599712	0.147185
1126.757583	0.139544
1126.915436	0.136388
1127.073270	0.134733
1127.231087	0.137903
1127.388885	0.134859
1127.546665	0.138670
1127.704426	0.150859
1127.862170	0.147872
1128.019895	0.150325
1128.177602	0.157891
1128.335291	0.154052
1128.492961	0.156466
1128.650614	0.150314
1128.808248	0.154753
1128.965864	0.150907
1129.123461	0.149013
1129.281041	0.159532
1129.438602	0.151934
1129.596145	0.148007
1129.753670	0.152297
1129.911176	0.156316
1130.068665	0.166574
1130.226135	0.166196
1130.383587	0.168158
1130.541020	0.166576
1130.698436	0.163909
1130.855833	0.178316
1131.013212	0.185009
1131.170573	0.187350
1131.327915	0.180196
1131.485239	0.177613
1131.642545	0.173104
1131.799833	0.173373
1131.957103	0.173222
1132.114354	0.169463
1132.271588	0.161234
1132.428803	0.156034
1132.585999	0.156099
1132.743178	0.153088
1132.900338	0.157424
1133.057480	0.157911
1133.214604	0.153396
1133.371710	0.151367
1133.528797	0.152338
1133.685866	0.152736
1133.842917	0.157311
1133.999950	0.152369
1134.156964	0.158278
1134.313960	0.155260
1134.470938	0.155571
1134.627898	0.160884
1134.784840	0.165299
1134.941763	0.161465
1135.098668	0.165908
1135.255555	0.156947
1135.412424	0.160627
1135.569274	0.163993
1135.726107	0.162278
1135.882921	0.165748
1136.039716	0.162557
1136.196494	0.157916
1136.353253	0.156587
1136.509995	0.154119
1136.666717	0.162828
1136.823422	0.166444
1136.980109	0.152873
1137.136777	0.162110
1137.293427	0.164435
1137.450059	0.164899
1137.606672	0.168331
1137.763267	0.166209
1137.919844	0.161011
1138.076403	0.160745
1138.232944	0.159280
1138.389466	0.164918
1138.545971	0.154875
1138.702457	0.149197
1138.858924	0.149960
1139.015374	0.144073
1139.171805	0.144124
1139.328218	0.145127
1139.484613	0.147182
1139.640990	0.140825
1139.797348	0.142123
1139.953688	0.140442
1140.110010	0.140320
1140.266314	0.135534
1140.422600	0.133626
1140.578867	0.141314
1140.735116	0.150417
1140.891347	0.146005
1141.047559	0.145536
1141.203754	0.147295
1141.359930	0.147658
1141.516088	0.148011
1141.672228	0.151701
1141.828349	0.156350
1141.984452	0.155316
1142.140537	0.149784
1142.296604	0.146914
1142.452653	0.151634
1142.608683	0.153687
1142.764695	0.158556
1142.920689	0.159240
1143.076665	0.162878
1143.232622	0.165778
1143.388562	0.160742
1143.544483	0.168287
1143.700385	0.171543
1143.856270	0.173701
1144.012136	0.169895
1144.167985	0.164142
1144.323814	0.165856
1144.479626	0.156949
1144.635420	0.154910
1144.791195	0.161329
1144.946952	0.155045
1145.102691	0.152566
1145.258411	0.147032
1145.414113	0.152431
1145.569798	0.157882
1145.725463	0.164635
1145.881111	0.160915
1146.036741	0.154314
1146.192352	0.158823
1146.347945	0.157648
1146.503519	0.157732
1146.659076	0.152279
1146.814614	0.152246
1146.970134	0.153350
1147.125636	0.143930
1147.281120	0.149621
1147.436585	0.153865
1147.592032	0.147788
1147.747461	0.140448
1147.902872	0.141918
1148.058265	0.155167
1148.213639	0.145097
1148.368995	0.141547
1148.524333	0.153139
1148.679653	0.153188
1148.834954	0.147117
1148.990237	0.143667
1149.145502	0.149148
1149.300749	0.152542
1149.455977	0.144133
1149.611188	0.142913
1149.766380	0.143343
1149.921553	0.133260
1150.076709	0.134849
1150.231846	0.144147
1150.386966	0.148062
1150.542066	0.152208
1150.697149	0.150892
1150.852214	0.156613
1151.007260	0.154509
1151.162288	0.143628
1151.317298	0.140572
1151.472289	0.135027
1151.627263	0.137258
1151.782218	0.135740
1151.937155	0.132922
1152.092073	0.130736
1152.246974	0.128030
1152.401856	0.141818
1152.556720	0.149231
1152.711566	0.154171
1152.866393	0.167698
1153.021203	0.158094
1153.175994	0.161519
1153.330767	0.156364
1153.485521	0.158842
1153.640258	0.159457
1153.794976	0.151156
1153.949676	0.156158
1154.104358	0.148220
1154.259021	0.140119
1154.413667	0.144508
1154.568294	0.134241
1154.722903	0.134078
1154.877493	0.130352
1155.032066	0.111600
1155.186620	0.106572
1155.341156	0.101308
1155.495674	0.101496
1155.650173	0.101916
1155.804654	0.103182
1155.959118	0.103405
1156.113562	0.113803
1156.267989	0.114699
1156.422397	0.129646
1156.576788	0.142157
1156.731160	0.146559
1156.885513	0.150567
1157.039849	0.153105
1157.194166	0.149580
1157.348465	0.157515
1157.502746	0.151948
1157.657009	0.152945
1157.811253	0.141200
1157.965479	0.127596
1158.119687	0.121662
1158.273877	0.122182
1158.428048	0.123698
1158.582201	0.128274
1158.736337	0.124059
1158.890453	0.124587
1159.044552	0.119222
1159.198632	0.126666
1159.352694	0.134506
1159.506738	0.130679
1159.660764	0.127499
1159.814771	0.133402
1159.968761	0.124562
1160.122732	0.129013
1160.276685	0.120752
1160.430619	0.129894
1160.584535	0.129459
1160.738434	0.127744
1160.892313	0.139702
1161.046175	0.148601
1161.200019	0.145924
1161.353844	0.154426
1161.507651	0.155048
1161.661440	0.160001
1161.815210	0.150087
1161.968962	0.154083
1162.122697	0.160526
1162.276412	0.140198
1162.430110	0.130794
1162.583789	0.129829
1162.737451	0.129248
1162.891094	0.122802
1163.044718	0.124580
1163.198325	0.126393
1163.351913	0.124117
1163.505483	0.112583
1163.659035	0.125430
1163.812569	0.130380
1163.966084	0.126955
1164.119581	0.125664
1164.273060	0.132424
1164.426521	0.136744
1164.579964	0.144145
1164.733388	0.156641
1164.886794	0.180115
1165.040182	0.192222
1165.193551	0.193586
1165.346903	0.191670
1165.500236	0.201873
1165.653551	0.204323
1165.806848	0.208813
1165.960126	0.207566
1166.113386	0.196539
1166.266628	0.185639
1166.419852	0.177223
1166.573058	0.166663
1166.726245	0.160349
1166.879414	0.156603
1167.032565	0.149419
1167.185698	0.146042
1167.338812	0.144844
1167.491909	0.150367
1167.644987	0.150332
1167.798046	0.144604
1167.951088	0.152308
1168.104111	0.154159
1168.257117	0.149984
1168.410103	0.155252
1168.563072	0.148473
1168.716023	0.145778
1168.868955	0.141610
1169.021869	0.127260
1169.174765	0.117351
1169.327642	0.117639
1169.480501	0.130631
1169.633343	0.129493
1169.786165	0.136757
1169.938970	0.129248
1170.091757	0.113829
1170.244525	0.097882
1170.397275	0.107649
1170.550007	0.132253
1170.702720	0.128511
1170.855415	0.105864
1171.008092	0.108129
1171.160751	0.101087
1171.313392	0.111068
1171.466014	0.052952
1171.618619	0.165530
1171.771205	0.165530
1171.923772	0.165530
