sample name	sample
index	137
start time	 02-15-2021  01:40:26 PM


Wavelength (nm)	Absorbance
494.344910	-1.325854
494.563924	-1.325854
494.782919	-1.325854
495.001897	-0.393531
495.220856	-0.360477
495.439797	-0.245373
495.658719	-0.141057
495.877624	-0.227200
496.096510	-0.077065
496.315378	0.043510
496.534227	0.345455
496.753059	0.239904
496.971872	0.331741
497.190667	0.141307
497.409444	0.150443
497.628203	0.158374
497.846943	0.163044
498.065665	0.161204
498.284369	0.162900
498.503055	0.160266
498.721723	0.164871
498.940372	0.166492
499.159003	0.167618
499.377616	0.168613
499.596210	0.165223
499.814787	0.165742
500.033345	0.162924
500.251885	0.158742
500.470406	0.161731
500.688910	0.156353
500.907395	0.154409
501.125862	0.155184
501.344311	0.155096
501.562742	0.156141
501.781154	0.157321
501.999548	0.160057
502.217924	0.164474
502.436282	0.163668
502.654621	0.166200
502.872942	0.166688
503.091245	0.164987
503.309530	0.163095
503.527797	0.163088
503.746045	0.159806
503.964275	0.158930
504.182487	0.157887
504.400681	0.158602
504.618856	0.159662
504.837013	0.160492
505.055152	0.161436
505.273273	0.163265
505.491376	0.164060
505.709460	0.168724
505.927526	0.169105
506.145574	0.169973
506.363604	0.168782
506.581615	0.168280
506.799608	0.167130
507.017583	0.167383
507.235540	0.166202
507.453478	0.165040
507.671399	0.165437
507.889301	0.166312
508.107185	0.165643
508.325050	0.165432
508.542898	0.165825
508.760727	0.167486
508.978538	0.169422
509.196330	0.170095
509.414105	0.169969
509.631861	0.168406
509.849599	0.166827
510.067319	0.168120
510.285021	0.167775
510.502704	0.166192
510.720369	0.166393
510.938016	0.164612
511.155645	0.167007
511.373255	0.167306
511.590848	0.167431
511.808422	0.168936
512.025977	0.167344
512.243515	0.169879
512.461034	0.171143
512.678536	0.169640
512.896018	0.170279
513.113483	0.166814
513.330930	0.168872
513.548358	0.168884
513.765768	0.167629
513.983160	0.167912
514.200533	0.168261
514.417889	0.168351
514.635226	0.168213
514.852545	0.168091
515.069845	0.168949
515.287128	0.168030
515.504392	0.167431
515.721638	0.167939
515.938866	0.167291
516.156075	0.166939
516.373267	0.167089
516.590440	0.166844
516.807594	0.165969
517.024731	0.166802
517.241850	0.166504
517.458950	0.168167
517.676032	0.168755
517.893095	0.170119
518.110141	0.169041
518.327168	0.168889
518.544177	0.168486
518.761168	0.169739
518.978141	0.170621
519.195095	0.171468
519.412031	0.168760
519.628949	0.168286
519.845849	0.168098
520.062731	0.168288
520.279594	0.169524
520.496439	0.170891
520.713266	0.170971
520.930074	0.171912
521.146865	0.172276
521.363637	0.174193
521.580391	0.175049
521.797127	0.175826
522.013844	0.177071
522.230543	0.177060
522.447224	0.178900
522.663887	0.179212
522.880532	0.178863
523.097158	0.179023
523.313766	0.179884
523.530356	0.180416
523.746928	0.179370
523.963481	0.178534
524.180017	0.177776
524.396534	0.177661
524.613032	0.179009
524.829513	0.179776
525.045975	0.179484
525.262420	0.179387
525.478845	0.181137
525.695253	0.181372
525.911643	0.181120
526.128014	0.181308
526.344367	0.181925
526.560702	0.181390
526.777018	0.181699
526.993316	0.181078
527.209597	0.180931
527.425858	0.178826
527.642102	0.179971
527.858328	0.180803
528.074535	0.181176
528.290724	0.179391
528.506894	0.179398
528.723047	0.178972
528.939181	0.179586
529.155297	0.179248
529.371395	0.179478
529.587475	0.180287
529.803536	0.180651
530.019579	0.182300
530.235604	0.184159
530.451611	0.183914
530.667600	0.184614
530.883570	0.185788
531.099522	0.186465
531.315456	0.187145
531.531372	0.186807
531.747269	0.187561
531.963148	0.187860
532.179009	0.188101
532.394852	0.188450
532.610676	0.188211
532.826482	0.187693
533.042271	0.188354
533.258040	0.187640
533.473792	0.188542
533.689525	0.190279
533.905240	0.189841
534.120937	0.189445
534.336616	0.189596
534.552277	0.191319
534.767919	0.192714
534.983543	0.192112
535.199149	0.192842
535.414736	0.193027
535.630306	0.193006
535.845857	0.192404
536.061390	0.192971
536.276904	0.193528
536.492401	0.192616
536.707879	0.191974
536.923339	0.193977
537.138781	0.195617
537.354204	0.195489
537.569610	0.195034
537.784997	0.197380
538.000366	0.197486
538.215716	0.198250
538.431049	0.198308
538.646363	0.198377
538.861659	0.197871
539.076937	0.198484
539.292196	0.199106
539.507438	0.199171
539.722661	0.198118
539.937866	0.199152
540.153052	0.199212
540.368221	0.199274
540.583371	0.200092
540.798503	0.201255
541.013617	0.201298
541.228712	0.200645
541.443789	0.200668
541.658848	0.201793
541.873889	0.202110
542.088912	0.202901
542.303916	0.203204
542.518902	0.203455
542.733870	0.202386
542.948820	0.202990
543.163752	0.204763
543.378665	0.205283
543.593560	0.205062
543.808437	0.204988
544.023295	0.204233
544.238136	0.204143
544.452958	0.204590
544.667762	0.204927
544.882548	0.205126
545.097315	0.205096
545.312064	0.204692
545.526795	0.205450
545.741508	0.206061
545.956203	0.207212
546.170879	0.208879
546.385537	0.209169
546.600177	0.209833
546.814799	0.209300
547.029402	0.209427
547.243988	0.210132
547.458555	0.209305
547.673103	0.208883
547.887634	0.208690
548.102146	0.209008
548.316640	0.209433
548.531116	0.210311
548.745574	0.210448
548.960013	0.210020
549.174435	0.210691
549.388838	0.210996
549.603222	0.212133
549.817589	0.212620
550.031937	0.210968
550.246267	0.211135
550.460579	0.210789
550.674873	0.210875
550.889148	0.211524
551.103405	0.212217
551.317644	0.212948
551.531865	0.212358
551.746068	0.212886
551.960252	0.216319
552.174418	0.215538
552.388566	0.216046
552.602696	0.216836
552.816807	0.217654
553.030900	0.217046
553.244975	0.217627
553.459032	0.218260
553.673070	0.217572
553.887091	0.216157
554.101093	0.218510
554.315077	0.218166
554.529042	0.218903
554.742990	0.219436
554.956919	0.219198
555.170830	0.219368
555.384722	0.219221
555.598597	0.220562
555.812453	0.220059
556.026291	0.218965
556.240111	0.219631
556.453913	0.218650
556.667696	0.217526
556.881461	0.218580
557.095208	0.218472
557.308937	0.219500
557.522647	0.219251
557.736339	0.220078
557.950013	0.221471
558.163669	0.221737
558.377307	0.222466
558.590926	0.223648
558.804527	0.223748
559.018110	0.224183
559.231675	0.224145
559.445221	0.224754
559.658749	0.225550
559.872259	0.224667
560.085751	0.225320
560.299225	0.225448
560.512680	0.225739
560.726117	0.225689
560.939536	0.225325
561.152937	0.225662
561.366319	0.225745
561.579683	0.225263
561.793029	0.225000
562.006357	0.224968
562.219667	0.225687
562.432958	0.226001
562.646231	0.225704
562.859486	0.226519
563.072723	0.225619
563.285941	0.225486
563.499141	0.226062
563.712323	0.226783
563.925487	0.226469
564.138632	0.226828
564.351760	0.226625
564.564869	0.227458
564.777960	0.227143
564.991032	0.228966
565.204087	0.229326
565.417123	0.229075
565.630141	0.228661
565.843140	0.228764
566.056122	0.227256
566.269085	0.227797
566.482030	0.228071
566.694957	0.229199
566.907866	0.227510
567.120756	0.228322
567.333628	0.228693
567.546482	0.229902
567.759318	0.230244
567.972135	0.231561
568.184935	0.231124
568.397716	0.231354
568.610478	0.231143
568.823223	0.232076
569.035949	0.231431
569.248657	0.231974
569.461347	0.231514
569.674019	0.232430
569.886672	0.232125
570.099308	0.232703
570.311925	0.232107
570.524523	0.231914
570.737104	0.232092
570.949666	0.232720
571.162210	0.232153
571.374736	0.233116
571.587244	0.232140
571.799733	0.232942
572.012205	0.232858
572.224658	0.233842
572.437092	0.234907
572.649509	0.235819
572.861907	0.236145
573.074287	0.235898
573.286649	0.236481
573.498993	0.237223
573.711318	0.237549
573.923625	0.237595
574.135914	0.237826
574.348185	0.237310
574.560438	0.236810
574.772672	0.236293
574.984888	0.237835
575.197086	0.237473
575.409266	0.238457
575.621427	0.238855
575.833570	0.239451
576.045695	0.239454
576.257802	0.240130
576.469890	0.240160
576.681961	0.240852
576.894013	0.239826
577.106046	0.239654
577.318062	0.239033
577.530059	0.239227
577.742039	0.238919
577.954000	0.239608
578.165942	0.239363
578.377867	0.240208
578.589773	0.240088
578.801661	0.240756
579.013531	0.241267
579.225382	0.241450
579.437216	0.240656
579.649031	0.240664
579.860828	0.240488
580.072606	0.241063
580.284367	0.240762
580.496109	0.241297
580.707833	0.241801
580.919539	0.242435
581.131227	0.242802
581.342896	0.243624
581.554547	0.243759
581.766180	0.244502
581.977795	0.244252
582.189391	0.244712
582.400969	0.244840
582.612529	0.245051
582.824071	0.244541
583.035595	0.244609
583.247100	0.244568
583.458587	0.244979
583.670056	0.244678
583.881506	0.245687
584.092939	0.246418
584.304353	0.246212
584.515749	0.246382
584.727127	0.246672
584.938486	0.246793
585.149828	0.247122
585.361151	0.247940
585.572456	0.247746
585.783742	0.247956
585.995011	0.247546
586.206261	0.247644
586.417493	0.247872
586.628706	0.249518
586.839902	0.250189
587.051079	0.249707
587.262238	0.250370
587.473379	0.250530
587.684502	0.249626
587.895606	0.249805
588.106692	0.250530
588.317760	0.250246
588.528810	0.249101
588.739841	0.250354
588.950855	0.250275
589.161850	0.250175
589.372827	0.251490
589.583785	0.251550
589.794726	0.251679
590.005648	0.252263
590.216552	0.252988
590.427437	0.252579
590.638305	0.251825
590.849154	0.251952
591.059985	0.251364
591.270798	0.250043
591.481592	0.250126
591.692369	0.250196
591.903127	0.250121
592.113867	0.249997
592.324588	0.250349
592.535292	0.249837
592.745977	0.251090
592.956644	0.251499
593.167293	0.253128
593.377923	0.254093
593.588536	0.254233
593.799130	0.253956
594.009706	0.254601
594.220263	0.255333
594.430803	0.256174
594.641324	0.256425
594.851827	0.256355
595.062312	0.256921
595.272778	0.257181
595.483227	0.257937
595.693657	0.258580
595.904069	0.259395
596.114462	0.259626
596.324838	0.259313
596.535195	0.259898
596.745534	0.259851
596.955855	0.259406
597.166157	0.258871
597.376441	0.258406
597.586707	0.258245
597.796955	0.257959
598.007185	0.258330
598.217396	0.258727
598.427589	0.258150
598.637764	0.259039
598.847921	0.258202
599.058060	0.259281
599.268180	0.259270
599.478282	0.258861
599.688366	0.258306
599.898431	0.258329
600.108479	0.258963
600.318508	0.259653
600.528519	0.259794
600.738511	0.260551
600.948486	0.260167
601.158442	0.260847
601.368380	0.261740
601.578300	0.262883
601.788202	0.263527
601.998085	0.263737
602.207950	0.263796
602.417797	0.263736
602.627626	0.263985
602.837436	0.265022
603.047228	0.265182
603.257002	0.265056
603.466758	0.264169
603.676496	0.264133
603.886215	0.264307
604.095916	0.264574
604.305599	0.265208
604.515264	0.265923
604.724910	0.264725
604.934538	0.265032
605.144148	0.265783
605.353740	0.266746
605.563314	0.266425
605.772869	0.266431
605.982406	0.267134
606.191925	0.267931
606.401425	0.268441
606.610908	0.269169
606.820372	0.269043
607.029818	0.269132
607.239246	0.269003
607.448655	0.268562
607.658047	0.268170
607.867420	0.267540
608.076775	0.267222
608.286111	0.267377
608.495430	0.267254
608.704730	0.267672
608.914012	0.267962
609.123275	0.268464
609.332521	0.269099
609.541748	0.269963
609.750957	0.270526
609.960148	0.270056
610.169321	0.269069
610.378475	0.269520
610.587611	0.268892
610.796729	0.269085
611.005829	0.268995
611.214910	0.269753
611.423974	0.270114
611.633019	0.270544
611.842045	0.271354
612.051054	0.272129
612.260044	0.272358
612.469017	0.273669
612.677970	0.273198
612.886906	0.273232
613.095824	0.273200
613.304723	0.273486
613.513604	0.273041
613.722467	0.272864
613.931311	0.272773
614.140138	0.273224
614.348946	0.273220
614.557736	0.274194
614.766507	0.274260
614.975261	0.274318
615.183996	0.273832
615.392713	0.274177
615.601412	0.274920
615.810092	0.275384
616.018754	0.275741
616.227399	0.275907
616.436024	0.275925
616.644632	0.276161
616.853222	0.276474
617.061793	0.276284
617.270346	0.275853
617.478880	0.275653
617.687397	0.276339
617.895895	0.276724
618.104375	0.276449
618.312837	0.276498
618.521281	0.276753
618.729706	0.276918
618.938113	0.277717
619.146502	0.279325
619.354873	0.279527
619.563226	0.279242
619.771560	0.278661
619.979876	0.279305
620.188174	0.279978
620.396453	0.280795
620.604715	0.280665
620.812958	0.281159
621.021183	0.280660
621.229390	0.281432
621.437578	0.281568
621.645748	0.282104
621.853900	0.281733
622.062034	0.281149
622.270150	0.280615
622.478247	0.280591
622.686326	0.280331
622.894387	0.280921
623.102430	0.280487
623.310454	0.280014
623.518461	0.280371
623.726449	0.280795
623.934418	0.281651
624.142370	0.281743
624.350303	0.282820
624.558218	0.283322
624.766115	0.283076
624.973994	0.283467
625.181855	0.284245
625.389697	0.284008
625.597521	0.284175
625.805327	0.284182
626.013114	0.284569
626.220883	0.284126
626.428634	0.284226
626.636367	0.284514
626.844082	0.284429
627.051778	0.284596
627.259457	0.285041
627.467117	0.285491
627.674758	0.286060
627.882382	0.286369
628.089987	0.287089
628.297574	0.286790
628.505143	0.286833
628.712694	0.287447
628.920226	0.287985
629.127740	0.287756
629.335236	0.288400
629.542714	0.287745
629.750174	0.287066
629.957615	0.286713
630.165038	0.286905
630.372443	0.287567
630.579829	0.287148
630.787198	0.286960
630.994548	0.287380
631.201880	0.287183
631.409194	0.287632
631.616489	0.288364
631.823766	0.288885
632.031025	0.289231
632.238266	0.288543
632.445489	0.289670
632.652693	0.290242
632.859879	0.290802
633.067047	0.291047
633.274197	0.291141
633.481329	0.291678
633.688442	0.291871
633.895537	0.292426
634.102614	0.293380
634.309672	0.292844
634.516713	0.292578
634.723735	0.292578
634.930739	0.292479
635.137724	0.292995
635.344692	0.293178
635.551641	0.293004
635.758572	0.292442
635.965485	0.292972
636.172379	0.293607
636.379256	0.293799
636.586114	0.294502
636.792954	0.295094
636.999775	0.295369
637.206579	0.296180
637.413364	0.296990
637.620131	0.297531
637.826880	0.297520
638.033610	0.297555
638.240323	0.298223
638.447017	0.298305
638.653692	0.298321
638.860350	0.298200
639.066990	0.297784
639.273611	0.297858
639.480214	0.298018
639.686798	0.297879
639.893365	0.298809
640.099913	0.298959
640.306443	0.298765
640.512955	0.299411
640.719449	0.300007
640.925924	0.300566
641.132381	0.300928
641.338820	0.302118
641.545241	0.302709
641.751644	0.302233
641.958028	0.302286
642.164394	0.302413
642.370742	0.302245
642.577071	0.302349
642.783383	0.302405
642.989676	0.302676
643.195951	0.302049
643.402207	0.301754
643.608446	0.301565
643.814666	0.301549
644.020868	0.301967
644.227052	0.302128
644.433218	0.302268
644.639365	0.302883
644.845494	0.302288
645.051605	0.302555
645.257698	0.303326
645.463772	0.304017
645.669828	0.304756
645.875866	0.304499
646.081886	0.304824
646.287888	0.304788
646.493871	0.304355
646.699836	0.304704
646.905783	0.305581
647.111712	0.305859
647.317622	0.306117
647.523514	0.305747
647.729388	0.306452
647.935244	0.306125
648.141082	0.307016
648.346901	0.307539
648.552702	0.308599
648.758485	0.308531
648.964250	0.308811
649.169996	0.308990
649.375724	0.309877
649.581434	0.309737
649.787126	0.310608
649.992800	0.310023
650.198455	0.309688
650.404092	0.309830
650.609711	0.309939
650.815311	0.310016
651.020894	0.310194
651.226458	0.309941
651.432004	0.310380
651.637532	0.310303
651.843041	0.311173
652.048532	0.312419
652.254006	0.312403
652.459460	0.312689
652.664897	0.312660
652.870315	0.312267
653.075716	0.312602
653.281097	0.313242
653.486461	0.313771
653.691807	0.313600
653.897134	0.313445
654.102443	0.313394
654.307734	0.313861
654.513006	0.314106
654.718261	0.314695
654.923497	0.314842
655.128715	0.314649
655.333915	0.314889
655.539096	0.315748
655.744259	0.315729
655.949404	0.315818
656.154531	0.315854
656.359640	0.315765
656.564730	0.316110
656.769802	0.316356
656.974856	0.316837
657.179892	0.317396
657.384909	0.317224
657.589908	0.317958
657.794889	0.318234
657.999852	0.318208
658.204797	0.318860
658.409723	0.319118
658.614631	0.319667
658.819521	0.319768
659.024393	0.319277
659.229246	0.319348
659.434081	0.319566
659.638898	0.320245
659.843697	0.320631
660.048478	0.320749
660.253240	0.321005
660.457984	0.321048
660.662710	0.321485
660.867417	0.322183
661.072107	0.322536
661.276778	0.322474
661.481431	0.322349
661.686066	0.322765
661.890682	0.322551
662.095281	0.322821
662.299861	0.323353
662.504422	0.323390
662.708966	0.323601
662.913491	0.323126
663.117999	0.323468
663.322488	0.323657
663.526958	0.323881
663.731411	0.325426
663.935845	0.325396
664.140261	0.325644
664.344659	0.325510
664.549038	0.325776
664.753400	0.326954
664.957743	0.327073
665.162068	0.327455
665.366375	0.327356
665.570663	0.326732
665.774933	0.327510
665.979185	0.327557
666.183419	0.328491
666.387635	0.328782
666.591832	0.328539
666.796011	0.328894
667.000172	0.329372
667.204315	0.330341
667.408439	0.330462
667.612545	0.330406
667.816634	0.331095
668.020703	0.331232
668.224755	0.331302
668.428788	0.331758
668.632803	0.332098
668.836800	0.332771
669.040779	0.332464
669.244739	0.333134
669.448681	0.333441
669.652605	0.333350
669.856511	0.333470
670.060399	0.333833
670.264268	0.334492
670.468119	0.334196
670.671952	0.334027
670.875767	0.334117
671.079563	0.334150
671.283341	0.334945
671.487101	0.335666
671.690843	0.335675
671.894567	0.336172
672.098272	0.336170
672.301959	0.336965
672.505628	0.337534
672.709278	0.338194
672.912911	0.338261
673.116525	0.338280
673.320121	0.338026
673.523699	0.338774
673.727258	0.338579
673.930799	0.339024
674.134322	0.339154
674.337827	0.338880
674.541314	0.339055
674.744782	0.339890
674.948232	0.340137
675.151664	0.340944
675.355078	0.341432
675.558474	0.342217
675.761851	0.342304
675.965210	0.342929
676.168551	0.343594
676.371873	0.343774
676.575178	0.343631
676.778464	0.344014
676.981732	0.343649
677.184981	0.343608
677.388213	0.343923
677.591426	0.344192
677.794621	0.344630
677.997798	0.344770
678.200956	0.345070
678.404097	0.345230
678.607219	0.345117
678.810323	0.345219
679.013408	0.345249
679.216476	0.345307
679.419525	0.345170
679.622556	0.344857
679.825569	0.345337
680.028563	0.345821
680.231540	0.346161
680.434498	0.346418
680.637438	0.347447
680.840359	0.347935
681.043263	0.348165
681.246148	0.348531
681.449015	0.348839
681.651864	0.349022
681.854694	0.349060
682.057506	0.349494
682.260301	0.349952
682.463076	0.349707
682.665834	0.349759
682.868573	0.350231
683.071295	0.351298
683.273998	0.351658
683.476682	0.351609
683.679349	0.351671
683.881997	0.352081
684.084627	0.352471
684.287239	0.352703
684.489833	0.352923
684.692408	0.352343
684.894965	0.352228
685.097504	0.352498
685.300025	0.353018
685.502527	0.353566
685.705012	0.353376
685.907478	0.353266
686.109925	0.353501
686.312355	0.353848
686.514766	0.354844
686.717159	0.354918
686.919534	0.355192
687.121891	0.355336
687.324230	0.355812
687.526550	0.356483
687.728852	0.356579
687.931136	0.356509
688.133401	0.356613
688.335649	0.356245
688.537878	0.356701
688.740089	0.357091
688.942281	0.357649
689.144456	0.357302
689.346612	0.357230
689.548750	0.357366
689.750870	0.357767
689.952971	0.358181
690.155055	0.358318
690.357120	0.358151
690.559167	0.358367
690.761195	0.358162
690.963206	0.358688
691.165198	0.359110
691.367172	0.359855
691.569128	0.360132
691.771065	0.360488
691.972984	0.360763
692.174885	0.361501
692.376768	0.361085
692.578633	0.361483
692.780479	0.361855
692.982308	0.361800
693.184118	0.361639
693.385909	0.362120
693.587683	0.362110
693.789438	0.362894
693.991175	0.362683
694.192894	0.363338
694.394595	0.363633
694.596277	0.364202
694.797941	0.364551
694.999587	0.365166
695.201215	0.364864
695.402824	0.364771
695.604416	0.364628
695.805989	0.365307
696.007543	0.365199
696.209080	0.365515
696.410598	0.365219
696.612099	0.365390
696.813580	0.365670
697.015044	0.365823
697.216490	0.366404
697.417917	0.366556
697.619326	0.366180
697.820717	0.366416
698.022089	0.366236
698.223444	0.366224
698.424780	0.366410
698.626098	0.366311
698.827397	0.366988
699.028679	0.367136
699.229942	0.366996
699.431187	0.367042
699.632414	0.367317
699.833622	0.367317
700.034813	0.367161
700.235985	0.367109
700.437139	0.367044
700.638274	0.366538
700.839392	0.366841
701.040491	0.367530
701.241572	0.368148
701.442635	0.367963
701.643679	0.368198
701.844706	0.368441
702.045714	0.369144
702.246704	0.369381
702.447675	0.369879
702.648629	0.369766
702.849564	0.369558
703.050481	0.369365
703.251380	0.369723
703.452260	0.369719
703.653122	0.370086
703.853966	0.370162
704.054792	0.370598
704.255600	0.370411
704.456389	0.370754
704.657160	0.370960
704.857913	0.371162
705.058648	0.371575
705.259365	0.371238
705.460063	0.371370
705.660743	0.371261
705.861405	0.370698
706.062048	0.371170
706.262674	0.371310
706.463281	0.371535
706.663870	0.371158
706.864441	0.370861
707.064993	0.371498
707.265527	0.371495
707.466043	0.371388
707.666541	0.371896
707.867021	0.371685
708.067482	0.372102
708.267925	0.371710
708.468350	0.371889
708.668757	0.371683
708.869145	0.371834
709.069516	0.371302
709.269868	0.370640
709.470201	0.370696
709.670517	0.370752
709.870814	0.369814
710.071093	0.370026
710.271354	0.370509
710.471597	0.370581
710.671821	0.370025
710.872028	0.370109
711.072216	0.370531
711.272385	0.370143
711.472537	0.369841
711.672670	0.369404
711.872785	0.369094
712.072882	0.368707
712.272961	0.368677
712.473021	0.369095
712.673063	0.369631
712.873087	0.369810
713.073093	0.369772
713.273081	0.370229
713.473050	0.370970
713.673001	0.371249
713.872934	0.370902
714.072849	0.370703
714.272745	0.370010
714.472623	0.369808
714.672483	0.369561
714.872325	0.369518
715.072148	0.369223
715.271954	0.369024
715.471741	0.368687
715.671509	0.369129
715.871260	0.369201
716.070992	0.369276
716.270707	0.369177
716.470403	0.368975
716.670080	0.368740
716.869740	0.368656
717.069381	0.368185
717.269004	0.367844
717.468609	0.367761
717.668195	0.367644
717.867764	0.368288
718.067314	0.367814
718.266846	0.367892
718.466360	0.367421
718.665855	0.367084
718.865332	0.366991
719.064791	0.367589
719.264232	0.367124
719.463655	0.366931
719.663059	0.366268
719.862445	0.366664
720.061813	0.366470
720.261163	0.366917
720.460494	0.367086
720.659807	0.367338
720.859102	0.367033
721.058379	0.367160
721.257638	0.367089
721.456878	0.367221
721.656100	0.367166
721.855304	0.367371
722.054490	0.367267
722.253657	0.367482
722.452806	0.367573
722.651937	0.367571
722.851050	0.367232
723.050145	0.367358
723.249221	0.367171
723.448279	0.366913
723.647319	0.366669
723.846340	0.366763
724.045344	0.366320
724.244329	0.365586
724.443296	0.364973
724.642245	0.365227
724.841175	0.365055
725.040088	0.364709
725.238982	0.364408
725.437857	0.364375
725.636715	0.363863
725.835554	0.363687
726.034376	0.364294
726.233179	0.364341
726.431963	0.363850
726.630730	0.363512
726.829478	0.363522
727.028208	0.363113
727.226920	0.362568
727.425614	0.362090
727.624289	0.361871
727.822946	0.361017
728.021585	0.360556
728.220206	0.360620
728.418808	0.360598
728.617392	0.360452
728.815958	0.360212
729.014506	0.360152
729.213036	0.360104
729.411547	0.360123
729.610040	0.360173
729.808515	0.360475
730.006972	0.359949
730.205410	0.360420
730.403831	0.360231
730.602233	0.359941
730.800616	0.359795
730.998982	0.360043
731.197329	0.359270
731.395658	0.358825
731.593969	0.358963
731.792262	0.359308
731.990536	0.358622
732.188793	0.358151
732.387031	0.358185
732.585250	0.358521
732.783452	0.357749
732.981635	0.358047
733.179800	0.357881
733.377947	0.357557
733.576076	0.356994
733.774186	0.356909
733.972278	0.356984
734.170352	0.356857
734.368408	0.355930
734.566446	0.356262
734.764465	0.355611
734.962466	0.355671
735.160449	0.355135
735.358413	0.354702
735.556360	0.354385
735.754288	0.354075
735.952198	0.353677
736.150090	0.353543
736.347963	0.352911
736.545818	0.353012
736.743655	0.352741
736.941474	0.352215
737.139275	0.352114
737.337057	0.351851
737.534821	0.351411
737.732567	0.351468
737.930295	0.351159
738.128005	0.350541
738.325696	0.350311
738.523369	0.350051
738.721024	0.350318
738.918660	0.350267
739.116279	0.350015
739.313879	0.349396
739.511461	0.349331
739.709024	0.349712
739.906570	0.350360
740.104097	0.349728
740.301606	0.349331
740.499097	0.348644
740.696569	0.347984
740.894024	0.347680
741.091460	0.347777
741.288878	0.347262
741.486277	0.346626
741.683659	0.346097
741.881022	0.346104
742.078367	0.346178
742.275694	0.346227
742.473002	0.345810
742.670293	0.345912
742.867565	0.345936
743.064819	0.345920
743.262054	0.345273
743.459272	0.345245
743.656471	0.344980
743.853652	0.344978
744.050815	0.344538
744.247959	0.344242
744.445085	0.343334
744.642194	0.342853
744.839283	0.341945
745.036355	0.342050
745.233408	0.341845
745.430444	0.341796
745.627461	0.341386
745.824459	0.341573
746.021440	0.341793
746.218402	0.341919
746.415346	0.341931
746.612272	0.342405
746.809180	0.342149
747.006069	0.341814
747.202940	0.341427
747.399793	0.341079
747.596628	0.340726
747.793444	0.340287
747.990243	0.339892
748.187023	0.339803
748.383784	0.339499
748.580528	0.339431
748.777253	0.339228
748.973960	0.338988
749.170649	0.338756
749.367320	0.338551
749.563973	0.338712
749.760607	0.338800
749.957223	0.339076
750.153821	0.339155
750.350400	0.339247
750.546962	0.338578
750.743505	0.338420
750.940030	0.338119
751.136536	0.337771
751.333025	0.337732
751.529495	0.337718
751.725947	0.337084
751.922381	0.336726
752.118796	0.335511
752.315194	0.335398
752.511573	0.334972
752.707934	0.334917
752.904276	0.334617
753.100601	0.334719
753.296907	0.334047
753.493195	0.333453
753.689465	0.332960
753.885716	0.332408
754.081949	0.332318
754.278164	0.332634
754.474361	0.331936
754.670540	0.331679
754.866700	0.330442
755.062843	0.330293
755.258967	0.329811
755.455072	0.329496
755.651160	0.330295
755.847229	0.330347
756.043280	0.330060
756.239313	0.330161
756.435328	0.330259
756.631324	0.330269
756.827302	0.329483
757.023262	0.329578
757.219204	0.329278
757.415127	0.328919
757.611033	0.329148
757.806920	0.328563
758.002788	0.328161
758.198639	0.327814
758.394471	0.328355
758.590286	0.328698
758.786081	0.329200
758.981859	0.329145
759.177619	0.329201
759.373360	0.328558
759.569083	0.328706
759.764788	0.328809
759.960474	0.328352
760.156143	0.327969
760.351793	0.327291
760.547425	0.326620
760.743038	0.326760
760.938634	0.326767
761.134211	0.326356
761.329770	0.325641
761.525311	0.325809
761.720833	0.326431
761.916338	0.326386
762.111824	0.326342
762.307292	0.326413
762.502741	0.325999
762.698173	0.325595
762.893586	0.325746
763.088981	0.325803
763.284358	0.325583
763.479716	0.324394
763.675057	0.323961
763.870379	0.324262
764.065683	0.324158
764.260968	0.324380
764.456236	0.323987
764.651485	0.323977
764.846716	0.324675
765.041929	0.324209
765.237123	0.324636
765.432299	0.324762
765.627457	0.324630
765.822597	0.324403
766.017719	0.323801
766.212822	0.323930
766.407907	0.323672
766.602974	0.322801
766.798023	0.322484
766.993054	0.322314
767.188066	0.322021
767.383060	0.322080
767.578036	0.322002
767.772993	0.322228
767.967933	0.321991
768.162854	0.321612
768.357757	0.321586
768.552642	0.321962
768.747508	0.322303
768.942356	0.321704
769.137186	0.321674
769.331998	0.320944
769.526792	0.320632
769.721567	0.320657
769.916324	0.320739
770.111063	0.320766
770.305784	0.320605
770.500486	0.320043
770.695171	0.319864
770.889837	0.319733
771.084484	0.320208
771.279114	0.320114
771.473725	0.320622
771.668318	0.320665
771.862893	0.320232
772.057450	0.320010
772.251988	0.319951
772.446509	0.319748
772.641011	0.319375
772.835494	0.319733
773.029960	0.319536
773.224407	0.318833
773.418836	0.318347
773.613247	0.318490
773.807640	0.318879
774.002014	0.318849
774.196370	0.319546
774.390708	0.318918
774.585028	0.318169
774.779330	0.318391
774.973613	0.318441
775.167878	0.318802
775.362125	0.318962
775.556354	0.318357
775.750564	0.318420
775.944756	0.318235
776.138930	0.319379
776.333086	0.319408
776.527223	0.319231
776.721343	0.319242
776.915444	0.318716
777.109526	0.319167
777.303591	0.319489
777.497637	0.319401
777.691666	0.318897
777.885676	0.317925
778.079667	0.317646
778.273641	0.317329
778.467596	0.316695
778.661533	0.317119
778.855452	0.316375
779.049352	0.316410
779.243235	0.316090
779.437099	0.316039
779.630945	0.316587
779.824773	0.316560
780.018582	0.316708
780.212373	0.317361
780.406146	0.316858
780.599901	0.317007
780.793638	0.316622
780.987356	0.317054
781.181056	0.317727
781.374738	0.317918
781.568402	0.318059
781.762047	0.318449
781.955674	0.318131
782.149283	0.318276
782.342874	0.318264
782.536447	0.318150
782.730001	0.318133
782.923537	0.317784
783.117055	0.317522
783.310555	0.317691
783.504036	0.316564
783.697499	0.316524
783.890944	0.316818
784.084371	0.317071
784.277780	0.317381
784.471170	0.317761
784.664542	0.317719
784.857896	0.317909
785.051231	0.317926
785.244549	0.318915
785.437848	0.319240
785.631129	0.319102
785.824392	0.319023
786.017636	0.318971
786.210863	0.318014
786.404071	0.318516
786.597260	0.318365
786.790432	0.318029
786.983585	0.318371
787.176721	0.318373
787.369838	0.319314
787.562936	0.319082
787.756017	0.319516
787.949079	0.319815
788.142123	0.319660
788.335149	0.319894
788.528156	0.320370
788.721146	0.320143
788.914117	0.319580
789.107070	0.318710
789.300005	0.319335
789.492921	0.319025
789.685819	0.319717
789.878699	0.319356
790.071561	0.319283
790.264405	0.319346
790.457230	0.319743
790.650037	0.320386
790.842826	0.320777
791.035597	0.320829
791.228349	0.320557
791.421084	0.320147
791.613800	0.320662
791.806497	0.320788
791.999177	0.320913
792.191838	0.320478
792.384481	0.320067
792.577106	0.320018
792.769713	0.320062
792.962301	0.321179
793.154871	0.321490
793.347423	0.321109
793.539957	0.321043
793.732473	0.321141
793.924970	0.321565
794.117449	0.321756
794.309910	0.322345
794.502353	0.322304
794.694777	0.321298
794.887183	0.321237
795.079571	0.321543
795.271941	0.321533
795.464293	0.321581
795.656626	0.321572
795.848941	0.322105
796.041238	0.321499
796.233516	0.321847
796.425777	0.322965
796.618019	0.323529
796.810243	0.324076
797.002449	0.324207
797.194636	0.323738
797.386805	0.324514
797.578956	0.325001
797.771089	0.325833
797.963204	0.325544
798.155300	0.325283
798.347378	0.325345
798.539438	0.325063
798.731480	0.325536
798.923503	0.326541
799.115509	0.326312
799.307496	0.326107
799.499465	0.326201
799.691415	0.326413
799.883348	0.326447
800.075262	0.326247
800.267158	0.326800
800.459035	0.326650
800.650895	0.326528
800.842736	0.326541
801.034559	0.326870
801.226364	0.326913
801.418150	0.327465
801.609919	0.328215
801.801669	0.328171
801.993401	0.328082
802.185114	0.328306
802.376810	0.328699
802.568487	0.329231
802.760146	0.329433
802.951787	0.329240
803.143409	0.329504
803.335014	0.329223
803.526600	0.329951
803.718168	0.330356
803.909717	0.330650
804.101249	0.330930
804.292762	0.330721
804.484257	0.330320
804.675734	0.330706
804.867192	0.331086
805.058632	0.331513
805.250054	0.331971
805.441458	0.332156
805.632844	0.332841
805.824211	0.333548
806.015561	0.334635
806.206891	0.335514
806.398204	0.335286
806.589499	0.335070
806.780775	0.335421
806.972033	0.335255
807.163273	0.336418
807.354495	0.336008
807.545698	0.335544
807.736883	0.334890
807.928050	0.335235
808.119199	0.336078
808.310329	0.336921
808.501441	0.336843
808.692535	0.337296
808.883611	0.336397
809.074669	0.337015
809.265708	0.337338
809.456729	0.337828
809.647732	0.337413
809.838717	0.337860
810.029683	0.337383
810.220632	0.337845
810.411562	0.337781
810.602474	0.338070
810.793367	0.338474
810.984242	0.339054
811.175100	0.339099
811.365938	0.339798
811.556759	0.339836
811.747562	0.340309
811.938346	0.340145
812.129112	0.340794
812.319860	0.341215
812.510589	0.341354
812.701300	0.341029
812.891994	0.341727
813.082668	0.341766
813.273325	0.342651
813.463964	0.343193
813.654584	0.343979
813.845186	0.344431
814.035769	0.344614
814.226335	0.345093
814.416882	0.345837
814.607411	0.346546
814.797922	0.346978
814.988415	0.346627
815.178889	0.347327
815.369345	0.347084
815.559783	0.346644
815.750203	0.347550
815.940605	0.347901
816.130988	0.348545
816.321353	0.348331
816.511700	0.349434
816.702028	0.350348
816.892339	0.350212
817.082631	0.350644
817.272905	0.351709
817.463161	0.351439
817.653398	0.351376
817.843617	0.351977
818.033819	0.351715
818.224001	0.351908
818.414166	0.351474
818.604312	0.351960
818.794440	0.353068
818.984550	0.353136
819.174642	0.353819
819.364716	0.354320
819.554771	0.354339
819.744808	0.354974
819.934827	0.354875
820.124827	0.356078
820.314810	0.355541
820.504774	0.355264
820.694720	0.354908
820.884647	0.355222
821.074557	0.355570
821.264448	0.355879
821.454321	0.357000
821.644176	0.356653
821.834012	0.356368
822.023831	0.357309
822.213631	0.357616
822.403413	0.358875
822.593176	0.359166
822.782922	0.359476
822.972649	0.359749
823.162358	0.359459
823.352049	0.361087
823.541721	0.361544
823.731376	0.362010
823.921012	0.362229
824.110629	0.362708
824.300229	0.362920
824.489811	0.363416
824.679374	0.363351
824.868919	0.363633
825.058445	0.364003
825.247954	0.364120
825.437444	0.364311
825.626916	0.365785
825.816370	0.366052
826.005806	0.367569
826.195223	0.368326
826.384622	0.369594
826.574003	0.369609
826.763366	0.369268
826.952711	0.370054
827.142037	0.370726
827.331345	0.370290
827.520635	0.370554
827.709906	0.370176
827.899160	0.369917
828.088395	0.369271
828.277612	0.370266
828.466810	0.371064
828.655991	0.370898
828.845153	0.371376
829.034297	0.371265
829.223423	0.371716
829.412531	0.371948
829.601620	0.372650
829.790691	0.373561
829.979744	0.373771
830.168779	0.374207
830.357795	0.374943
830.546793	0.375196
830.735773	0.376281
830.924735	0.376430
831.113679	0.377043
831.302604	0.377802
831.491511	0.377883
831.680400	0.378546
831.869271	0.378705
832.058123	0.379481
832.246957	0.379388
832.435773	0.379315
832.624571	0.380082
832.813351	0.379695
833.002112	0.379603
833.190855	0.381063
833.379580	0.381140
833.568287	0.382085
833.756975	0.381977
833.945645	0.382646
834.134297	0.383842
834.322931	0.384515
834.511547	0.385179
834.700144	0.385851
834.888723	0.385663
835.077284	0.386586
835.265826	0.386404
835.454351	0.387513
835.642857	0.388510
835.831345	0.388126
836.019815	0.388323
836.208266	0.388782
836.396699	0.389280
836.585114	0.389536
836.773511	0.389946
836.961890	0.390518
837.150250	0.390962
837.338592	0.391246
837.526916	0.392145
837.715222	0.393327
837.903510	0.394227
838.091779	0.394210
838.280030	0.394767
838.468263	0.394859
838.656477	0.395109
838.844674	0.395820
839.032852	0.395718
839.221012	0.396207
839.409153	0.395717
839.597277	0.396197
839.785382	0.396921
839.973469	0.397206
840.161538	0.398604
840.349589	0.399101
840.537621	0.398198
840.725635	0.398823
840.913631	0.399344
841.101609	0.399679
841.289568	0.400315
841.477509	0.401280
841.665432	0.402010
841.853337	0.401476
842.041224	0.401852
842.229092	0.403168
842.416942	0.403721
842.604774	0.403894
842.792588	0.404906
842.980383	0.405813
843.168160	0.405869
843.355919	0.406608
843.543660	0.407270
843.731382	0.407718
843.919087	0.408145
844.106773	0.408368
844.294441	0.409183
844.482090	0.408766
844.669722	0.408377
844.857335	0.409037
845.044930	0.408741
845.232507	0.409964
845.420065	0.410218
845.607605	0.410461
845.795127	0.410930
845.982631	0.409968
846.170117	0.410808
846.357584	0.411006
846.545033	0.410528
846.732464	0.411984
846.919877	0.411794
847.107272	0.412308
847.294648	0.412416
847.482006	0.413299
847.669346	0.415303
847.856667	0.415445
848.043971	0.416323
848.231256	0.417761
848.418523	0.417637
848.605771	0.417917
848.793002	0.419775
848.980214	0.420629
849.167408	0.419815
849.354584	0.420354
849.541742	0.421077
849.728881	0.421934
849.916002	0.422169
850.103105	0.422506
850.290190	0.423511
850.477256	0.423286
850.664304	0.424367
850.851334	0.425679
851.038346	0.425237
851.225340	0.425205
851.412315	0.425065
851.599272	0.426003
851.786211	0.426326
851.973132	0.425676
852.160034	0.425854
852.346918	0.425672
852.533784	0.426688
852.720632	0.427847
852.907462	0.429034
853.094273	0.429720
853.281066	0.429522
853.467841	0.430044
853.654598	0.431438
853.841336	0.432363
854.028056	0.432904
854.214758	0.433677
854.401442	0.433417
854.588107	0.433125
854.774755	0.433233
854.961384	0.433912
855.147995	0.433383
855.334587	0.433322
855.521162	0.433659
855.707718	0.434370
855.894256	0.433966
856.080775	0.435083
856.267277	0.436056
856.453760	0.436214
856.640225	0.436466
856.826672	0.437782
857.013101	0.438109
857.199511	0.438968
857.385903	0.439253
857.572277	0.440067
857.758633	0.440120
857.944970	0.441374
858.131290	0.442156
858.317591	0.442327
858.503873	0.442888
858.690138	0.442901
858.876384	0.441747
859.062612	0.442024
859.248822	0.442395
859.435014	0.442990
859.621188	0.442628
859.807343	0.442949
859.993480	0.443007
860.179599	0.442756
860.365699	0.442940
860.551781	0.443680
860.737846	0.444262
860.923891	0.445653
861.109919	0.446778
861.295929	0.447744
861.481920	0.448360
861.667893	0.449234
861.853848	0.450179
862.039784	0.452002
862.225702	0.453029
862.411603	0.452890
862.597484	0.452232
862.783348	0.451820
862.969193	0.450908
863.155021	0.451609
863.340830	0.452581
863.526620	0.453171
863.712393	0.453231
863.898147	0.453788
864.083883	0.454686
864.269601	0.454210
864.455301	0.453940
864.640982	0.455311
864.826645	0.455554
865.012290	0.455416
865.197917	0.455099
865.383526	0.455273
865.569116	0.455967
865.754688	0.456248
865.940242	0.457101
866.125777	0.457570
866.311295	0.457261
866.496794	0.457542
866.682275	0.458315
866.867737	0.459651
867.053182	0.459114
867.238608	0.458381
867.424016	0.458232
867.609406	0.457864
867.794778	0.458333
867.980131	0.459050
868.165466	0.459855
868.350783	0.459411
868.536082	0.458778
868.721362	0.459799
868.906625	0.460130
869.091869	0.461125
869.277094	0.461690
869.462302	0.462743
869.647491	0.463632
869.832662	0.462522
870.017815	0.462254
870.202950	0.462561
870.388066	0.462195
870.573165	0.462688
870.758245	0.462762
870.943306	0.463615
871.128350	0.463203
871.313375	0.463985
871.498382	0.464934
871.683371	0.465953
871.868342	0.467282
872.053294	0.468018
872.238229	0.467797
872.423144	0.468698
872.608042	0.468853
872.792922	0.469604
872.977783	0.469143
873.162626	0.469502
873.347451	0.469544
873.532258	0.468381
873.717046	0.468465
873.901816	0.469446
874.086568	0.469164
874.271302	0.469394
874.456017	0.469193
874.640715	0.468478
874.825394	0.468473
875.010055	0.468289
875.194697	0.470055
875.379322	0.469935
875.563928	0.469733
875.748516	0.470056
875.933085	0.469556
876.117637	0.469965
876.302170	0.470203
876.486685	0.471120
876.671182	0.471563
876.855661	0.470677
877.040121	0.471346
877.224563	0.472192
877.408987	0.471434
877.593393	0.472993
877.777780	0.473286
877.962150	0.473818
878.146501	0.473211
878.330833	0.473602
878.515148	0.475297
878.699444	0.476576
878.883722	0.475742
879.067982	0.477491
879.252224	0.477311
879.436447	0.478199
879.620653	0.477998
879.804840	0.478466
879.989008	0.478466
880.173159	0.477724
880.357291	0.477495
880.541405	0.478326
880.725501	0.477661
880.909579	0.477834
881.093638	0.476334
881.277680	0.476996
881.461703	0.477359
881.645707	0.478648
881.829694	0.479204
882.013662	0.479751
882.197612	0.479607
882.381544	0.479988
882.565458	0.479800
882.749353	0.481698
882.933230	0.482610
883.117089	0.482153
883.300930	0.481910
883.484753	0.481850
883.668557	0.481036
883.852343	0.482051
884.036111	0.481121
884.219861	0.481536
884.403592	0.480248
884.587305	0.480213
884.771000	0.479938
884.954677	0.481227
885.138335	0.482306
885.321976	0.481735
885.505598	0.480770
885.689201	0.482365
885.872787	0.482253
886.056354	0.483032
886.239904	0.481051
886.423434	0.482036
886.606947	0.480937
886.790442	0.479912
886.973918	0.481010
887.157376	0.481330
887.340816	0.480387
887.524237	0.479369
887.707641	0.478817
887.891026	0.479784
888.074393	0.479834
888.257741	0.478655
888.441072	0.478605
888.624384	0.477487
888.807678	0.477104
888.990954	0.476596
889.174211	0.476682
889.357451	0.477669
889.540672	0.477686
889.723875	0.476397
889.907059	0.476138
890.090226	0.475482
890.273374	0.476174
890.456504	0.475206
890.639616	0.475519
890.822709	0.476131
891.005785	0.475820
891.188842	0.476228
891.371881	0.475981
891.554901	0.477410
891.737904	0.478649
891.920888	0.479410
892.103854	0.480949
892.286802	0.480390
892.469731	0.479528
892.652643	0.479390
892.835536	0.479796
893.018410	0.481614
893.201267	0.481084
893.384106	0.479751
893.566926	0.478903
893.749728	0.478823
893.932511	0.479993
894.115277	0.481172
894.298024	0.480594
894.480753	0.479367
894.663464	0.479018
894.846157	0.478809
895.028831	0.478261
895.211487	0.476776
895.394125	0.476025
895.576745	0.474698
895.759346	0.473925
895.941930	0.474453
896.124495	0.474602
896.307041	0.472358
896.489570	0.471583
896.672080	0.473108
896.854573	0.473071
897.037046	0.472196
897.219502	0.471376
897.401940	0.471766
897.584359	0.469819
897.766760	0.470678
897.949143	0.472571
898.131507	0.473631
898.313854	0.471969
898.496182	0.474018
898.678492	0.474800
898.860783	0.475460
899.043057	0.475323
899.225312	0.475880
899.407549	0.474327
899.589768	0.473176
899.771968	0.472252
899.954151	0.471511
900.136315	0.469575
900.318461	0.468673
900.500588	0.467478
900.682698	0.465698
900.864789	0.466138
901.046862	0.464730
901.228917	0.465594
901.410953	0.465915
901.592971	0.467049
901.774972	0.467649
901.956953	0.467241
902.138917	0.467919
902.320862	0.468271
902.502790	0.466799
902.684699	0.467978
902.866589	0.466245
903.048462	0.464629
903.230316	0.462314
903.412152	0.462475
903.593970	0.462851
903.775770	0.462552
903.957551	0.461888
904.139314	0.461973
904.321059	0.461047
904.502786	0.461430
904.684494	0.461169
904.866185	0.462360
905.047857	0.459984
905.229510	0.459625
905.411146	0.459513
905.592763	0.459272
905.774363	0.459737
905.955943	0.459561
906.137506	0.458238
906.319051	0.457865
906.500577	0.456153
906.682085	0.456705
906.863575	0.456234
907.045046	0.455131
907.226500	0.454721
907.407935	0.454591
907.589352	0.455761
907.770750	0.455606
907.952131	0.455579
908.133493	0.456712
908.314837	0.457389
908.496163	0.456677
908.677470	0.456087
908.858760	0.455554
909.040031	0.456126
909.221284	0.454832
909.402518	0.456579
909.583735	0.454493
909.764933	0.452175
909.946113	0.451308
910.127275	0.450260
910.308418	0.450801
910.489544	0.451696
910.670651	0.449207
910.851740	0.446613
911.032810	0.443108
911.213863	0.443968
911.394897	0.443520
911.575913	0.441460
911.756911	0.439872
911.937890	0.437553
912.118851	0.437085
912.299794	0.435972
912.480719	0.436374
912.661626	0.436780
912.842514	0.437843
913.023384	0.438722
913.204236	0.436719
913.385070	0.436646
913.565886	0.437056
913.746683	0.434513
913.927462	0.435245
914.108223	0.434291
914.288965	0.433346
914.469690	0.430922
914.650396	0.429845
914.831084	0.431871
915.011754	0.432435
915.192405	0.430724
915.373038	0.431766
915.553653	0.430763
915.734250	0.430906
915.914829	0.429830
916.095389	0.429257
916.275931	0.428546
916.456455	0.427386
916.636961	0.425276
916.817448	0.425836
916.997917	0.422318
917.178368	0.420744
917.358801	0.418590
917.539216	0.418553
917.719612	0.417127
917.899990	0.415101
918.080350	0.413975
918.260692	0.411834
918.441015	0.413673
918.621320	0.413751
918.801607	0.413277
918.981876	0.412842
919.162127	0.411821
919.342359	0.412472
919.522573	0.412631
919.702769	0.413073
919.882947	0.414664
920.063106	0.411361
920.243247	0.411946
920.423370	0.410014
920.603475	0.410214
920.783562	0.410460
920.963630	0.407338
921.143680	0.406898
921.323712	0.403593
921.503725	0.402875
921.683721	0.403172
921.863698	0.402706
922.043657	0.402892
922.223598	0.401889
922.403520	0.399621
922.583424	0.400287
922.763311	0.397770
922.943178	0.399932
923.123028	0.399202
923.302859	0.396938
923.482673	0.396812
923.662467	0.395662
923.842244	0.393306
924.022003	0.393411
924.201743	0.393402
924.381465	0.396059
924.561169	0.392036
924.740854	0.389852
924.920522	0.389437
925.100171	0.389324
925.279802	0.389064
925.459414	0.389252
925.639009	0.387708
925.818585	0.385301
925.998143	0.382463
926.177683	0.384922
926.357205	0.387073
926.536708	0.384963
926.716193	0.383751
926.895660	0.381156
927.075109	0.381540
927.254539	0.381207
927.433951	0.380466
927.613345	0.380194
927.792721	0.378018
927.972079	0.375451
928.151418	0.375145
928.330739	0.371833
928.510042	0.372042
928.689327	0.369844
928.868593	0.368447
929.047841	0.367210
929.227071	0.366010
929.406283	0.363521
929.585476	0.362540
929.764652	0.361151
929.943809	0.361028
930.122948	0.361017
930.302068	0.361629
930.481171	0.361645
930.660255	0.360735
930.839321	0.358546
931.018369	0.359913
931.197398	0.359754
931.376409	0.358900
931.555402	0.355962
931.734377	0.354330
931.913334	0.352100
932.092272	0.348743
932.271192	0.348093
932.450094	0.347384
932.628978	0.345264
932.807844	0.342802
932.986691	0.342871
933.165520	0.343745
933.344331	0.342568
933.523123	0.343424
933.701898	0.344875
933.880654	0.347061
934.059392	0.345199
934.238111	0.342886
934.416813	0.341965
934.595496	0.340891
934.774161	0.340565
934.952808	0.342310
935.131437	0.340413
935.310047	0.337001
935.488639	0.333304
935.667213	0.334492
935.845769	0.334227
936.024306	0.333692
936.202825	0.332052
936.381326	0.327896
936.559809	0.324256
936.738274	0.322493
936.916720	0.323142
937.095148	0.321612
937.273558	0.319215
937.451950	0.319162
937.630323	0.318207
937.808678	0.318515
937.987015	0.321152
938.165334	0.320088
938.343635	0.320390
938.521917	0.318945
938.700181	0.318108
938.878427	0.317841
939.056655	0.318284
939.234864	0.316811
939.413055	0.314295
939.591228	0.312452
939.769383	0.309089
939.947519	0.305102
940.125638	0.307558
940.303738	0.307876
940.481820	0.303345
940.659883	0.298870
940.837929	0.299175
941.015956	0.296873
941.193965	0.295775
941.371955	0.298030
941.549928	0.295979
941.727882	0.293600
941.905818	0.288698
942.083736	0.289250
942.261636	0.293272
942.439517	0.292913
942.617380	0.293710
942.795225	0.295549
942.973052	0.291909
943.150860	0.294572
943.328651	0.292425
943.506423	0.294048
943.684176	0.295951
943.861912	0.290083
944.039629	0.288346
944.217328	0.284738
944.395009	0.280552
944.572672	0.285099
944.750317	0.281965
944.927943	0.280798
945.105551	0.281237
945.283141	0.280222
945.460712	0.283667
945.638265	0.280744
945.815801	0.279461
945.993317	0.275716
946.170816	0.271398
946.348297	0.264698
946.525759	0.261344
946.703203	0.255926
946.880629	0.254070
947.058036	0.248291
947.235425	0.248424
947.412797	0.249491
947.590149	0.249851
947.767484	0.244606
947.944800	0.248799
948.122099	0.247163
948.299379	0.246883
948.476640	0.245101
948.653884	0.241885
948.831109	0.239856
949.008316	0.234926
949.185505	0.235842
949.362676	0.235006
949.539828	0.233769
949.716962	0.235874
949.894078	0.235718
950.071176	0.238114
950.248256	0.242320
950.425317	0.241071
950.602360	0.241607
950.779385	0.234866
950.956391	0.240479
951.133380	0.243557
951.310350	0.240598
951.487302	0.240322
951.664235	0.234667
951.841151	0.225400
952.018048	0.225123
952.194927	0.224314
952.371788	0.224029
952.548631	0.218444
952.725455	0.213888
952.902261	0.208165
953.079049	0.205399
953.255819	0.203361
953.432570	0.206050
953.609303	0.201476
953.786018	0.200214
953.962715	0.195351
954.139394	0.194970
954.316054	0.192442
954.492696	0.192231
954.669320	0.191212
954.845926	0.195396
955.022513	0.194535
955.199083	0.190236
955.375634	0.189328
955.552166	0.191601
955.728681	0.195927
955.905177	0.197861
956.081655	0.203753
956.258115	0.204621
956.434557	0.199208
956.610980	0.200457
956.787385	0.208626
956.963772	0.205603
957.140141	0.206873
957.316492	0.199458
957.492824	0.193636
957.669138	0.187441
957.845434	0.189346
958.021712	0.183252
958.197971	0.184777
958.374212	0.183281
958.550435	0.189626
958.726640	0.191063
958.902826	0.194387
959.078995	0.203361
959.255145	0.199231
959.431277	0.200800
959.607390	0.202066
959.783486	0.205863
959.959563	0.203801
960.135622	0.203323
960.311662	0.204626
960.487685	0.196610
960.663689	0.189955
960.839675	0.185238
961.015643	0.174712
961.191593	0.175884
961.367524	0.160885
961.543437	0.164120
961.719332	0.155602
961.895209	0.138593
962.071067	0.140069
962.246907	0.139841
962.422730	0.142893
962.598533	0.149223
962.774319	0.152411
962.950086	0.156505
963.125835	0.145148
963.301566	0.146873
963.477279	0.156785
963.652973	0.152128
963.828650	0.146577
964.004308	0.150177
964.179947	0.147028
964.355569	0.135070
964.531172	0.132691
964.706757	0.146435
964.882324	0.143597
965.057873	0.140671
965.233403	0.146043
965.408916	0.146262
965.584410	0.138000
965.759885	0.136623
965.935343	0.153046
966.110782	0.153633
966.286203	0.143243
966.461606	0.146154
966.636991	0.146518
966.812357	0.146666
966.987705	0.147668
967.163035	0.159045
967.338347	0.160544
967.513641	0.144283
967.688916	0.143295
967.864173	0.143766
968.039412	0.144419
968.214632	0.153323
968.389835	0.148563
968.565019	0.154119
968.740185	0.152006
968.915333	0.152546
969.090462	0.157826
969.265573	0.166560
969.440667	0.168530
969.615741	0.176903
969.790798	0.163423
969.965836	0.166723
970.140856	0.164038
970.315858	0.171588
970.490842	0.166258
970.665808	0.168430
970.840755	0.167980
971.015684	0.163108
971.190595	0.157047
971.365487	0.162489
971.540362	0.160727
971.715218	0.152870
971.890056	0.142736
972.064875	0.148658
972.239677	0.149557
972.414460	0.139481
972.589225	0.141062
972.763972	0.135007
972.938700	0.141799
973.113411	0.150158
973.288103	0.156355
973.462777	0.161073
973.637432	0.160687
973.812070	0.156691
973.986689	0.163303
974.161290	0.160210
974.335873	0.172071
974.510437	0.169345
974.684984	0.158469
974.859512	0.157195
975.034022	0.158515
975.208513	0.159316
975.382987	0.156014
975.557442	0.151302
975.731879	0.152611
975.906298	0.149323
976.080698	0.148654
976.255080	0.151431
976.429445	0.146364
976.603790	0.141409
976.778118	0.134881
976.952427	0.141951
977.126719	0.148844
977.300992	0.149264
977.475246	0.145227
977.649483	0.140330
977.823701	0.137122
977.997901	0.142053
978.172083	0.135793
978.346247	0.139532
978.520392	0.137702
978.694519	0.123824
978.868628	0.124399
979.042719	0.119355
979.216791	0.121669
979.390845	0.122468
979.564882	0.132967
979.738899	0.138955
979.912899	0.135319
980.086880	0.134093
980.260843	0.148452
980.434788	0.148598
980.608715	0.149898
980.782623	0.150827
980.956514	0.149702
981.130386	0.145145
981.304240	0.144687
981.478075	0.150867
981.651892	0.158587
981.825692	0.150833
981.999472	0.149552
982.173235	0.153746
982.346980	0.155064
982.520706	0.161399
982.694414	0.159904
982.868104	0.157199
983.041775	0.157576
983.215428	0.156035
983.389064	0.152758
983.562680	0.159394
983.736279	0.157604
983.909860	0.156256
984.083422	0.151885
984.256966	0.148550
984.430491	0.149794
984.603999	0.150573
984.777488	0.140685
984.950959	0.148884
985.124412	0.147738
985.297847	0.146167
985.471263	0.148219
985.644661	0.150910
985.818041	0.154443
985.991403	0.157982
986.164747	0.151016
986.338072	0.150281
986.511379	0.143268
986.684668	0.145017
986.857938	0.141239
987.031191	0.137781
987.204425	0.132314
987.377641	0.131385
987.550839	0.132904
987.724018	0.135224
987.897179	0.140035
988.070322	0.141460
988.243447	0.140288
988.416554	0.146159
988.589642	0.152503
988.762712	0.160775
988.935764	0.159444
989.108798	0.163518
989.281813	0.162253
989.454811	0.163756
989.627790	0.163079
989.800751	0.160410
989.973693	0.163071
990.146617	0.153026
990.319524	0.149972
990.492412	0.156851
990.665281	0.148107
990.838133	0.147035
991.010966	0.141801
991.183781	0.147936
991.356578	0.142322
991.529356	0.143210
991.702117	0.152734
991.874859	0.154473
992.047583	0.144375
992.220288	0.149395
992.392976	0.147623
992.565645	0.157925
992.738296	0.153082
992.910929	0.162657
993.083543	0.161579
993.256139	0.158562
993.428718	0.158379
993.601277	0.160470
993.773819	0.156734
993.946342	0.156213
994.118848	0.152313
994.291335	0.154043
994.463803	0.156027
994.636254	0.146590
994.808686	0.147543
994.981100	0.149510
995.153496	0.152125
995.325874	0.154791
995.498233	0.159612
995.670574	0.157757
995.842897	0.160031
996.015202	0.154807
996.187488	0.166095
996.359757	0.170726
996.532007	0.170759
996.704239	0.174297
996.876452	0.167025
997.048648	0.159789
997.220825	0.162179
997.392984	0.166674
997.565124	0.168735
997.737247	0.159844
997.909351	0.157055
998.081437	0.156217
998.253505	0.158886
998.425554	0.161479
998.597586	0.167820
998.769599	0.163619
998.941594	0.157212
999.113571	0.152485
999.285529	0.155444
999.457469	0.154522
999.629391	0.156231
999.801295	0.151315
999.973181	0.152266
1000.145048	0.154485
1000.316897	0.153908
1000.488728	0.160205
1000.660541	0.159807
1000.832335	0.160023
1001.004111	0.155282
1001.175869	0.141305
1001.347609	0.141238
1001.519331	0.142098
1001.691034	0.145294
1001.862719	0.153032
1002.034386	0.147617
1002.206035	0.153820
1002.377665	0.149205
1002.549277	0.151360
1002.720871	0.164264
1002.892447	0.158949
1003.064004	0.161412
1003.235544	0.159986
1003.407065	0.153696
1003.578568	0.153564
1003.750052	0.146330
1003.921519	0.151848
1004.092967	0.146111
1004.264397	0.142780
1004.435809	0.153972
1004.607202	0.150418
1004.778577	0.148915
1004.949934	0.145607
1005.121273	0.145567
1005.292594	0.152066
1005.463896	0.154244
1005.635180	0.163417
1005.806446	0.164553
1005.977694	0.158903
1006.148923	0.166586
1006.320135	0.165900
1006.491328	0.171667
1006.662503	0.171295
1006.833659	0.170695
1007.004798	0.169984
1007.175918	0.165036
1007.347020	0.166401
1007.518103	0.166185
1007.689169	0.157656
1007.860216	0.155433
1008.031245	0.156797
1008.202256	0.154051
1008.373248	0.153158
1008.544223	0.152311
1008.715179	0.149238
1008.886117	0.143073
1009.057036	0.136534
1009.227938	0.139251
1009.398821	0.139692
1009.569686	0.143172
1009.740533	0.144121
1009.911361	0.140892
1010.082172	0.140512
1010.252964	0.145101
1010.423738	0.151735
1010.594493	0.154823
1010.765231	0.156258
1010.935950	0.154649
1011.106651	0.147248
1011.277334	0.146872
1011.447998	0.144914
1011.618645	0.146991
1011.789273	0.150651
1011.959882	0.149854
1012.130474	0.152062
1012.301048	0.150890
1012.471603	0.156921
1012.642140	0.155585
1012.812658	0.159957
1012.983159	0.164651
1013.153641	0.160747
1013.324105	0.157035
1013.494551	0.153995
1013.664979	0.152329
1013.835388	0.154083
1014.005779	0.150929
1014.176152	0.154974
1014.346507	0.150946
1014.516843	0.148541
1014.687162	0.151754
1014.857462	0.153890
1015.027744	0.153452
1015.198007	0.159158
1015.368252	0.158456
1015.538480	0.162063
1015.708689	0.165906
1015.878879	0.168316
1016.049052	0.173184
1016.219206	0.172039
1016.389342	0.160645
1016.559460	0.168506
1016.729559	0.160018
1016.899641	0.160748
1017.069704	0.152894
1017.239749	0.145283
1017.409775	0.143683
1017.579784	0.136391
1017.749774	0.141611
1017.919746	0.149941
1018.089700	0.141866
1018.259635	0.142369
1018.429553	0.137520
1018.599452	0.145896
1018.769333	0.148388
1018.939195	0.152584
1019.109040	0.161543
1019.278866	0.155139
1019.448674	0.164959
1019.618464	0.170520
1019.788235	0.171250
1019.957989	0.169414
1020.127724	0.164764
1020.297441	0.161707
1020.467139	0.158403
1020.636820	0.151265
1020.806482	0.152174
1020.976126	0.141115
1021.145752	0.140531
1021.315359	0.141777
1021.484948	0.146553
1021.654519	0.143999
1021.824072	0.146349
1021.993607	0.145381
1022.163123	0.146081
1022.332621	0.153684
1022.502101	0.150064
1022.671563	0.157160
1022.841007	0.159925
1023.010432	0.164776
1023.179839	0.163939
1023.349228	0.163046
1023.518598	0.162840
1023.687951	0.169685
1023.857285	0.158962
1024.026601	0.161451
1024.195899	0.151529
1024.365178	0.148630
1024.534439	0.144966
1024.703682	0.145180
1024.872907	0.144468
1025.042114	0.146361
1025.211302	0.138454
1025.380472	0.144026
1025.549624	0.147809
1025.718758	0.146656
1025.887873	0.145620
1026.056970	0.143203
1026.226049	0.145191
1026.395110	0.146514
1026.564153	0.146659
1026.733177	0.151157
1026.902183	0.152327
1027.071171	0.152476
1027.240141	0.150607
1027.409092	0.144380
1027.578026	0.150987
1027.746940	0.150187
1027.915837	0.149928
1028.084716	0.151443
1028.253576	0.151610
1028.422418	0.147699
1028.591242	0.143365
1028.760048	0.150438
1028.928835	0.155594
1029.097604	0.148690
1029.266355	0.150563
1029.435088	0.152876
1029.603803	0.152483
1029.772499	0.151925
1029.941177	0.148325
1030.109837	0.152304
1030.278478	0.149718
1030.447102	0.150619
1030.615707	0.147162
1030.784294	0.144106
1030.952863	0.143368
1031.121413	0.143249
1031.289945	0.139027
1031.458460	0.139090
1031.626955	0.138547
1031.795433	0.136355
1031.963892	0.141038
1032.132334	0.142584
1032.300756	0.149286
1032.469161	0.151215
1032.637548	0.145187
1032.805916	0.148953
1032.974266	0.156818
1033.142598	0.157572
1033.310911	0.157004
1033.479207	0.154676
1033.647484	0.161661
1033.815743	0.154757
1033.983983	0.155546
1034.152206	0.158382
1034.320410	0.157684
1034.488596	0.155545
1034.656764	0.154970
1034.824914	0.153240
1034.993045	0.152420
1035.161158	0.147502
1035.329253	0.147875
1035.497330	0.142769
1035.665388	0.143058
1035.833428	0.142807
1036.001450	0.141875
1036.169454	0.147425
1036.337440	0.151982
1036.505407	0.154090
1036.673356	0.157479
1036.841287	0.165267
1037.009200	0.168696
1037.177094	0.167736
1037.344970	0.168424
1037.512828	0.165726
1037.680668	0.158972
1037.848489	0.158053
1038.016293	0.153196
1038.184078	0.150048
1038.351845	0.143735
1038.519593	0.143219
1038.687324	0.145853
1038.855036	0.150681
1039.022730	0.151710
1039.190406	0.148845
1039.358063	0.143166
1039.525702	0.147522
1039.693323	0.144832
1039.860926	0.142060
1040.028511	0.144076
1040.196077	0.144236
1040.363625	0.134368
1040.531155	0.134002
1040.698667	0.140793
1040.866161	0.149565
1041.033636	0.146891
1041.201093	0.147227
1041.368532	0.149648
1041.535952	0.143259
1041.703355	0.149058
1041.870739	0.151690
1042.038105	0.158156
1042.205452	0.147724
1042.372782	0.142595
1042.540093	0.142354
1042.707386	0.141531
1042.874661	0.136739
1043.041918	0.146168
1043.209156	0.136195
1043.376376	0.135456
1043.543578	0.132139
1043.710762	0.140916
1043.877927	0.140137
1044.045074	0.145487
1044.212203	0.144395
1044.379314	0.151511
1044.546407	0.140493
1044.713481	0.146437
1044.880537	0.147813
1045.047575	0.149419
1045.214595	0.146273
1045.381596	0.144944
1045.548579	0.134031
1045.715544	0.138167
1045.882491	0.136581
1046.049420	0.143793
1046.216330	0.141894
1046.383222	0.140816
1046.550096	0.140882
1046.716951	0.145122
1046.883789	0.145351
1047.050608	0.147068
1047.217409	0.148468
1047.384192	0.152775
1047.550956	0.142063
1047.717703	0.144493
1047.884431	0.149659
1048.051140	0.138644
1048.217832	0.129676
1048.384505	0.133712
1048.551161	0.138025
1048.717798	0.140739
1048.884416	0.136242
1049.051017	0.146606
1049.217599	0.144210
1049.384163	0.138890
1049.550709	0.143546
1049.717237	0.148474
1049.883746	0.155839
1050.050237	0.156848
1050.216710	0.150198
1050.383165	0.149533
1050.549601	0.149557
1050.716019	0.145605
1050.882420	0.147638
1051.048801	0.151214
1051.215165	0.146781
1051.381510	0.143079
1051.547837	0.143142
1051.714146	0.148323
1051.880437	0.147064
1052.046709	0.146936
1052.212964	0.156897
1052.379200	0.158182
1052.545417	0.162002
1052.711617	0.172786
1052.877798	0.174626
1053.043961	0.181729
1053.210106	0.178901
1053.376233	0.177494
1053.542341	0.175782
1053.708432	0.169165
1053.874504	0.165053
1054.040557	0.157568
1054.206593	0.151582
1054.372610	0.141775
1054.538609	0.140766
1054.704590	0.140667
1054.870553	0.144523
1055.036497	0.147425
1055.202424	0.149127
1055.368331	0.155985
1055.534221	0.161263
1055.700093	0.161029
1055.865946	0.168882
1056.031781	0.167044
1056.197598	0.170043
1056.363397	0.164073
1056.529177	0.163353
1056.694939	0.157110
1056.860683	0.154259
1057.026409	0.154489
1057.192116	0.155518
1057.357806	0.160467
1057.523477	0.159155
1057.689130	0.155753
1057.854764	0.163783
1058.020381	0.162347
1058.185979	0.171065
1058.351559	0.173880
1058.517120	0.175301
1058.682664	0.172031
1058.848189	0.169434
1059.013696	0.163319
1059.179185	0.162334
1059.344656	0.159282
1059.510108	0.164964
1059.675542	0.164970
1059.840958	0.169922
1060.006356	0.164914
1060.171735	0.169166
1060.337096	0.154831
1060.502439	0.153379
1060.667764	0.156866
1060.833071	0.158557
1060.998359	0.142315
1061.163629	0.137944
1061.328881	0.133010
1061.494115	0.136769
1061.659330	0.143540
1061.824527	0.147128
1061.989706	0.150921
1062.154867	0.146947
1062.320010	0.149972
1062.485134	0.166203
1062.650240	0.173963
1062.815328	0.171481
1062.980398	0.165243
1063.145449	0.158188
1063.310482	0.155928
1063.475497	0.162335
1063.640494	0.166603
1063.805473	0.166350
1063.970433	0.157735
1064.135375	0.152473
1064.300299	0.153704
1064.465204	0.161886
1064.630092	0.161685
1064.794961	0.168236
1064.959812	0.166713
1065.124645	0.164077
1065.289459	0.164264
1065.454256	0.168333
1065.619034	0.166145
1065.783793	0.168658
1065.948535	0.164805
1066.113258	0.165633
1066.277964	0.167706
1066.442651	0.165120
1066.607319	0.166451
1066.771970	0.163924
1066.936602	0.160236
1067.101216	0.160433
1067.265812	0.156531
1067.430389	0.151588
1067.594949	0.148162
1067.759490	0.145995
1067.924013	0.144095
1068.088518	0.148500
1068.253004	0.151523
1068.417472	0.148759
1068.581922	0.151100
1068.746354	0.148225
1068.910768	0.149834
1069.075163	0.155031
1069.239540	0.155665
1069.403899	0.146700
1069.568240	0.140306
1069.732562	0.142027
1069.896866	0.145911
1070.061152	0.150818
1070.225420	0.148240
1070.389670	0.159688
1070.553901	0.157947
1070.718114	0.156304
1070.882309	0.160655
1071.046486	0.158374
1071.210644	0.153254
1071.374784	0.151954
1071.538906	0.142873
1071.703010	0.151361
1071.867096	0.140924
1072.031163	0.137789
1072.195212	0.136267
1072.359243	0.138076
1072.523256	0.133260
1072.687250	0.130653
1072.851226	0.134239
1073.015184	0.134603
1073.179124	0.130133
1073.343045	0.130869
1073.506949	0.137600
1073.670834	0.137130
1073.834701	0.145878
1073.998549	0.161183
1074.162380	0.173192
1074.326192	0.176407
1074.489986	0.182035
1074.653761	0.185634
1074.817519	0.196112
1074.981258	0.185153
1075.144979	0.193607
1075.308682	0.193684
1075.472367	0.185718
1075.636033	0.169023
1075.799681	0.161610
1075.963311	0.162521
1076.126923	0.163590
1076.290516	0.153877
1076.454092	0.157613
1076.617649	0.155845
1076.781187	0.148933
1076.944708	0.150923
1077.108210	0.153538
1077.271695	0.153387
1077.435160	0.145917
1077.598608	0.150101
1077.762038	0.154939
1077.925449	0.162676
1078.088842	0.155206
1078.252217	0.155062
1078.415573	0.160600
1078.578912	0.167709
1078.742232	0.169420
1078.905534	0.179176
1079.068817	0.176017
1079.232083	0.171670
1079.395330	0.170350
1079.558559	0.177363
1079.721770	0.173820
1079.884962	0.169838
1080.048136	0.166209
1080.211293	0.175881
1080.374430	0.159727
1080.537550	0.147151
1080.700651	0.140517
1080.863735	0.134153
1081.026800	0.129506
1081.189846	0.130133
1081.352875	0.126082
1081.515885	0.132525
1081.678877	0.133155
1081.841851	0.143440
1082.004807	0.152926
1082.167744	0.162928
1082.330663	0.155981
1082.493564	0.168727
1082.656447	0.165354
1082.819312	0.172971
1082.982158	0.184760
1083.144986	0.179634
1083.307796	0.177871
1083.470587	0.178201
1083.633361	0.171436
1083.796116	0.180968
1083.958853	0.170911
1084.121571	0.182867
1084.284272	0.189091
1084.446954	0.166037
1084.609618	0.174854
1084.772264	0.177768
1084.934892	0.182881
1085.097501	0.176135
1085.260092	0.187053
1085.422665	0.205311
1085.585220	0.206630
1085.747756	0.192622
1085.910274	0.191983
1086.072774	0.173008
1086.235256	0.173267
1086.397720	0.155739
1086.560165	0.171130
1086.722592	0.164864
1086.885001	0.156295
1087.047392	0.153208
1087.209764	0.154532
1087.372119	0.155076
1087.534455	0.161957
1087.696772	0.165882
1087.859072	0.185977
1088.021353	0.184702
1088.183616	0.185549
1088.345861	0.182641
1088.508088	0.194019
1088.670296	0.199567
1088.832486	0.212507
1088.994658	0.214022
1089.156812	0.215098
1089.318948	0.207590
1089.481065	0.204255
1089.643164	0.204801
1089.805245	0.193089
1089.967308	0.172923
1090.129352	0.174084
1090.291378	0.179328
1090.453386	0.179918
1090.615376	0.176955
1090.777347	0.172011
1090.939301	0.172238
1091.101236	0.158777
1091.263153	0.173515
1091.425051	0.177689
1091.586932	0.172399
1091.748794	0.169951
1091.910638	0.158113
1092.072463	0.156995
1092.234271	0.158549
1092.396060	0.154973
1092.557831	0.167997
1092.719584	0.162009
1092.881319	0.176290
1093.043035	0.169714
1093.204733	0.167638
1093.366413	0.181970
1093.528075	0.190973
1093.689718	0.197521
1093.851343	0.197766
1094.012950	0.200772
1094.174539	0.178188
1094.336110	0.162627
1094.497662	0.173322
1094.659196	0.175955
1094.820712	0.178467
1094.982210	0.170559
1095.143689	0.165928
1095.305151	0.177255
1095.466594	0.168472
1095.628018	0.188145
1095.789425	0.196764
1095.950813	0.194363
1096.112183	0.186879
1096.273535	0.187343
1096.434869	0.181933
1096.596184	0.180017
1096.757482	0.163070
1096.918761	0.160515
1097.080021	0.162433
1097.241264	0.156655
1097.402488	0.166210
1097.563694	0.163215
1097.724882	0.177749
1097.886052	0.179319
1098.047203	0.180885
1098.208336	0.182580
1098.369451	0.185651
1098.530548	0.186212
1098.691627	0.177912
1098.852687	0.173381
1099.013729	0.181547
1099.174753	0.158342
1099.335758	0.180515
1099.496746	0.191864
1099.657715	0.213060
1099.818666	0.224550
1099.979599	0.230854
1100.140513	0.254686
1100.301409	0.259377
1100.462287	0.263222
1100.623147	0.280666
1100.783989	0.240329
1100.944812	0.232716
1101.105617	0.219543
1101.266404	0.221495
1101.427173	0.224457
1101.587923	0.206846
1101.748656	0.198050
1101.909370	0.197180
1102.070066	0.194144
1102.230743	0.222205
1102.391403	0.225246
1102.552044	0.236458
1102.712667	0.237411
1102.873271	0.236608
1103.033858	0.238549
1103.194426	0.232951
1103.354976	0.226713
1103.515508	0.216461
1103.676021	0.210954
1103.836517	0.199596
1103.996994	0.194624
1104.157453	0.194126
1104.317893	0.178847
1104.478316	0.185098
1104.638720	0.174989
1104.799106	0.184760
1104.959474	0.193239
1105.119823	0.165746
1105.280155	0.181391
1105.440468	0.155970
1105.600763	0.155372
1105.761039	0.140953
1105.921298	0.142990
1106.081538	0.153999
1106.241760	0.152736
1106.401964	0.151600
1106.562149	0.179799
1106.722316	0.175460
1106.882465	0.231099
1107.042596	0.219595
1107.202709	0.251270
1107.362803	0.254547
1107.522879	0.274973
1107.682937	0.229282
1107.842977	0.217005
1108.002999	0.217860
1108.163002	0.211253
1108.322987	0.177745
1108.482954	0.173626
1108.642902	0.182515
1108.802833	0.175596
1108.962745	0.145658
1109.122639	0.163980
1109.282515	0.165470
1109.442372	0.137518
1109.602211	0.132638
1109.762032	0.127486
1109.921835	0.112045
1110.081620	0.099157
1110.241386	0.104812
1110.401134	0.139070
1110.560864	0.146654
1110.720576	0.134510
1110.880269	0.150304
1111.039945	0.158004
1111.199602	0.159538
1111.359240	0.186156
1111.518861	0.197634
1111.678463	0.209772
1111.838047	0.185255
1111.997613	0.192760
1112.157161	0.219028
1112.316690	0.233939
1112.476202	0.235491
1112.635695	0.228603
1112.795169	0.194943
1112.954626	0.164736
1113.114064	0.144529
1113.273484	0.146996
1113.432886	0.150255
1113.592270	0.137870
1113.751635	0.130243
1113.910983	0.131933
1114.070312	0.165655
1114.229622	0.189968
1114.388915	0.214615
1114.548189	0.224755
1114.707445	0.237966
1114.866683	0.240957
1115.025903	0.258173
1115.185104	0.266240
1115.344287	0.254585
1115.503452	0.213197
1115.662599	0.224518
1115.821727	0.215371
1115.980838	0.222589
1116.139930	0.215550
1116.299004	0.197739
1116.458059	0.181829
1116.617097	0.183396
1116.776116	0.171230
1116.935117	0.172055
1117.094099	0.165844
1117.253064	0.179721
1117.412010	0.179711
1117.570938	0.179468
1117.729848	0.177956
1117.888740	0.187879
1118.047613	0.155245
1118.206468	0.175758
1118.365305	0.170019
1118.524124	0.168913
1118.682924	0.143706
1118.841707	0.155485
1119.000471	0.179173
1119.159216	0.185095
1119.317944	0.174276
1119.476653	0.189415
1119.635344	0.169163
1119.794017	0.218800
1119.952672	0.229998
1120.111308	0.239676
1120.269927	0.203198
1120.428527	0.182399
1120.587108	0.181159
1120.745672	0.162920
1120.904217	0.196401
1121.062744	0.197864
1121.221253	0.166319
1121.379744	0.177416
1121.538216	0.199634
1121.696671	0.219357
1121.855107	0.196414
1122.013524	0.202955
1122.171924	0.241339
1122.330305	0.238335
1122.488668	0.256191
1122.647013	0.255285
1122.805340	0.229894
1122.963648	0.228116
1123.121938	0.248519
1123.280210	0.249029
1123.438464	0.245603
1123.596700	0.261743
1123.754917	0.217368
1123.913116	0.226106
1124.071297	0.241221
1124.229459	0.266145
1124.387604	0.260594
1124.545730	0.208151
1124.703838	0.212193
1124.861928	0.214706
1125.019999	0.171759
1125.178052	0.169117
1125.336088	0.157638
1125.494104	0.180235
1125.652103	0.174078
1125.810083	0.157662
1125.968045	0.164601
1126.125989	0.163661
1126.283915	0.164258
1126.441823	0.174870
1126.599712	0.177512
1126.757583	0.156598
1126.915436	0.120934
1127.073270	0.103759
1127.231087	0.127598
1127.388885	0.115594
1127.546665	0.161665
1127.704426	0.146122
1127.862170	0.143300
1128.019895	0.210240
1128.177602	0.253944
1128.335291	0.251716
1128.492961	0.245657
1128.650614	0.215934
1128.808248	0.229873
1128.965864	0.194088
1129.123461	0.212003
1129.281041	0.228595
1129.438602	0.169977
1129.596145	0.141247
1129.753670	0.163068
1129.911176	0.151053
1130.068665	0.131769
1130.226135	0.132787
1130.383587	0.091140
1130.541020	0.076148
1130.698436	0.062351
1130.855833	0.049499
1131.013212	0.063899
1131.170573	0.056532
1131.327915	0.093599
1131.485239	0.115455
1131.642545	0.134621
1131.799833	0.151284
1131.957103	0.173371
1132.114354	0.171716
1132.271588	0.189076
1132.428803	0.201725
1132.585999	0.204298
1132.743178	0.177814
1132.900338	0.213753
1133.057480	0.237817
1133.214604	0.273811
1133.371710	0.259079
1133.528797	0.281728
1133.685866	0.296250
1133.842917	0.312011
1133.999950	0.302863
1134.156964	0.324508
1134.313960	0.284055
1134.470938	0.228196
1134.627898	0.248835
1134.784840	0.208341
1134.941763	0.197693
1135.098668	0.194962
1135.255555	0.139246
1135.412424	0.131890
1135.569274	0.128642
1135.726107	0.151103
1135.882921	0.168145
1136.039716	0.145268
1136.196494	0.171560
1136.353253	0.170073
1136.509995	0.167528
1136.666717	0.193795
1136.823422	0.207860
1136.980109	0.183514
1137.136777	0.126758
1137.293427	0.141574
1137.450059	0.119586
1137.606672	0.138535
1137.763267	0.118816
1137.919844	0.097703
1138.076403	0.078624
1138.232944	0.087234
1138.389466	0.102350
1138.545971	0.107329
1138.702457	0.129456
1138.858924	0.145654
1139.015374	0.132900
1139.171805	0.150868
1139.328218	0.178841
1139.484613	0.215604
1139.640990	0.212942
1139.797348	0.203723
1139.953688	0.311415
1140.110010	0.288420
1140.266314	0.257975
1140.422600	0.291680
1140.578867	0.297920
1140.735116	0.280652
1140.891347	0.302291
1141.047559	0.263310
1141.203754	0.287068
1141.359930	0.249167
1141.516088	0.207162
1141.672228	0.271843
1141.828349	0.235334
1141.984452	0.222445
1142.140537	0.238867
1142.296604	0.202055
1142.452653	0.231937
1142.608683	0.231879
1142.764695	0.176621
1142.920689	0.203754
1143.076665	0.182823
1143.232622	0.215898
1143.388562	0.199105
1143.544483	0.243510
1143.700385	0.333640
1143.856270	0.334597
1144.012136	0.327780
1144.167985	0.357791
1144.323814	0.325705
1144.479626	0.331985
1144.635420	0.264518
1144.791195	0.324003
1144.946952	0.250452
1145.102691	0.193552
1145.258411	0.152064
1145.414113	0.176995
1145.569798	0.178370
1145.725463	0.204078
1145.881111	0.174041
1146.036741	0.211976
1146.192352	0.260903
1146.347945	0.290327
1146.503519	0.231430
1146.659076	0.232956
1146.814614	0.203179
1146.970134	0.224059
1147.125636	0.213027
1147.281120	0.266412
1147.436585	0.289315
1147.592032	0.247468
1147.747461	0.233524
1147.902872	0.297393
1148.058265	0.333679
1148.213639	0.381671
1148.368995	0.391141
1148.524333	0.395167
1148.679653	0.317281
1148.834954	0.275122
1148.990237	0.321410
1149.145502	0.275903
1149.300749	0.254917
1149.455977	0.245008
1149.611188	0.234194
1149.766380	0.224776
1149.921553	0.199438
1150.076709	0.220907
1150.231846	0.253763
1150.386966	0.192812
1150.542066	0.186620
1150.697149	0.199713
1150.852214	0.176226
1151.007260	0.148601
1151.162288	0.128140
1151.317298	0.152791
1151.472289	0.218430
1151.627263	0.216255
1151.782218	0.199933
1151.937155	0.222488
1152.092073	0.234551
1152.246974	0.289014
1152.401856	0.299987
1152.556720	0.277228
1152.711566	0.300124
1152.866393	0.222648
1153.021203	0.140717
1153.175994	0.152122
1153.330767	0.189790
1153.485521	0.248091
1153.640258	0.236518
1153.794976	0.216863
1153.949676	0.188469
1154.104358	0.203976
1154.259021	0.270822
1154.413667	0.382249
1154.568294	0.406817
1154.722903	0.397435
1154.877493	0.305912
1155.032066	0.331701
1155.186620	0.385054
1155.341156	0.453634
1155.495674	0.424343
1155.650173	0.328949
1155.804654	0.267323
1155.959118	0.308634
1156.113562	0.329430
1156.267989	0.327498
1156.422397	0.276366
1156.576788	0.251072
1156.731160	0.284319
1156.885513	0.240695
1157.039849	0.225302
1157.194166	0.263362
1157.348465	0.262847
1157.502746	0.200142
1157.657009	0.211944
1157.811253	0.178839
1157.965479	0.291309
1158.119687	0.262803
1158.273877	0.280166
1158.428048	0.232935
1158.582201	0.195171
1158.736337	0.131386
1158.890453	0.131634
1159.044552	0.138808
1159.198632	0.182548
1159.352694	0.128374
1159.506738	0.138074
1159.660764	0.130313
1159.814771	0.190686
1159.968761	0.208816
1160.122732	0.235315
1160.276685	0.264662
1160.430619	0.285599
1160.584535	0.347774
1160.738434	0.314269
1160.892313	0.333988
1161.046175	0.240198
1161.200019	0.211720
1161.353844	0.194478
1161.507651	0.103193
1161.661440	0.120059
1161.815210	0.092558
1161.968962	0.062230
1162.122697	0.037661
1162.276412	0.034321
1162.430110	0.088391
1162.583789	0.159173
1162.737451	0.154707
1162.891094	0.250541
1163.044718	0.252558
1163.198325	0.285182
1163.351913	0.238240
1163.505483	0.222085
1163.659035	0.115577
1163.812569	0.112994
1163.966084	0.094259
1164.119581	0.084396
1164.273060	0.084480
1164.426521	0.062140
1164.579964	0.051556
1164.733388	0.077832
1164.886794	0.111023
1165.040182	0.163524
1165.193551	0.134810
1165.346903	0.119345
1165.500236	0.230153
1165.653551	0.216961
1165.806848	0.226316
1165.960126	0.152326
1166.113386	0.163868
1166.266628	0.152627
1166.419852	0.209630
1166.573058	0.273491
1166.726245	0.181285
1166.879414	0.059352
1167.032565	0.052914
1167.185698	0.080231
1167.338812	0.118777
1167.491909	0.114880
1167.644987	0.187262
1167.798046	0.174957
1167.951088	0.119580
1168.104111	0.149716
1168.257117	0.159139
1168.410103	0.253173
1168.563072	0.311653
1168.716023	0.500217
1168.868955	0.680301
1169.021869	0.545327
1169.174765	0.444002
1169.327642	0.693635
1169.480501	0.637586
1169.633343	0.497875
1169.786165	0.383341
1169.938970	0.241240
1170.091757	0.123801
1170.244525	0.097568
1170.397275	0.089487
1170.550007	0.146564
1170.702720	0.104209
1170.855415	0.174816
1171.008092	0.290216
1171.160751	0.295853
1171.313392	0.326152
1171.466014	NaN
1171.618619	0.239313
1171.771205	0.239313
1171.923772	0.239313
