sample name	sample
index	641
start time	 03-19-2021  03:33:36 PM
880	0.319550
Peak Time (s)	91.534
Peak Height 	0.3195
calc peak height	90,93
Baseline Time (s)	8.536
Baseline Value 	-0.002216
subtract baseline	10,4
Abs	0.203588
Peak Time (s)	92.538
Peak Height 	0.2036
calc peak height	90,93
Baseline Time (s)	11.037
Baseline Value 	0.001543
subtract baseline	10,3
PK_550	0.094297
Peak Time (s)	91.534
Peak Height 	0.0943
calc peak height	90,93
Baseline Time (s)	10.537
Baseline Value 	5.4701E-4
subtract baseline	10,2
PK_880	0.197952
Peak Time (s)	92.538
Peak Height 	0.198
calc peak height	90,93
Baseline Time (s)	9.537
Baseline Value 	0.002968
subtract baseline	10,1


Time (s)	A880-A510	A880-A775	A880-A975	A880	I510	I775	I975	I880	
0.036500	-0.000035	-0.000276	0.003046	-0.000962	7389.208214	45439.474067	4064.033568	24186.510729
0.537000	-0.001606	0.000510	0.005031	0.002180	7341.488939	45209.867865	4061.063883	24033.581361
1.037000	-0.001219	0.000614	-0.003138	0.002032	7346.877325	45234.417266	4040.698375	24040.755137
1.537500	-0.005312	-0.000226	-0.006083	0.004702	7279.216057	44894.496440	4026.660753	23911.623692
2.035000	0.000567	-0.000255	-0.000830	-0.001333	7399.119402	45477.660072	4055.061837	24204.607563
2.536500	-0.000821	0.000518	0.000890	-0.000603	7377.571931	45481.947883	4057.589748	24168.982928
3.036000	0.003340	-0.000215	0.003344	-0.002801	7442.613761	45625.425379	4069.539134	24276.535642
3.536000	-0.001526	-0.000214	0.002244	0.002649	7337.564376	45094.146666	4052.751216	24010.838211
4.036500	-0.000185	0.000060	-0.000928	-0.000322	7381.164024	45409.711634	4052.238658	24155.247663
4.540000	-0.000170	-0.000073	-0.001721	-0.000585	7384.001601	45422.383613	4050.892662	24168.097115
5.036500	0.001041	0.000543	-0.000289	-0.000586	7396.337805	45482.702540	4054.536817	24168.126895
5.537000	-0.001210	0.000219	0.002167	0.000789	7359.518379	45316.922565	4057.296959	24101.144794
6.037500	0.002963	-0.000019	0.002588	-0.000346	7413.522559	45404.330840	4061.277936	24156.422101
6.535000	0.000402	0.000051	0.002303	-0.000380	7387.737177	45414.554260	4060.635329	24158.104176
7.035500	0.000878	0.000253	0.003672	-0.000042	7389.131681	45401.210023	4063.278796	24141.599207
7.535500	-0.000126	0.000233	0.000583	0.000004	7378.459702	45394.835691	4055.256284	24139.368582
8.035500	0.000875	0.000511	-0.000787	0.000418	7384.425822	45381.509528	4050.717306	24119.187607
8.536000	0.000340	0.000288	0.000668	0.000000	7383.230385	45400.534066	4055.484762	24139.558027
9.036500	-0.000094	-0.001147	-0.004139	-0.000730	7386.242571	45331.781588	4045.136154	24175.151171
9.536500	0.000000	-0.000015	-0.001141	-0.000521	7385.074012	45421.852969	4052.204627	24164.963647
10.037000	0.002638	-0.000252	-0.000469	-0.000478	7411.544738	45394.400483	4053.803820	24162.844403
10.537000	0.000077	0.000000	0.005041	0.000144	7379.097911	45358.361516	4066.317904	24132.520667
11.037500	-0.000835	0.000337	0.000000	0.000275	7368.516646	45378.497219	4053.082701	24126.171878
11.535000	-0.001322	0.000612	0.000326	0.003612	7329.934229	45080.854908	4045.446294	23964.240186
12.035000	0.000828	0.000883	0.001894	0.000594	7382.159951	45400.631424	4057.098157	24110.643777
12.535500	0.000861	0.000234	0.000132	-0.000076	7389.312516	45402.687658	4054.313004	24143.268442
13.036000	0.001021	-0.000274	0.003967	-0.000614	7396.425011	45405.614931	4065.506998	24169.507894
13.536500	-0.001857	-0.000701	0.001611	0.003412	7326.575096	44973.237906	4049.207658	23973.932586
14.036500	0.000417	-0.000102	0.006558	0.002786	7355.780185	45091.644073	4063.427178	24004.200796
14.537000	-0.000138	0.000227	0.002940	0.002088	7357.215303	45191.248230	4055.953442	24038.018703
15.037000	0.002763	0.000151	0.001285	-0.000475	7412.798132	45433.535750	4058.270604	24162.708377
15.540000	-0.001687	0.000085	0.002303	0.004044	7321.948094	44988.146313	4049.359500	23943.395935
16.035000	0.002999	-0.000015	-0.000136	-0.000123	7411.610846	45382.998058	4053.748238	24145.561641
16.535000	0.001935	0.000595	0.004569	-0.000245	7401.985734	45454.418126	4066.105658	24151.506415
17.035500	0.005386	0.001612	0.000757	-0.001414	7449.396010	45668.550670	4059.321264	24208.567767
17.535000	0.000480	0.000734	0.000317	0.002787	7356.405301	45172.670033	4047.511241	24004.169123
18.035500	-0.000435	0.000015	0.005110	0.001120	7364.006939	45264.785874	4063.987366	24085.046636
18.536000	0.001095	-0.000070	0.000288	0.001466	7376.012798	45222.941909	4050.788003	24068.236467
19.036000	0.000271	-0.000258	0.000352	0.001626	7366.036836	45189.120987	4050.544428	24060.476328
19.537000	0.000553	-0.000220	0.001526	0.002963	7355.363326	45063.102485	4050.129386	23995.618916
20.037500	0.001082	0.000297	0.003014	0.001987	7370.592296	45207.941728	4056.400105	24042.939805
20.538000	-0.000253	0.000100	-0.000923	0.001801	7358.965400	45206.838564	4046.867584	24051.963270
21.034500	-0.000405	0.000305	0.002094	0.001717	7358.277239	45234.951992	4054.743727	24056.050144
21.546000	0.000878	0.000980	-0.003212	0.003850	7349.693854	45093.458807	4035.948270	23952.763735
22.045500	-0.000420	0.001156	0.003472	0.002635	7348.852379	45228.435460	4055.914900	24011.506030
22.691000	0.001372	0.000603	-0.000719	0.002264	7370.717694	45210.763513	4046.212204	24029.484016
23.107000	0.001951	-0.000046	0.000145	0.001957	7379.710823	45177.460106	4049.178360	24044.373656
23.542000	0.002212	0.000404	0.005148	0.002317	7378.709314	45186.235041	4061.012569	24026.911639
24.066500	0.000492	0.000109	-0.000617	0.002108	7363.391162	45177.902071	4046.866310	24037.061929
24.542000	0.001964	0.000727	0.004903	0.002513	7374.204053	45198.628752	4059.883620	24017.420812
25.039500	0.001283	-0.000032	0.004520	0.002134	7371.144435	45161.705690	4059.872655	24035.814154
25.573500	0.003150	0.000941	0.006647	0.002813	7383.205236	45190.270184	4063.588334	24002.912144
26.046500	0.001538	0.000685	0.000217	0.002555	7369.457828	45190.378912	4047.843863	24015.376683
26.537000	0.002022	0.000832	0.008472	0.002985	7369.999048	45162.954533	4067.839791	23994.560226
27.035500	0.003445	0.001462	0.002464	0.000766	7407.078362	45440.369551	4058.111549	24102.236990
27.546000	0.001988	-0.000155	0.006015	0.000868	7391.172843	45272.737378	4066.962921	24097.280640
28.063000	0.001920	0.001132	0.001284	0.001191	7387.189434	45366.714243	4054.018476	24081.579693
28.557500	0.001926	0.000631	0.001685	0.000710	7392.150982	45364.736452	4056.266973	24104.995566
29.169500	-0.000028	0.000566	0.004456	0.006800	7310.954762	44768.712718	4047.827922	23810.693622
29.583500	0.003620	0.000761	0.006152	0.001912	7397.166829	45260.371572	4064.629905	24046.595321
30.036500	0.003223	0.000887	0.004094	0.001229	7400.087709	45339.151325	4061.099653	24079.752711
30.583000	0.001787	0.000721	0.004235	0.001094	7386.821341	45336.060830	4061.808516	24086.301568
31.104500	0.001468	0.001505	0.003047	0.004909	7344.951977	45041.732624	4049.050634	23901.630583
31.550000	-0.002003	0.000571	0.000012	0.006892	7290.335825	44760.410784	4036.402662	23806.285730
32.035500	0.003296	0.000212	0.003353	0.001337	7399.732511	45262.902511	4058.926810	24074.508521
32.543500	0.003209	0.000606	0.003431	0.001461	7397.569854	45289.129463	4058.808552	24068.469293
33.055500	0.002944	0.000675	0.000258	0.001888	7390.522628	45254.248866	4049.639672	24047.731106
33.541000	0.000424	0.000572	0.000297	0.006248	7321.012841	44822.436029	4038.733957	23837.235416
34.064500	0.004669	0.000865	0.009443	0.000824	7419.008725	45376.356903	4075.942691	24099.412541
34.538000	0.002896	0.000962	0.005529	0.003895	7369.645728	45087.362413	4057.949636	23950.573957
35.041000	0.001470	0.001482	0.001084	0.003953	7354.626695	45132.103585	4046.502961	23947.782113
35.553500	0.000496	0.000488	0.003680	0.005388	7330.366058	44897.249029	4049.442454	23878.582081
36.082500	0.001121	0.000773	0.001864	0.004145	7349.158366	45044.755570	4047.989612	23938.477904
36.555000	0.002696	0.000770	0.008026	0.004015	7366.401322	45057.146077	4064.041538	23944.774291
37.046500	0.001675	0.000472	0.005244	0.004025	7355.971791	45027.374800	4056.890801	23944.304462
37.579500	0.000991	0.001456	0.001875	0.004298	7346.313526	45096.111969	4047.630860	23931.113745
38.067000	0.001177	0.000505	0.006685	0.003792	7353.299584	45053.077810	4061.171469	23955.554106
38.554000	0.002102	0.000797	0.005539	0.003901	7361.546398	45070.812142	4057.960309	23950.294809
39.074500	0.002467	0.001593	0.007429	0.004746	7356.681790	45065.944504	4060.633074	23909.480450
39.584500	0.000862	0.001042	0.003487	0.006212	7325.761290	44871.168508	4046.864347	23838.929557
40.046000	0.002600	0.000953	0.006565	0.004424	7361.284336	45035.244601	4059.246573	23925.012193
40.537500	0.001867	0.001592	0.006758	0.004803	7350.056315	45060.461500	4058.770837	23906.767448
41.036000	0.001896	0.000992	0.002649	0.004370	7354.715482	45044.229193	4049.408267	23927.622200
41.546500	0.002305	0.001316	0.004119	0.006406	7338.320078	44878.879482	4047.975634	23829.640777
42.070500	0.001905	0.000602	0.002829	0.004576	7352.724371	44986.586280	4049.342081	23917.687467
42.551500	0.004979	0.001419	0.009382	0.004829	7381.302961	45041.234500	4065.435096	23905.526172
43.039000	0.003846	0.001118	0.006517	0.005151	7366.543372	44980.917349	4057.266077	23890.008268
43.563000	0.000894	-0.000204	-0.001119	0.005124	7337.013422	44855.920162	4038.000513	23891.290574
44.038500	0.003648	0.001033	0.004687	0.003408	7382.208816	45141.385616	4057.043022	23974.087774
44.535000	0.004967	0.001331	0.009802	0.000198	7428.493616	45483.055515	4078.505683	24129.894085
45.035000	0.003634	0.002225	0.008264	0.004500	7370.986031	45151.128966	4063.407348	23921.371380
45.537500	0.000901	0.001592	0.002507	0.007292	7315.328497	44820.143220	4041.665703	23787.104306
46.041500	0.003090	0.001261	0.002203	0.003227	7378.381736	45181.074066	4051.177791	23982.853630
46.538500	0.006025	0.001609	0.008654	0.003121	7409.381142	45225.231751	4067.958807	23988.001356
47.036000	0.001498	0.001296	0.007914	0.004279	7351.613422	45082.457477	4063.074881	23932.021967
47.536500	0.000411	0.001809	0.007481	0.007355	7309.796233	44834.956248	4054.102927	23784.112967
48.036500	0.003781	0.001600	0.001164	0.006210	7355.167421	44925.144689	4041.007844	23839.036736
48.545500	0.001686	0.001457	0.009073	0.004265	7353.648457	45099.401867	4066.090854	23932.687807
49.034500	0.004876	0.001470	0.005989	0.005092	7377.579046	45020.625319	4056.066140	23892.813617
49.550500	0.001263	0.000787	0.006017	0.006964	7322.244594	44774.241536	4051.375835	23802.868028
50.048500	0.004528	0.001057	0.006919	0.002729	7398.094868	45209.705705	4064.501042	24006.971103
50.582500	0.006075	0.001260	0.006149	0.001489	7426.617478	45350.120978	4065.710310	24067.105976
51.038500	0.001429	0.001604	0.007070	0.011353	7280.104915	44432.136612	4042.929658	23593.389785
51.616500	-0.062685	-0.013380	-0.005484	0.164223	5584.351998	31154.815417	3696.129177	17474.856708
52.046000	-0.063126	-0.022639	0.013465	-0.050884	7257.158000	48218.857932	4230.373942	26770.728349
52.574000	-0.003641	-0.006083	0.009988	-0.075528	8173.979407	52717.334585	4294.417549	28160.169993
53.066500	-0.001464	-0.001405	0.021243	-0.024254	7617.487812	47660.681913	4175.902225	25355.322400
53.534500	0.015551	0.006772	0.019749	-0.007497	7620.251771	46787.355644	4125.373614	24508.145527
54.040500	0.051362	0.018034	0.044236	-0.007455	8019.643214	47932.866815	4193.539299	24506.042680
54.534500	0.081231	0.029451	0.072339	0.000408	8282.215094	48302.050412	4252.958426	24119.684328
55.035000	0.103365	0.042944	0.093922	0.054414	7906.169935	44268.326866	4159.086128	21646.885323
55.538500	0.114245	0.052110	0.112995	0.103361	7491.750516	40657.390586	4078.585177	19656.502398
56.036000	0.123275	0.061217	0.130364	0.136836	7244.137094	38603.406568	4037.424403	18418.816226
56.536500	0.135648	0.070876	0.141953	0.165874	7083.161689	37050.213561	3994.525124	17419.821460
57.053500	0.143765	0.078297	0.149714	0.198711	6855.460614	35115.521031	3935.816598	16367.753910
57.536500	0.153143	0.082682	0.159906	0.214348	6799.835838	34294.534151	3923.510784	15894.039851
58.036500	0.155978	0.085826	0.170088	0.232473	6667.266242	33233.842767	3905.832087	15365.861656
58.534500	0.162029	0.089244	0.173656	0.244356	6617.925677	32650.543398	3887.669168	15031.359601
59.037500	0.164075	0.092019	0.169533	0.267533	6444.576765	31290.485587	3830.424381	14404.697822
59.534500	0.149997	0.088483	0.172424	0.263550	6364.692340	31319.584038	3844.498893	14510.018132
60.038000	0.169371	0.093351	0.177132	0.255931	6582.515529	32145.273869	3870.307308	14714.201975
60.536000	0.166681	0.092644	0.177631	0.269750	6447.692116	31187.015880	3842.452950	14346.474212
61.056000	0.160582	0.093519	0.180329	0.293112	6219.461828	29765.342709	3800.894038	13750.802247
61.565000	0.161882	0.093677	0.181405	0.302262	6161.216823	29217.240895	3785.186525	13526.113646
62.063500	0.168071	0.095155	0.182844	0.299421	6228.312562	29479.088340	3793.475231	13595.365384
62.543000	0.182063	0.100597	0.189067	0.296674	6356.426158	29982.806753	3811.117933	13662.761002
63.045500	0.179015	0.099488	0.181608	0.299656	6309.706218	29729.970250	3790.617866	13589.622572
63.615000	0.182830	0.101402	0.181788	0.292475	6395.396976	30295.418282	3805.020024	13766.632301
64.073500	0.185790	0.100829	0.186867	0.289871	6439.597036	30423.291235	3820.315887	13831.549874
64.546500	0.185031	0.101357	0.187630	0.290609	6427.647849	30410.043184	3820.365704	13813.108071
65.041000	0.182489	0.100633	0.184589	0.291889	6397.335714	30283.909307	3811.730037	13781.207988
65.541500	0.180310	0.099710	0.184489	0.297358	6337.473619	29885.477843	3800.724465	13645.952369
66.049000	0.183531	0.101498	0.185226	0.292498	6400.753395	30299.969621	3811.783986	13766.060525
66.541500	0.185123	0.101242	0.193300	0.292876	6410.362055	30260.131298	3827.225373	13756.657592
67.039500	0.177934	0.099478	0.182198	0.296854	6322.973721	29902.306437	3797.224493	13658.340386
67.537000	0.180340	0.100415	0.186991	0.297565	6336.093839	29916.276386	3805.241290	13640.853463
68.035000	0.184232	0.099900	0.182745	0.291735	6412.349065	30247.578449	3808.374248	13785.034603
68.538000	0.186596	0.101568	0.185132	0.292945	6421.509936	30276.301769	3810.708159	13754.951238
69.036000	0.182685	0.100059	0.192340	0.297568	6354.302978	29894.056396	3815.859776	13640.782082
69.619500	0.184009	0.100952	0.188350	0.298548	6356.997468	29888.677909	3805.985407	13616.751327
70.035500	0.187624	0.100659	0.187588	0.293475	6425.471554	30186.109190	3814.542630	13741.793461
70.535500	0.188882	0.100727	0.192520	0.294120	6430.354444	30149.991725	3823.138773	13725.815864
71.036500	0.186383	0.101401	0.192270	0.300359	6361.385680	29804.540854	3810.161949	13572.442926
71.536500	0.186677	0.101167	0.192570	0.294770	6407.671567	30136.883714	3821.930487	13709.738007
72.086000	0.188658	0.100678	0.187485	0.294920	6422.196367	30097.034881	3811.459489	13706.020496
72.537000	0.187918	0.100622	0.190292	0.294830	6417.041830	30099.174777	3817.239219	13708.269084
73.037000	0.183900	0.100394	0.189786	0.301703	6331.612986	29659.907442	3802.596394	13539.688490
73.535000	0.189682	0.101672	0.190554	0.296945	6414.243682	30032.776649	3813.538327	13656.091555
74.106500	0.189160	0.100568	0.200201	0.296852	6410.845467	29969.984389	3833.166793	13658.380240
74.535500	0.191224	0.099623	0.198431	0.296591	6429.331244	29927.547304	3830.098145	13664.815961
75.036000	0.185788	0.099566	0.190842	0.302933	6336.719548	29533.977326	3802.253875	13509.820774
75.536000	0.190639	0.101068	0.197519	0.298868	6406.596192	29876.059856	3823.645460	13608.908044
76.036500	0.189537	0.100183	0.190170	0.298656	6399.550102	29834.447246	3809.374110	13614.091208
76.536500	0.190443	0.099948	0.196778	0.299260	6401.942064	29782.708263	3821.363087	13599.302308
77.037000	0.183682	0.098943	0.192387	0.304972	6304.714926	29371.822755	3801.281727	13460.444415
77.537500	0.190286	0.100369	0.194788	0.301516	6382.909928	29669.828699	3812.866198	13544.241734
78.035000	0.190926	0.100581	0.196885	0.301640	6386.973428	29675.240090	3816.806068	13541.237280
78.537000	0.191778	0.100357	0.198150	0.302284	6388.612207	29622.032921	3818.049144	13525.577186
79.035000	0.187667	0.098302	0.196529	0.307826	6313.416249	29160.639109	3803.817677	13391.764323
79.535500	0.190325	0.098593	0.193866	0.301959	6379.734002	29533.977693	3810.152550	13533.463515
80.035500	0.192443	0.099632	0.197684	0.303415	6384.948966	29508.558644	3814.855180	13498.131501
80.536500	0.190079	0.098286	0.196708	0.303439	6366.204535	29425.090625	3812.860036	13497.535483
81.036000	0.186746	0.098187	0.189206	0.310211	6288.040908	29010.490905	3784.898470	13334.685702
81.539500	0.186989	0.096944	0.192752	0.309683	6293.942500	28967.764457	3792.787093	13347.303353
82.037000	0.190851	0.098352	0.193854	0.305334	6357.426383	29314.077101	3803.456738	13451.719138
82.537000	0.191107	0.096618	0.194245	0.303891	6370.717306	29296.490922	3807.076174	13486.601747
83.037500	0.187615	0.095178	0.189363	0.310120	6295.395702	28836.480372	3785.379388	13336.875755
83.537500	0.189388	0.098787	0.199514	0.313443	6283.544096	28853.466566	3798.646833	13257.875060
84.036000	0.192582	0.097102	0.190867	0.306330	6363.168831	29178.399113	3795.647764	13427.705232
84.536000	0.193873	0.098747	0.197263	0.308299	6357.871207	29158.918125	3804.331060	13380.416918
85.038500	0.190111	0.096914	0.195184	0.313301	6290.154058	28750.652784	3790.483374	13261.237352
85.536000	0.191091	0.096058	0.196039	0.307524	6342.246130	29043.948049	3803.446668	13399.008915
86.036500	0.195901	0.097230	0.195609	0.308738	6370.302472	29041.451186	3800.214697	13369.901364
86.536500	0.194475	0.097022	0.195894	0.309438	6353.680135	28987.034469	3799.400710	13353.152649
87.034000	0.189981	0.094746	0.188498	0.314135	6282.787653	28573.404282	3776.023963	13241.501421
87.534500	0.195398	0.096713	0.200488	0.310151	6355.320545	28925.993552	3807.041919	13336.116398
88.034500	0.196165	0.095968	0.196204	0.310163	6361.216307	28880.924673	3798.587101	13335.843415
88.537500	0.195321	0.095189	0.193295	0.310424	6352.587418	28818.988089	3792.402331	13329.607822
89.082000	0.196031	0.096794	0.198902	0.311704	6348.153355	28838.374960	3800.856099	13299.141981
89.535000	0.195573	0.094834	0.196131	0.310688	6352.503374	28782.270107	3797.417132	13323.331079
90.036000	0.193350	0.094013	0.197036	0.310697	6335.151817	28733.066055	3799.170957	13323.105593
90.536000	0.194725	0.094229	0.196881	0.311633	6338.555220	28690.466408	3797.036364	13300.828935
91.039500	0.195741	0.093593	0.200471	0.312143	6342.487935	28622.837748	3803.078741	13288.708425
91.534000	0.193070	0.094297	0.198302	0.319550	6265.080899	28230.606555	3784.433475	13114.261779
92.040500	0.197016	0.093727	0.195849	0.313646	6340.707650	28542.150975	3791.103518	13253.051812
92.537500	0.197952	0.094006	0.203588	0.314423	6341.947802	28512.933614	3804.728199	13234.692312
93.035000	0.193242	0.092860	0.198176	0.313859	6309.889572	28478.780500	3795.219054	13248.023233
93.534500	0.193688	0.092579	0.191651	0.320679	6261.195319	28065.770807	3769.582467	13087.912323
94.036000	0.195161	0.093803	0.195663	0.315723	6310.313842	28424.835612	3786.721787	13204.004085
94.536500	0.200045	0.092059	0.199850	0.315710	6348.217290	28323.764036	3794.873367	13204.322636
95.036500	0.194073	0.091459	0.194294	0.321927	6254.661892	27929.633348	3772.226536	13058.902748
95.535500	0.195071	0.092071	0.203401	0.322533	6257.622545	27929.887299	3788.516254	13044.819237
96.039500	0.196600	0.092037	0.201235	0.317132	6310.541665	28239.735143	3794.800347	13170.864048
96.534000	0.198895	0.091365	0.196943	0.317366	6326.444961	28187.177911	3786.022753	13165.384078
97.037500	0.196230	0.090971	0.195392	0.321335	6275.533701	27935.604479	3775.439727	13072.662798
