sample name	sample
index	1204
start time	 04-26-2021  12:53:52 PM
880	0.419553
Peak Time (s)	92.537
Peak Height 	0.4196
calc peak height	90,93
Baseline Time (s)	10.036
Baseline Value 	-0.003133
subtract baseline	10,4
Abs	0.270956
Peak Time (s)	92.037
Peak Height 	0.271
calc peak height	90,93
Baseline Time (s)	10.537
Baseline Value 	5.3231E-4
subtract baseline	10,3
PK_550	0.161399
Peak Time (s)	90.038
Peak Height 	0.1614
calc peak height	90,93
Baseline Time (s)	10.537
Baseline Value 	2.7388E-4
subtract baseline	10,2
PK_880	0.271745
Peak Time (s)	92.037
Peak Height 	0.2717
calc peak height	90,93
Baseline Time (s)	11.037
Baseline Value 	-9.3952E-4
subtract baseline	10,1


Time (s)	A880-A510	A880-A775	A880-A975	A880	I510	I775	I975	I880	
0.035500	0.000683	-0.001149	-0.003643	0.004585	6141.857603	43242.761607	3865.973655	22445.150343
0.535500	-0.001004	-0.000842	-0.002048	0.005189	6124.850176	43215.322707	3868.188345	22418.019030
1.036500	0.000685	-0.000290	-0.004582	0.004224	6144.561579	43356.192670	3864.683931	22461.380647
1.536500	-0.000060	0.000320	-0.003913	0.001453	6159.691386	43672.181128	3872.378107	22586.525234
2.037000	-0.001205	-0.000169	-0.001503	0.003988	6132.261246	43389.511660	3872.099744	22472.025880
2.537500	-0.001290	-0.000516	0.000585	0.001297	6151.664736	43608.512757	3882.887734	22593.617615
3.037500	0.001572	-0.000650	0.000695	-0.002168	6199.263900	43921.670530	3891.033530	22751.256858
3.535000	0.000255	-0.000214	-0.003480	0.000598	6168.471564	43702.366867	3875.276201	22625.327979
4.035500	-0.001924	0.000022	-0.005339	0.003762	6128.602452	43428.304425	3864.026520	22482.198847
4.535000	0.001231	0.000175	-0.003518	0.001311	6170.443752	43671.985424	3873.586015	22592.994254
5.035500	0.000413	0.000155	0.000461	0.000573	6169.848232	43739.384870	3884.249652	22626.469056
5.536500	0.000890	0.000270	-0.002288	0.000645	6172.888038	43743.365996	3877.858731	22623.177878
6.037000	0.001935	0.000692	0.001735	0.000928	6178.616157	43756.404060	3886.339697	22610.325867
6.537000	-0.000551	-0.000539	0.005571	-0.000159	6168.096801	43742.884590	3897.617091	22659.691006
7.037000	0.002308	0.000323	0.006978	0.000371	6185.623461	43774.129181	3899.640036	22635.603343
7.537500	-0.000875	-0.000220	-0.001791	-0.000632	6169.218966	43817.389733	3881.872310	22681.223713
8.038000	0.000696	-0.000033	0.001306	-0.000422	6179.455953	43815.278879	3888.440551	22671.677956
8.535500	0.001661	-0.000268	0.004176	-0.000281	6185.668127	43779.924401	3894.691353	22665.272557
9.035500	0.001158	0.001317	-0.001278	0.001297	6170.003474	43780.542881	3878.668208	22593.608076
9.536000	0.002171	0.000679	-0.000698	0.000434	6184.120951	43801.743021	3881.935123	22632.776846
10.036000	-0.000324	-0.000162	0.001515	0.000000	6168.609760	43763.415072	3887.955415	22652.477553
10.536500	-0.001322	0.000000	0.000000	0.003951	6131.663552	43408.692480	3875.562448	22473.697161
11.036500	0.000000	0.000073	0.001160	-0.000027	6171.247776	43788.055661	3887.207632	22653.712512
11.537500	-0.000863	-0.000046	-0.001102	-0.000321	6166.974241	43804.488908	3882.729350	22667.069784
12.034500	0.002754	0.000376	-0.002333	0.000300	6189.535425	43785.798393	3878.535524	22638.843296
12.534500	-0.001713	-0.000283	-0.001579	0.003842	6129.571845	43392.506811	3872.256699	22478.606288
13.035500	0.000505	-0.000007	0.002130	-0.000764	6180.597140	43849.965474	3891.106551	22687.251990
13.535000	0.000749	-0.000169	-0.003667	-0.000339	6179.227933	43794.618043	3876.966679	22667.889454
14.035500	-0.000073	-0.000426	0.003065	0.001996	6155.536283	43551.534613	3886.939252	22561.969934
14.536000	-0.000556	0.000255	-0.004307	0.003315	6142.091256	43491.885235	3867.326796	22502.373926
15.039000	0.001369	0.000721	-0.000665	-0.000293	6183.556261	43874.169042	3883.657464	22665.790633
15.536500	0.001059	0.000323	0.006269	-0.000328	6181.483972	43839.945669	3899.618554	22667.407406
16.036500	-0.002824	-0.000807	-0.007955	0.004332	6117.721130	43298.086699	3856.960078	22456.546148
16.536500	-0.000526	-0.000084	-0.007701	0.005140	6128.747564	43290.160079	3855.736093	22420.196358
17.037500	0.002516	0.000784	0.007160	-0.002824	6211.410326	44119.455649	3907.466741	22781.258164
17.537500	0.001277	0.000690	-0.003598	0.000654	6175.724972	43782.022823	3874.884381	22622.757709
18.035500	-0.000862	-0.000162	-0.002168	0.002618	6145.003291	43517.995529	3873.683238	22533.826772
18.536000	-0.001194	0.000423	0.000463	0.001621	6149.959947	43666.140582	3881.874789	22578.931380
19.036000	0.000144	-0.000133	-0.001161	0.000741	6166.559161	43696.504905	3880.190474	22618.830866
19.536500	-0.000453	0.000675	-0.000497	0.001553	6156.005960	43696.113990	3879.853428	22582.006283
20.036500	0.001907	-0.000634	-0.004398	0.000334	6182.888210	43687.748592	3873.805404	22637.319321
20.536500	-0.000286	0.000573	0.002564	0.001773	6155.614102	43665.919352	3886.304237	22572.045383
21.037000	-0.001081	-0.000402	-0.001648	0.000492	6159.247402	43694.677829	3879.652216	22630.146087
21.537000	-0.001592	0.000458	-0.001315	0.001253	6149.738399	43703.989926	3878.682565	22595.616773
22.035000	0.000409	0.000074	-0.001689	0.000657	6169.181169	43723.925512	3879.186773	22622.651706
22.535000	0.003107	-0.000316	-0.003665	0.001185	6185.514467	43637.685403	3873.537403	22598.666075
23.035500	0.000049	-0.000573	0.004765	-0.000098	6172.145379	43733.979759	3895.622996	22656.919378
23.535500	-0.000704	0.000305	0.001850	0.000916	6158.892402	43721.225255	3886.630902	22610.882658
24.036500	0.000226	0.000667	0.002809	0.000940	6165.687398	43753.019038	3888.762190	22609.798069
24.536000	0.001850	-0.000216	-0.003400	0.001377	6174.604438	43629.168905	3873.703739	22589.999546
25.037000	-0.001411	-0.000226	-0.001291	0.000079	6159.865699	43750.024766	3881.393716	22648.893266
25.536500	0.000011	0.000721	-0.001340	0.001006	6163.578102	43751.802769	3879.184294	22606.791545
26.037500	0.000933	0.000596	-0.001192	0.000902	6171.273271	43749.858322	3879.753502	22611.501268
26.534500	-0.001481	-0.000029	-0.002388	0.001251	6150.578886	43658.367607	3876.264942	22595.670977
27.038000	0.001765	0.000379	0.006439	-0.002059	6199.901022	44008.682398	3904.017412	22746.317891
27.536000	0.001602	0.000543	0.003323	-0.001259	6192.605666	43948.482545	3894.976189	22709.785929
28.035000	-0.003608	-0.000097	0.002851	0.005277	6104.967573	43276.209704	3879.003894	22414.049050
28.536000	-0.000875	-0.000362	-0.002948	0.003653	6137.197348	43402.701537	3869.608722	22487.094019
29.036500	0.001780	-0.000111	0.000552	-0.000849	6190.855520	43848.083851	3887.693061	22691.089434
29.536500	0.000007	0.000746	0.002546	-0.000454	6174.511155	43891.715103	3891.348559	22673.129977
30.036500	-0.000491	-0.000271	-0.005922	0.004577	6133.188248	43325.119174	3860.919710	22445.498131
30.537000	-0.003197	-0.000679	-0.000058	0.002426	6129.069312	43487.551830	3878.871520	22542.485448
31.037500	-0.001123	-0.000306	0.000265	0.000907	6155.830708	43664.724690	3883.047615	22611.312847
31.537500	0.001985	0.000572	0.004752	-0.000476	6189.592393	43877.419755	3896.464337	22674.145439
32.035500	-0.000796	0.000277	-0.001896	0.004260	6133.281679	43405.751987	3870.606999	22459.790164
32.535000	0.001217	-0.000069	-0.001156	-0.000611	6184.804121	43829.633846	3883.265197	22680.257072
33.036000	0.003502	0.001507	0.000708	-0.000001	6197.469336	43920.835728	3886.117828	22652.531246
33.536000	0.000748	0.000083	-0.001366	-0.000238	6178.458050	43808.910370	3881.943162	22663.308807
34.036500	-0.003289	-0.000109	-0.002826	0.002986	6124.237314	43488.580157	3871.377264	22517.210836
34.536500	0.000770	0.000533	0.004939	0.001984	6161.935716	43642.403497	3891.244795	22562.481998
35.037000	-0.000716	0.000002	-0.000547	0.001318	6155.798050	43655.117315	3880.274546	22592.670794
35.537000	0.000226	0.000331	-0.003718	0.001222	6163.563279	43694.933007	3873.334694	22596.984993
36.037000	0.000824	0.000362	-0.000107	0.001524	6165.792440	43669.496197	3880.804144	22583.336087
36.535000	0.000857	0.000163	0.000150	0.001417	6166.840789	43660.851176	3881.627375	22588.160206
37.034500	0.001730	0.000060	0.000202	0.001445	6173.186959	43648.590364	3881.681547	22586.900249
37.535500	0.000751	0.000225	0.004620	0.001369	6166.405106	43671.201690	3891.924446	22590.364061
38.036000	-0.000814	0.000412	-0.001380	0.001491	6153.768103	43677.222076	3877.997267	22584.801313
38.536500	0.000382	0.000669	0.006275	0.002100	6158.155673	43644.242731	3894.041465	22557.234281
39.036500	0.000024	-0.000480	-0.003993	0.000913	6164.369379	43647.793667	3873.413137	22611.017363
39.536500	0.002060	0.000205	0.001229	0.001582	6174.630279	43649.291718	3883.701790	22580.673945
40.036000	0.001483	0.000114	-0.000190	0.001264	6172.685068	43670.588722	3881.204003	22595.090997
40.537000	0.000642	0.000059	-0.000650	0.001129	6167.386851	43678.117358	3880.468011	22601.204403
41.037500	-0.000483	-0.000517	0.000664	0.000398	6164.427680	43692.647083	3885.108120	22634.377618
41.535000	0.001263	0.000139	-0.005278	0.000483	6176.912554	43746.305373	3871.493423	22630.533918
42.035500	0.000726	0.000098	-0.003056	0.001102	6168.219631	43684.341634	3875.095800	22602.436170
42.535500	0.001284	0.000005	0.003204	0.001377	6170.342218	43649.793669	3888.664967	22589.963451
43.036000	-0.000412	0.000105	-0.001255	0.000990	6160.520757	43695.495474	3879.413375	22607.509092
43.536500	0.002394	0.000401	0.004922	-0.003432	6215.110722	44140.893278	3903.681571	22809.113785
44.036500	-0.001260	0.000541	-0.002075	0.004954	6124.689648	43365.585297	3868.650930	22428.548063
44.537000	0.000125	0.000819	0.001653	0.004184	6140.687364	43463.307722	3878.766774	22463.198151
45.037000	0.000569	0.000780	-0.000421	-0.000203	6176.854548	43871.309903	3884.008867	22661.721265
45.535000	0.002172	0.000107	0.004454	-0.000374	6190.229219	43823.973759	3895.543279	22669.485711
46.037500	-0.002605	0.000093	-0.002218	0.004159	6120.617157	43397.936256	3870.110004	22464.309778
46.535000	0.000144	0.000022	-0.002212	0.004209	6140.648578	43386.674841	3870.013314	22462.084623
47.035500	0.000039	0.000268	0.000046	0.001516	6159.969852	43661.502157	3881.168698	22583.694284
47.535500	-0.000391	0.000302	-0.000796	0.001940	6153.570667	43624.790859	3878.302691	22564.464101
48.036000	-0.004514	-0.000187	-0.004940	0.004740	6102.252084	43317.753869	3862.738379	22438.176001
48.536000	-0.005235	-0.000359	-0.002213	0.004526	6098.525896	43321.693796	3869.299476	22447.790489
49.037000	-0.000340	0.000479	-0.005474	-0.000068	6169.002607	43830.180750	3872.291178	22655.585695
49.537000	0.000558	0.001412	0.000730	-0.001909	6189.627967	44092.212893	3890.522023	22739.426357
50.037000	-0.003078	0.000446	-0.003667	0.005766	6105.263283	43281.225329	3863.288273	22392.080112
50.534500	-0.006065	-0.006985	-0.009058	0.021404	5971.055351	41193.453183	3817.618180	21703.085349
51.034500	0.009168	-0.026308	-0.046250	0.486816	3994.408665	15458.486187	3186.442849	9345.801064
51.535500	-0.007712	-0.032509	-0.042902	-0.049435	6500.074463	45402.345981	3899.470842	25032.571309
52.035000	0.000317	-0.101030	-0.031601	-0.285676	9211.930774	65425.383948	4669.547144	41023.067610
52.535500	-0.000707	-0.079647	-0.020029	-0.257058	8796.029941	64392.742435	4601.326238	38592.570058
53.036000	0.011162	-0.051022	-0.007840	-0.212450	8368.482498	62171.635316	4478.736776	35109.424764
53.536000	0.015301	-0.031550	-0.003090	-0.165514	7856.062699	58540.901897	4332.328776	31811.026678
54.036500	0.018181	-0.019908	0.004169	-0.122763	7422.033658	54696.323759	4219.701216	29101.644255
54.537500	0.023818	-0.012798	0.013789	-0.111102	7359.849564	54156.540890	4213.499319	28407.725801
55.037000	0.038489	-0.003754	0.028578	-0.095064	7345.857387	53338.164435	4209.720517	27483.337073
55.534500	0.054452	0.001212	0.048148	-0.052450	7081.708537	49151.855827	4141.885355	25186.679903
56.035000	0.067856	0.011658	0.060467	0.012708	6612.846883	43680.066677	3999.285299	22083.177246
56.535500	0.087985	0.027073	0.079692	0.093508	6129.812415	37983.572488	3853.586627	18828.271748
57.035500	0.115192	0.042002	0.110165	0.149694	5921.844088	34806.150602	3798.598668	16896.551763
57.536500	0.138995	0.056538	0.134961	0.203253	5722.269961	32066.335600	3740.825625	15273.832864
58.035500	0.157842	0.072588	0.154678	0.260433	5484.522320	29433.005196	3671.095158	13748.647389
58.536500	0.178594	0.085932	0.171824	0.310251	5317.732232	27297.552757	3615.002075	12574.048477
59.037000	0.198109	0.100990	0.192185	0.349210	5212.230266	25992.397409	3584.906742	11744.895553
59.537500	0.218771	0.112160	0.218441	0.374327	5188.714264	25263.360202	3586.713379	11248.459011
60.040000	0.231373	0.125340	0.227163	0.383841	5204.987827	25452.731527	3585.457462	11067.787901
60.535000	0.234556	0.133043	0.227473	0.385104	5215.169179	25789.322409	3583.948951	11044.102114
61.035000	0.246040	0.140606	0.246724	0.400969	5192.005410	25356.332452	3589.323417	10752.322942
61.535500	0.249463	0.145272	0.246168	0.411935	5152.685373	25033.321153	3571.202413	10556.807643
62.035500	0.248482	0.148333	0.244593	0.407495	5170.633488	25418.443921	3575.661984	10635.371717
62.536000	0.250226	0.149929	0.259541	0.405656	5189.376732	25597.110604	3602.407069	10668.161194
63.041500	0.255341	0.152804	0.246456	0.398795	5253.160672	26111.160854	3592.370788	10791.693369
63.536500	0.252076	0.153158	0.249408	0.396342	5248.781502	26261.526516	3601.077306	10836.333503
64.045500	0.256180	0.154741	0.259381	0.394501	5281.042800	26446.228233	3620.490806	10870.002812
64.540000	0.254537	0.155959	0.256671	0.398635	5249.684985	26288.805417	3609.180051	10794.594646
65.034500	0.261145	0.157010	0.256340	0.395373	5303.512282	26521.961566	3614.000785	10854.024130
65.535000	0.259350	0.157548	0.258332	0.395923	5290.611636	26521.346144	3616.385942	10843.982377
66.035000	0.259066	0.159582	0.256840	0.398742	5273.649221	26478.724268	3609.280958	10792.653213
66.535500	0.258637	0.159814	0.254266	0.399580	5266.759508	26445.871651	3603.706795	10777.447788
67.038500	0.261458	0.161694	0.257231	0.396942	5296.596235	26691.903338	3612.883938	10825.389327
67.536000	0.261932	0.162500	0.263660	0.398924	5288.310487	26627.556154	3620.250605	10789.338688
68.036500	0.263204	0.163345	0.258352	0.399766	5290.671223	26627.751345	3610.082466	10774.086878
68.536000	0.258435	0.162225	0.263848	0.405028	5236.270047	26281.955355	3610.465868	10679.380700
69.037000	0.265761	0.164678	0.265606	0.402043	5292.208172	26576.254906	3618.299940	10732.955350
69.537500	0.263855	0.163993	0.264499	0.402932	5276.914032	26490.721205	3614.992676	10716.961149
70.034500	0.263653	0.163440	0.261472	0.404222	5268.788318	26390.885032	3607.890550	10693.803367
70.535000	0.263006	0.164810	0.256807	0.409780	5235.301246	26165.682730	3591.354693	10594.828776
71.034500	0.264836	0.164107	0.261451	0.406872	5260.829901	26284.060955	3603.533986	10646.471319
71.535500	0.264369	0.163995	0.253621	0.407781	5253.384245	26229.178469	3589.460456	10630.286467
72.036000	0.264516	0.163790	0.258046	0.410768	5238.097912	26058.490573	3591.755757	10577.367484
72.536000	0.263136	0.165298	0.260940	0.416623	5199.609025	25828.068281	3587.036447	10474.707445
73.037000	0.266350	0.166114	0.265125	0.413400	5233.823933	26042.065033	3598.905445	10531.045452
73.537000	0.268024	0.165940	0.265507	0.414501	5236.892593	25974.320613	3597.745167	10511.755108
74.040000	0.263224	0.166059	0.267269	0.416499	5200.722543	25874.775471	3597.363728	10476.857637
74.538000	0.264071	0.166786	0.269965	0.416656	5204.370369	25904.939311	3601.470245	10474.128421
75.035000	0.266445	0.168670	0.267906	0.418169	5208.926421	25924.576378	3595.701945	10447.825470
75.535000	0.263153	0.166392	0.264085	0.416693	5199.329324	25882.167144	3591.939668	10473.492397
76.035500	0.268934	0.167813	0.262036	0.417969	5223.217470	25889.817272	3586.639446	10451.293917
76.536000	0.268542	0.169241	0.265700	0.418970	5215.802348	25912.381814	3590.879938	10433.932854
77.036000	0.267174	0.167958	0.265731	0.419113	5207.790719	25837.065325	3590.702481	10431.460316
77.536500	0.265852	0.166197	0.266815	0.418010	5206.631053	25802.364447	3594.204398	10450.587955
78.036500	0.267489	0.168495	0.264846	0.421981	5194.311105	25714.409066	3584.734243	10381.957737
78.537000	0.269366	0.167966	0.270197	0.421763	5205.368370	25698.123201	3593.608527	10385.713635
79.037500	0.268929	0.168639	0.267775	0.422155	5200.980505	25712.800162	3589.108382	10378.955361
79.537000	0.269180	0.167409	0.265426	0.421577	5205.367728	25678.662008	3586.293690	10388.915268
80.034500	0.267615	0.167748	0.270971	0.423150	5188.824593	25614.085262	3592.626395	10361.871911
80.535000	0.265251	0.167107	0.262387	0.426216	5160.485881	25421.196584	3574.215820	10309.449228
81.035500	0.267710	0.167468	0.265341	0.421368	5198.703022	25692.634795	3586.489118	10392.501030
81.536000	0.270357	0.167570	0.272834	0.421725	5210.815899	25679.348237	3597.911969	10386.362596
82.036500	0.268006	0.168203	0.266610	0.423145	5190.909679	25638.140934	3585.684736	10361.963776
82.536500	0.266330	0.167953	0.266498	0.426903	5162.521163	25429.480994	3579.575638	10297.762483
83.037000	0.268931	0.166643	0.263123	0.422333	5200.054442	25599.034470	3581.456655	10375.904402
83.539000	0.267534	0.166600	0.269374	0.421604	5196.533003	25634.881780	3592.543442	10388.441499
84.034500	0.266585	0.165761	0.266927	0.421523	5191.962919	25595.268952	3588.766156	10389.838803
84.535000	0.270939	0.164739	0.265360	0.419999	5223.083919	25621.484003	3588.696061	10416.123950
85.035500	0.270221	0.166493	0.273144	0.421245	5212.641492	25648.084255	3599.187802	10394.633564
85.535500	0.270906	0.163002	0.265420	0.418460	5231.124008	25611.148485	3591.248381	10442.775834
86.036000	0.268820	0.163649	0.270297	0.419420	5214.888341	25594.815287	3597.536606	10426.142630
86.538500	0.269382	0.164286	0.269062	0.419172	5219.198439	25641.044183	3595.947551	10430.438386
87.036500	0.269878	0.163386	0.270642	0.419107	5222.182857	25597.407493	3598.599194	10431.566739
87.537000	0.270146	0.162623	0.272699	0.418375	5227.520650	25595.828270	3603.119410	10444.258085
88.037000	0.269220	0.162612	0.272753	0.418652	5221.101405	25580.767353	3602.757266	10439.446782
88.535000	0.268225	0.161778	0.265810	0.417322	5222.887026	25606.643326	3593.695301	10462.541545
89.038000	0.271322	0.162579	0.268101	0.418451	5233.399366	25589.566330	3595.562427	10442.936797
89.535000	0.268828	0.162316	0.272098	0.417766	5223.737099	25611.568367	3603.132630	10454.826948
90.038000	0.267703	0.161399	0.262188	0.417489	5219.213706	25578.157330	3587.643146	10459.631935
90.535500	0.270021	0.160995	0.257655	0.416770	5235.436823	25594.601199	3581.606398	10472.151282
91.036000	0.268118	0.160509	0.266621	0.416320	5227.660328	25592.728803	3596.608267	10479.982024
91.536000	0.267653	0.160042	0.270708	0.415663	5228.684762	25602.617577	3604.292149	10491.439251
92.036500	0.271745	0.160412	0.270956	0.416823	5244.407915	25561.408278	3602.808581	10471.226243
92.536500	0.263567	0.159094	0.264621	0.419553	5186.455013	25351.375111	3588.230911	10423.837103
93.037000	0.269445	0.159629	0.264485	0.415754	5237.793062	25576.329156	3594.085090	10489.854725
93.534500	0.272438	0.160149	0.264304	0.417587	5244.025000	25507.955343	3590.860176	10457.931898
94.035000	0.267588	0.158463	0.267817	0.416225	5225.341391	25491.095676	3598.691994	10481.643797
94.535000	0.271285	0.158860	0.269171	0.416206	5245.251861	25512.733973	3600.912691	10481.972880
95.035500	0.268905	0.157588	0.265634	0.415638	5235.523040	25476.162091	3596.118931	10491.887244
95.536000	0.266413	0.157183	0.269373	0.416290	5218.731825	25421.284420	3601.103901	10480.503231
96.036000	0.267722	0.158344	0.270526	0.417939	5216.924513	25396.025700	3600.300586	10451.816087
