sample name	sample
index	529
start time	 03-11-2021  04:17:54 PM
880	0.423043
Peak Time (s)	92.54
Peak Height 	0.423
calc peak height	90,93
Baseline Time (s)	10.537
Baseline Value 	-0.002108
subtract baseline	10,4
Abs	0.304287
Peak Time (s)	91.537
Peak Height 	0.3043
calc peak height	90,93
Baseline Time (s)	9.536
Baseline Value 	0.001669
subtract baseline	10,3
PK_550	0.172737
Peak Time (s)	91.036
Peak Height 	0.1727
calc peak height	90,93
Baseline Time (s)	10.537
Baseline Value 	6.8873E-4
subtract baseline	10,2
PK_880	0.299057
Peak Time (s)	91.537
Peak Height 	0.2991
calc peak height	90,93
Baseline Time (s)	10.537
Baseline Value 	0.002254
subtract baseline	10,1


Time (s)	A880-A510	A880-A775	A880-A975	A880	I510	I775	I975	I880	
0.039000	-0.006298	-0.000506	-0.004819	0.006562	6930.684044	44589.861445	3954.892760	23731.088431
0.536500	-0.003520	-0.000855	-0.007832	0.004445	6976.226680	44759.718623	3952.688830	23832.840425
1.036500	-0.002638	-0.000781	0.003591	0.003597	6992.446042	44848.715752	3983.260794	23873.780042
1.537500	0.000226	-0.000731	0.001601	0.000586	7048.008267	45145.147399	3985.841672	24019.690487
2.037500	-0.004393	-0.000491	-0.004028	0.005297	6960.121748	44712.836694	3959.965262	23791.848681
2.537500	-0.002244	-0.001116	-0.001893	0.000237	7027.861180	45141.635355	3977.906021	24036.652170
3.035500	-0.000934	-0.000494	0.005372	-0.001623	7058.005821	45383.632815	4001.093278	24127.381510
3.535500	-0.000689	0.000050	0.002116	0.000294	7042.083058	45249.571092	3987.887459	24033.896123
4.036000	-0.005608	-0.001009	0.000167	0.003926	6961.569712	44794.941465	3973.817837	23857.885496
4.536000	-0.000617	0.000149	-0.001536	0.000451	7041.274142	45243.961066	3978.265307	24026.254650
5.036500	-0.000587	-0.000361	-0.002973	0.000013	7045.719816	45236.878075	3975.756399	24047.551827
5.536500	0.000575	-0.000365	-0.000038	0.000391	7053.187459	45199.638128	3982.189633	24029.145218
6.036500	-0.001993	-0.000143	0.000262	-0.000040	7032.861859	45263.263927	3984.036016	24050.117637
6.536500	-0.001611	-0.001334	-0.002898	-0.000916	7044.811195	45232.600792	3978.277029	24092.812793
7.037000	0.000520	0.000341	0.003856	0.000546	7051.184045	45253.376820	3991.669566	24021.631018
7.535000	0.000686	0.000006	0.001810	-0.000054	7058.489727	45279.117935	3987.991895	24050.798157
8.035000	-0.000610	-0.000680	0.000436	-0.000709	7052.374146	45276.185077	3986.170007	24082.723841
8.535000	0.000575	0.000158	0.002181	0.000168	7055.314097	45272.327713	3988.373266	24040.008688
9.036000	-0.001236	-0.000922	0.001070	-0.000684	7046.179364	45250.103182	3987.713824	24081.511229
9.536000	-0.000899	0.000428	0.000000	0.000081	7042.109886	45307.226346	3983.070634	24044.258389
10.036000	0.001126	-0.000441	-0.003436	-0.000302	7065.068215	45259.820348	3975.385701	24062.898779
10.536500	0.000000	0.000000	-0.000441	0.000000	7051.434052	45273.338884	3982.159801	24048.186889
11.036500	0.000280	0.000405	-0.000229	0.001317	7041.571433	45184.511787	3979.376662	23984.175612
11.540000	-0.002101	-0.000697	0.002623	-0.000728	7038.377275	45276.361757	3991.774071	24083.673847
12.035000	-0.002005	-0.000119	-0.001913	0.000063	7031.778530	45255.598510	3978.292281	24045.122121
12.535000	-0.000948	-0.000483	0.002505	-0.000549	7047.631330	45279.735499	3991.017181	24074.923031
13.035000	-0.000572	0.000563	0.005686	0.000455	7041.656317	45283.837677	3996.570222	24026.026368
13.536500	-0.000151	-0.000103	0.001284	-0.000481	7054.573613	45310.149921	3987.741779	24071.611788
14.036000	-0.002688	-0.000303	0.001391	0.001738	7009.469033	45074.844812	3982.398195	23963.723645
14.539000	-0.002584	-0.000402	-0.004394	0.001510	7012.603356	45087.415185	3968.458777	23974.806637
15.036500	-0.002764	-0.000508	0.003107	0.000236	7022.946423	45200.966312	3990.553459	24036.722047
15.537000	-0.000740	-0.001014	0.000630	-0.001412	7057.845440	45312.170174	3988.445771	24117.069661
16.039500	-0.004963	-0.000690	0.001066	0.003727	6969.449520	44844.869375	3976.572350	23867.487863
16.537500	-0.001178	0.000002	0.000417	-0.000710	7046.970640	45342.760525	3986.123719	24082.765443
17.034500	-0.000107	-0.000842	0.002153	-0.002252	7071.927936	45411.072264	3994.462310	24158.137537
17.535000	-0.002062	-0.000161	0.003066	0.000070	7031.166062	45250.782673	3990.870141	24044.770599
18.035500	0.000030	-0.000918	0.002152	0.000168	7050.125914	45167.631374	3988.300159	24040.027759
18.536000	-0.000724	-0.000360	-0.005904	0.000350	7041.213222	45204.196773	3967.586641	24031.139985
19.036000	-0.001945	-0.000235	0.002294	0.000391	7029.237206	45212.360058	3988.092871	24029.154994
19.536000	-0.001973	-0.000069	0.002595	0.000975	7023.442928	45171.700556	3987.376865	24000.787936
20.037000	-0.001297	0.000146	-0.002534	0.000903	7030.519108	45199.614507	3974.624301	24004.268687
20.539500	-0.002551	-0.000511	-0.001452	0.000234	7024.981261	45200.799849	3979.023470	24036.808199
21.037500	-0.002639	-0.000383	-0.000785	0.000677	7019.960670	45170.122047	3979.587031	24015.261806
21.535000	-0.003141	-0.000929	-0.001148	0.000368	7018.128555	45147.084888	3979.449992	24030.265300
22.035000	-0.002330	-0.000030	0.003176	0.000787	7021.841996	45193.824195	3989.327374	24009.919183
22.535500	-0.002784	-0.000100	0.002828	0.000684	7018.518289	45197.005492	3988.705044	24014.918586
23.036000	-0.000419	0.000915	0.009846	0.001721	7031.095359	45194.874898	4003.998136	23964.578174
23.536000	-0.002215	0.000140	-0.002643	0.000590	7024.792224	45229.528772	3975.136859	24019.493459
24.036500	-0.000476	0.000370	0.003100	0.001288	7034.654052	45183.913101	3987.862293	23985.564585
24.535500	-0.001667	0.000164	0.002792	0.001083	7025.318127	45183.875417	3987.600523	23995.531832
25.039500	-0.000622	-0.000167	0.003371	0.000920	7036.767449	45167.529822	3989.485224	24003.448810
25.537000	-0.003443	-0.000290	-0.003532	0.000597	7013.112807	45186.925647	3972.891151	24019.134987
26.034500	-0.000098	0.000102	0.004747	0.001311	7038.026031	45155.643336	3991.990671	23984.443327
26.537500	-0.001998	-0.000428	0.002715	0.000578	7026.955375	45175.392813	3988.686419	24020.045919
27.035000	-0.000561	-0.000103	-0.000943	0.001327	7033.478279	45134.182580	3977.553276	23983.671430
27.538000	-0.001188	0.000027	0.000644	-0.000745	7047.213582	45348.729568	3986.789169	24084.508434
28.036000	-0.001861	0.000269	0.000538	-0.000423	7037.755272	45340.792969	3985.705459	24068.784025
28.539000	-0.001198	-0.001213	-0.000536	-0.000960	7049.160522	45248.586197	3984.345107	24094.956852
29.036000	-0.002047	0.000081	-0.000632	0.000717	7025.183489	45211.386150	3979.872694	24013.311559
29.539500	-0.001478	0.000263	0.003837	-0.000255	7039.796187	45323.838929	3993.661474	24060.594696
30.037000	-0.002551	-0.000092	0.000837	0.002013	7008.166428	45068.654191	3980.307479	23950.399491
30.537000	-0.000862	-0.000248	0.000946	-0.000099	7044.174073	45258.815439	3985.918755	24053.008840
31.034000	-0.003801	0.000533	-0.001375	0.003410	6983.281663	44993.808598	3971.251384	23882.795984
31.538000	0.001704	0.000467	0.003396	0.000474	7063.170289	45272.666881	3990.682769	24025.133697
32.035000	-0.005477	-0.000210	0.002660	0.005010	6952.695707	44767.452083	3977.352667	23805.643956
32.535500	0.000449	0.000579	0.000493	0.000218	7053.634951	45308.517945	3983.969451	24037.560155
33.035500	-0.000159	-0.000176	-0.000747	0.000821	7042.104600	45176.264090	3979.320098	24008.235604
33.536000	-0.000264	-0.000499	-0.000583	-0.000301	7051.788557	45254.119117	3982.563189	24062.871473
34.039000	-0.002432	-0.000297	-0.001655	0.003233	6997.804092	44930.644869	3970.993298	23891.357563
34.537000	-0.003183	-0.001027	-0.002168	0.001054	7011.258557	45070.962051	3975.165262	23996.940661
35.037000	0.000039	0.000347	0.000473	0.002560	7027.479945	45058.118374	3978.015190	23923.904171
35.537500	-0.002273	-0.000191	0.004763	0.001575	7014.927431	45101.517135	3991.359631	23971.639753
36.034500	-0.000879	-0.000406	0.000350	0.001929	7024.759367	45046.321426	3979.291987	23954.466270
36.535000	-0.000595	0.000212	-0.000671	0.001943	7027.320850	45104.866030	3976.688646	23953.782839
37.035500	-0.001324	-0.000629	0.000629	0.001429	7025.290558	45073.210566	3981.256629	23978.738451
37.535500	-0.001107	0.000527	0.002358	0.002143	7020.578177	45116.113822	3983.818503	23944.102683
38.036000	-0.003493	-0.000040	-0.001036	0.001639	7002.814998	45109.974545	3976.536132	23968.522828
38.539000	-0.001839	0.000427	0.005318	0.001928	7015.690792	45127.236699	3991.873841	23954.519390
39.036500	-0.000942	0.000218	0.000677	0.002018	7023.330425	45098.309104	3979.892903	23950.181253
39.537000	-0.001535	-0.000063	0.003311	0.001879	7019.034459	45084.526748	3986.900594	23956.915284
40.037500	-0.001346	-0.000097	0.002262	0.001562	7023.820557	45111.979637	3985.045569	23972.282873
40.537500	-0.002215	-0.000323	0.003433	0.001381	7017.307980	45107.520566	3988.469664	23981.030924
41.035000	-0.001355	-0.000813	-0.001772	0.001151	7027.629257	45082.279808	3975.913355	23992.227113
41.535500	-0.000535	-0.000086	0.000997	0.001200	7034.933210	45148.178548	3982.762214	23989.829446
42.035500	-0.000529	-0.000198	0.000778	0.001623	7030.979002	45096.253218	3981.143415	23969.320594
42.535500	-0.002223	-0.000055	0.006791	0.001654	7014.654400	45107.019567	3996.329884	23967.799299
43.039000	-0.000002	0.000329	0.000208	0.002096	7031.492109	45101.486703	3978.516025	23946.391277
43.536500	-0.003144	0.000198	0.003121	0.001816	7004.440438	45115.895540	3986.577371	23959.966030
44.037000	0.000010	0.001063	0.006084	-0.001457	7065.440755	45519.712357	4002.494135	24119.249724
44.536500	0.000926	0.000274	0.005721	-0.000556	7065.572083	45354.266570	3999.248255	24075.255360
45.037000	-0.000711	0.000372	0.002118	0.000557	7039.368705	45255.316287	3987.226141	24021.106771
45.534500	-0.000232	0.000051	0.003468	-0.000300	7052.086194	45307.561743	3992.836969	24062.799994
46.035000	-0.000071	-0.000250	0.002828	0.001068	7040.588007	45145.045591	3987.728628	23996.239030
46.535000	-0.000731	-0.000521	0.007214	-0.000470	7048.952908	45268.390093	4002.863559	24071.105559
47.035000	-0.002178	-0.001021	0.007069	-0.000066	7031.360781	45180.322157	4001.449414	24051.395198
47.538500	-0.002458	-0.000280	0.003061	0.001835	7010.731270	45067.704508	3986.377140	23959.042014
48.036000	-0.000457	-0.000183	-0.001300	0.002065	7027.472781	45054.725332	3974.804994	23947.872626
48.536000	-0.001075	0.000064	0.001409	-0.000406	7045.071231	45319.167527	3987.871158	24067.978919
49.037000	-0.002138	0.000479	0.004292	0.002857	7004.108265	45042.125571	3986.905844	23909.511886
49.537500	-0.000482	0.000074	0.007636	-0.000358	7050.244296	45315.385566	4003.656736	24065.603996
50.037000	0.001493	0.000110	0.004862	-0.001653	7081.529432	45445.637204	3999.860583	24128.847218
50.535000	-0.000370	0.000276	0.005373	0.000942	7038.943299	45208.416249	3994.526329	24002.356285
51.035000	-0.009157	-0.003291	-0.001530	0.000720	6958.372392	44884.061734	3977.604814	24013.147679
51.535500	-0.035580	-0.007453	-0.023921	0.299756	4825.052839	23805.753131	3406.764022	13506.327238
52.038500	-0.050247	-0.021864	-0.021534	-0.061387	7158.966705	49307.018923	4088.731454	27258.702645
52.536000	-0.039135	-0.045539	-0.010142	-0.195719	8847.985399	62763.708888	4568.253852	36087.498598
53.036500	-0.017009	-0.029982	0.007792	-0.161109	8679.812862	60195.791825	4504.883287	33545.520320
53.536500	-0.015453	-0.013053	0.006380	-0.060724	7506.105845	50185.216730	4166.615018	27221.522471
54.037000	-0.001456	-0.008314	0.015943	-0.054694	7591.148414	50044.968085	4177.076170	26886.196330
54.537500	0.025381	-0.000600	0.027528	-0.082341	8216.443650	54041.163931	4299.136188	28462.667137
55.035000	0.040003	0.008079	0.042187	-0.048966	7992.303739	51216.102066	4239.528018	26571.927677
55.535000	0.073670	0.026408	0.070992	-0.001988	7838.999392	48134.075444	4184.061999	24145.210119
56.035500	0.100641	0.042559	0.099575	0.040816	7662.638047	45443.582526	4142.242230	22151.367110
56.539000	0.127543	0.058357	0.126505	0.096786	7355.148251	41688.042021	4060.988452	19823.835667
57.036000	0.154521	0.074839	0.155414	0.148327	7110.881264	38682.722878	4001.327471	17930.247874
57.536000	0.172057	0.090487	0.179733	0.201152	6783.269036	35750.015628	3930.471671	16209.133523
58.036500	0.197349	0.106609	0.204598	0.233776	6718.474249	34526.564047	3911.975682	15246.140185
58.536500	0.216220	0.119476	0.223619	0.261708	6639.902211	33449.509471	3891.141340	14477.239844
59.037000	0.225834	0.126677	0.233879	0.288553	6494.933860	32100.092709	3853.479781	13783.427607
59.534500	0.244115	0.139824	0.243693	0.317578	6407.405651	31053.110438	3811.616668	13079.976784
60.035000	0.243827	0.141364	0.251638	0.357476	6098.570413	28676.249228	3745.959512	12186.633786
60.535000	0.250381	0.146854	0.258378	0.385936	5941.873287	27350.198522	3704.008712	11597.722263
61.038000	0.256416	0.149337	0.266363	0.366572	6124.296110	28609.803218	3757.178982	11994.209483
61.535500	0.261041	0.154231	0.269211	0.333825	6412.871708	30934.207649	3831.586448	12706.264479
62.036000	0.266451	0.159806	0.263701	0.376505	6125.045784	28641.482981	3732.275615	11788.621117
62.536500	0.282683	0.166117	0.273419	0.371230	6288.119467	29336.476170	3762.002194	11897.208211
63.036500	0.284050	0.167354	0.271808	0.362183	6370.028997	29969.070009	3777.129242	12086.548767
63.555500	0.288081	0.170411	0.277857	0.366259	6369.668463	29905.756846	3781.187216	12000.760593
64.037500	0.291480	0.170970	0.283622	0.369541	6370.599269	29737.127492	3786.318468	11932.256144
64.537000	0.293130	0.172418	0.277539	0.373587	6351.574347	29577.326557	3765.563775	11848.517963
65.035000	0.292812	0.174252	0.277812	0.378052	6313.911667	29416.394023	3757.115721	11757.015703
65.538000	0.296086	0.175255	0.283793	0.383979	6293.207056	29117.889644	3757.223841	11637.001635
66.035000	0.294592	0.174798	0.278093	0.388831	6244.172675	28799.786798	3736.312037	11539.962885
66.536000	0.295885	0.174312	0.288516	0.393259	6220.216394	28508.790347	3748.131665	11452.341565
67.036500	0.294004	0.174315	0.289721	0.399429	6159.473445	28148.251825	3738.331230	11331.733801
67.536500	0.296841	0.175596	0.282574	0.403534	6150.003080	27984.849290	3716.532710	11252.431488
68.037000	0.296923	0.175292	0.285230	0.407537	6120.904911	27737.598900	3713.958442	11175.807526
68.537500	0.295876	0.175155	0.281152	0.410500	6091.422592	27561.179798	3700.643747	11119.553594
69.034000	0.293847	0.176016	0.283702	0.414476	6047.781835	27385.219067	3697.972858	11044.669346
69.535000	0.294887	0.175129	0.288778	0.415892	6045.067730	27255.952782	3704.846058	11018.171651
70.037500	0.294654	0.176174	0.290857	0.419209	6019.565113	27129.013290	3702.514470	10956.411039
70.535500	0.293945	0.175059	0.287335	0.420355	6006.325772	27003.389182	3693.786469	10935.195623
71.035500	0.295671	0.177051	0.290836	0.423379	5997.093309	26946.278853	3694.673253	10879.454053
71.536500	0.293198	0.175536	0.293995	0.423172	5981.044505	26874.072634	3700.964938	10883.258350
72.036000	0.294703	0.174601	0.294398	0.424162	5984.686748	26768.234129	3699.865443	10865.090043
72.537000	0.295740	0.175517	0.289158	0.425757	5980.744991	26730.963348	3687.156241	10835.893155
73.036500	0.294939	0.174927	0.289414	0.426238	5971.700576	26672.401752	3686.741373	10827.117432
73.537000	0.296376	0.175248	0.295377	0.426492	5980.042501	26676.026973	3697.335811	10822.476349
74.034500	0.295204	0.174415	0.292103	0.426394	5972.471496	26635.935944	3691.425050	10824.276676
74.537500	0.296551	0.174567	0.296247	0.425627	5987.399272	26686.121448	3700.585065	10838.276111
75.035000	0.297019	0.176152	0.295796	0.427698	5976.065368	26659.480217	3695.867717	10800.510122
75.536000	0.294411	0.174827	0.294163	0.425576	5972.639781	26703.098176	3696.779754	10839.195255
76.036000	0.299605	0.175892	0.296308	0.425426	6010.531321	26769.700815	3701.076587	10841.951814
76.536500	0.298683	0.175731	0.296431	0.424903	6007.680305	26789.564513	3702.289452	10851.507553
77.036500	0.298282	0.175113	0.291509	0.424045	6010.945314	26802.758401	3694.686405	10867.236416
77.537000	0.299243	0.176910	0.299778	0.425461	6007.697104	26823.689026	3707.548654	10841.311696
78.036500	0.298389	0.175715	0.298453	0.423137	6018.186074	26885.851838	3709.440189	10883.902707
78.537000	0.299850	0.175331	0.292398	0.422597	6032.531422	26894.489059	3699.049666	10893.828955
79.034500	0.297461	0.174738	0.298891	0.421692	6021.887804	26911.675022	3713.018002	10910.505534
79.535500	0.300499	0.175680	0.295558	0.422824	6035.562977	26901.175789	3704.558537	10889.652469
80.035000	0.298985	0.176699	0.296212	0.420855	6038.833619	27066.656165	3709.518633	10925.953049
80.535000	0.298525	0.174113	0.298961	0.418382	6053.355899	27060.396916	3719.478950	10971.770929
81.035500	0.298749	0.175551	0.298792	0.419115	6049.681837	27099.559447	3717.750154	10958.163777
81.536500	0.300116	0.175580	0.297491	0.420059	6052.739331	27048.720635	3713.462118	10940.673455
82.036500	0.299621	0.175153	0.292063	0.417201	6069.868006	27184.068519	3708.580224	10993.750331
82.536500	0.298663	0.174462	0.295417	0.416827	6065.625154	27166.340395	3715.670558	11000.712582
83.037000	0.299075	0.175216	0.300432	0.417216	6065.791957	27186.779983	3724.555738	10993.473138
83.540500	0.295623	0.174932	0.299109	0.419606	6023.663099	27037.871888	3717.417395	10949.054098
84.034500	0.301454	0.175714	0.300655	0.416714	6086.780717	27242.666627	3725.956732	11002.829657
84.536000	0.299992	0.174034	0.300977	0.415664	6083.770853	27207.458269	3728.615227	11022.437865
85.035500	0.299693	0.173999	0.296609	0.416830	6073.088548	27140.377281	3717.945048	11000.659401
85.536500	0.296306	0.172915	0.297310	0.418443	6036.908418	26990.516921	3716.199417	10970.629309
86.036000	0.299588	0.173871	0.299866	0.416349	6075.825331	27160.079590	3725.136514	11009.630166
86.536500	0.299918	0.173682	0.293583	0.416205	6079.280267	27157.593531	3713.358887	11012.327167
87.036500	0.299612	0.173252	0.298091	0.416672	6073.650421	27107.617335	3721.093034	11003.609077
87.536500	0.299913	0.174019	0.300822	0.417410	6070.463427	27109.161090	3724.934183	10989.844873
88.039500	0.299677	0.173531	0.302626	0.417683	6066.772814	27066.919948	3727.898239	10984.774845
88.534500	0.298597	0.172899	0.296148	0.417466	6060.508761	27043.846333	3715.847051	10988.808568
89.035000	0.299207	0.173140	0.300602	0.418260	6059.171571	27013.115741	3722.868186	10974.029170
89.536000	0.293216	0.171801	0.300653	0.422350	5986.985970	26714.019891	3715.123298	10898.374828
90.035500	0.296657	0.172169	0.299754	0.418642	6038.008794	26938.285565	3720.504735	10966.948703
90.536000	0.297898	0.172211	0.301681	0.419978	6037.318360	26866.846471	3721.637970	10942.163618
91.036000	0.298584	0.172737	0.303917	0.421365	6032.290210	26819.456659	3723.274655	10916.540218
91.537000	0.299057	0.172688	0.304287	0.422179	6029.835401	26772.041634	3722.419423	10901.528903
92.037000	0.296618	0.170476	0.302370	0.421377	6018.117099	26694.798348	3720.276188	10916.321353
92.539500	0.298006	0.171667	0.303249	0.423043	6016.124407	26668.834136	3718.765801	10885.638389
93.037500	0.296182	0.170146	0.297410	0.423412	6000.497255	26565.747872	3706.945707	10878.853193
93.570500	0.293985	0.170446	0.300607	0.429346	5943.222631	26261.161804	3701.787033	10770.596442
94.035000	0.295687	0.170233	0.308535	0.424998	5985.734108	26484.322483	3725.176415	10849.770373
94.535500	0.295707	0.170724	0.299547	0.426461	5975.543615	26431.670091	3705.221577	10823.042709
95.036000	0.296334	0.169768	0.304420	0.428111	5968.334329	26291.132667	3711.324064	10793.009547
95.536000	0.293689	0.168784	0.293080	0.433001	5915.784092	25977.377252	3681.051120	10704.656458
96.036500	0.295478	0.168453	0.304196	0.429356	5953.594800	26153.874467	3708.538601	10770.424473
96.536500	0.296328	0.170139	0.304167	0.431832	5942.229373	26111.673151	3703.807723	10725.696141
