sample name	sample
index	516
start time	 03-11-2021  03:37:25 PM


Wavelength (nm)	Absorbance
494.344910	-0.772007
494.563924	-0.772007
494.782919	-0.772007
495.001897	-0.645095
495.220856	-0.541750
495.439797	-0.465878
495.658719	-0.413816
495.877624	-0.354139
496.096510	-0.304376
496.315378	-0.248906
496.534227	-0.111172
496.753059	-0.185930
496.971872	-0.095184
497.190667	0.139653
497.409444	0.147340
497.628203	0.149525
497.846943	0.151854
498.065665	0.153255
498.284369	0.151759
498.503055	0.152855
498.721723	0.153588
498.940372	0.153738
499.159003	0.153156
499.377616	0.153993
499.596210	0.155118
499.814787	0.155521
500.033345	0.156188
500.251885	0.156446
500.470406	0.156352
500.688910	0.156883
500.907395	0.157398
501.125862	0.156815
501.344311	0.156706
501.562742	0.155657
501.781154	0.156072
501.999548	0.155806
502.217924	0.155544
502.436282	0.155512
502.654621	0.155734
502.872942	0.155300
503.091245	0.156424
503.309530	0.156552
503.527797	0.156744
503.746045	0.156743
503.964275	0.155544
504.182487	0.155643
504.400681	0.156612
504.618856	0.156346
504.837013	0.157259
505.055152	0.157871
505.273273	0.157522
505.491376	0.158206
505.709460	0.157632
505.927526	0.158806
506.145574	0.159484
506.363604	0.158489
506.581615	0.159477
506.799608	0.158896
507.017583	0.158825
507.235540	0.158345
507.453478	0.157583
507.671399	0.157766
507.889301	0.157755
508.107185	0.157543
508.325050	0.158316
508.542898	0.157860
508.760727	0.158152
508.978538	0.158498
509.196330	0.160265
509.414105	0.161244
509.631861	0.161530
509.849599	0.160503
510.067319	0.162013
510.285021	0.161694
510.502704	0.161586
510.720369	0.162088
510.938016	0.162139
511.155645	0.161733
511.373255	0.161932
511.590848	0.161685
511.808422	0.163123
512.025977	0.163405
512.243515	0.164910
512.461034	0.165610
512.678536	0.165761
512.896018	0.166263
513.113483	0.166047
513.330930	0.166284
513.548358	0.167178
513.765768	0.167422
513.983160	0.166718
514.200533	0.166379
514.417889	0.166383
514.635226	0.166379
514.852545	0.166004
515.069845	0.166109
515.287128	0.165853
515.504392	0.166239
515.721638	0.165993
515.938866	0.166535
516.156075	0.166251
516.373267	0.166429
516.590440	0.166799
516.807594	0.167276
517.024731	0.168772
517.241850	0.168751
517.458950	0.168451
517.676032	0.168976
517.893095	0.169207
518.110141	0.169183
518.327168	0.167691
518.544177	0.166831
518.761168	0.166755
518.978141	0.166058
519.195095	0.165981
519.412031	0.167046
519.628949	0.167001
519.845849	0.167571
520.062731	0.167355
520.279594	0.169531
520.496439	0.170515
520.713266	0.171015
520.930074	0.171965
521.146865	0.173439
521.363637	0.172951
521.580391	0.173743
521.797127	0.173183
522.013844	0.174194
522.230543	0.173802
522.447224	0.173671
522.663887	0.174217
522.880532	0.173779
523.097158	0.174758
523.313766	0.174832
523.530356	0.174474
523.746928	0.174979
523.963481	0.175247
524.180017	0.175219
524.396534	0.176026
524.613032	0.176470
524.829513	0.176899
525.045975	0.176242
525.262420	0.176847
525.478845	0.177073
525.695253	0.177025
525.911643	0.177102
526.128014	0.177705
526.344367	0.177709
526.560702	0.177339
526.777018	0.177788
526.993316	0.178274
527.209597	0.178470
527.425858	0.178895
527.642102	0.178660
527.858328	0.179828
528.074535	0.180311
528.290724	0.181113
528.506894	0.181536
528.723047	0.182088
528.939181	0.182126
529.155297	0.182912
529.371395	0.183692
529.587475	0.185291
529.803536	0.184873
530.019579	0.184621
530.235604	0.184648
530.451611	0.185332
530.667600	0.185182
530.883570	0.185576
531.099522	0.185488
531.315456	0.185319
531.531372	0.185056
531.747269	0.185696
531.963148	0.186121
532.179009	0.186377
532.394852	0.186307
532.610676	0.186884
532.826482	0.187041
533.042271	0.187132
533.258040	0.187746
533.473792	0.187949
533.689525	0.188179
533.905240	0.189198
534.120937	0.189991
534.336616	0.190080
534.552277	0.190263
534.767919	0.190545
534.983543	0.191393
535.199149	0.191634
535.414736	0.192220
535.630306	0.192395
535.845857	0.192510
536.061390	0.192511
536.276904	0.192800
536.492401	0.192778
536.707879	0.193578
536.923339	0.193655
537.138781	0.193134
537.354204	0.193130
537.569610	0.192874
537.784997	0.193151
538.000366	0.192896
538.215716	0.193487
538.431049	0.194069
538.646363	0.193277
538.861659	0.192928
539.076937	0.193664
539.292196	0.194112
539.507438	0.194804
539.722661	0.194773
539.937866	0.195357
540.153052	0.195610
540.368221	0.196078
540.583371	0.197368
540.798503	0.198072
541.013617	0.198424
541.228712	0.198779
541.443789	0.198859
541.658848	0.198992
541.873889	0.199588
542.088912	0.200041
542.303916	0.199648
542.518902	0.199131
542.733870	0.199726
542.948820	0.199995
543.163752	0.200458
543.378665	0.200595
543.593560	0.201496
543.808437	0.201164
544.023295	0.201423
544.238136	0.202352
544.452958	0.202894
544.667762	0.202942
544.882548	0.203502
545.097315	0.203526
545.312064	0.203961
545.526795	0.204076
545.741508	0.204249
545.956203	0.204182
546.170879	0.204226
546.385537	0.204818
546.600177	0.204937
546.814799	0.205035
547.029402	0.205208
547.243988	0.205630
547.458555	0.205857
547.673103	0.206845
547.887634	0.206946
548.102146	0.207186
548.316640	0.207454
548.531116	0.208040
548.745574	0.207813
548.960013	0.208053
549.174435	0.208112
549.388838	0.208279
549.603222	0.207911
549.817589	0.208569
550.031937	0.208594
550.246267	0.208565
550.460579	0.208454
550.674873	0.209185
550.889148	0.209647
551.103405	0.210327
551.317644	0.210319
551.531865	0.210680
551.746068	0.210745
551.960252	0.211124
552.174418	0.211108
552.388566	0.211143
552.602696	0.211220
552.816807	0.210750
553.030900	0.210838
553.244975	0.211171
553.459032	0.211883
553.673070	0.212489
553.887091	0.212344
554.101093	0.212816
554.315077	0.212792
554.529042	0.213158
554.742990	0.214136
554.956919	0.214137
555.170830	0.214482
555.384722	0.214483
555.598597	0.213850
555.812453	0.214094
556.026291	0.213951
556.240111	0.214619
556.453913	0.214411
556.667696	0.214202
556.881461	0.214513
557.095208	0.214347
557.308937	0.213992
557.522647	0.214650
557.736339	0.215250
557.950013	0.215604
558.163669	0.215735
558.377307	0.216180
558.590926	0.216543
558.804527	0.216506
559.018110	0.216851
559.231675	0.217187
559.445221	0.217632
559.658749	0.217897
559.872259	0.218171
560.085751	0.218504
560.299225	0.218561
560.512680	0.218322
560.726117	0.218629
560.939536	0.218815
561.152937	0.218945
561.366319	0.218311
561.579683	0.218361
561.793029	0.218354
562.006357	0.218645
562.219667	0.218881
562.432958	0.219138
562.646231	0.219274
562.859486	0.219438
563.072723	0.219557
563.285941	0.219752
563.499141	0.219778
563.712323	0.220495
563.925487	0.220509
564.138632	0.220474
564.351760	0.220822
564.564869	0.221046
564.777960	0.221580
564.991032	0.221829
565.204087	0.221976
565.417123	0.221416
565.630141	0.221091
565.843140	0.221269
566.056122	0.221298
566.269085	0.221467
566.482030	0.221555
566.694957	0.221482
566.907866	0.222057
567.120756	0.222852
567.333628	0.223697
567.546482	0.223939
567.759318	0.223875
567.972135	0.224594
568.184935	0.224637
568.397716	0.224598
568.610478	0.224590
568.823223	0.224604
569.035949	0.224663
569.248657	0.224859
569.461347	0.225056
569.674019	0.225376
569.886672	0.225485
570.099308	0.225598
570.311925	0.225942
570.524523	0.226273
570.737104	0.225978
570.949666	0.226169
571.162210	0.226679
571.374736	0.226469
571.587244	0.226568
571.799733	0.226694
572.012205	0.227032
572.224658	0.226754
572.437092	0.226717
572.649509	0.227195
572.861907	0.227164
573.074287	0.226729
573.286649	0.227345
573.498993	0.227603
573.711318	0.227807
573.923625	0.228215
574.135914	0.228714
574.348185	0.229108
574.560438	0.229488
574.772672	0.230137
574.984888	0.230303
575.197086	0.230265
575.409266	0.230408
575.621427	0.230008
575.833570	0.230080
576.045695	0.230705
576.257802	0.230839
576.469890	0.230885
576.681961	0.230736
576.894013	0.231138
577.106046	0.231532
577.318062	0.231222
577.530059	0.231746
577.742039	0.231660
577.954000	0.231556
578.165942	0.231589
578.377867	0.231854
578.589773	0.231896
578.801661	0.232404
579.013531	0.232701
579.225382	0.233389
579.437216	0.233764
579.649031	0.234091
579.860828	0.234287
580.072606	0.234622
580.284367	0.234559
580.496109	0.234841
580.707833	0.234657
580.919539	0.234516
581.131227	0.234652
581.342896	0.234821
581.554547	0.234474
581.766180	0.234545
581.977795	0.234662
582.189391	0.235040
582.400969	0.234868
582.612529	0.235112
582.824071	0.235197
583.035595	0.235530
583.247100	0.235418
583.458587	0.236227
583.670056	0.236536
583.881506	0.236557
584.092939	0.236789
584.304353	0.237201
584.515749	0.236838
584.727127	0.237204
584.938486	0.237367
585.149828	0.237719
585.361151	0.237636
585.572456	0.237886
585.783742	0.238022
585.995011	0.237950
586.206261	0.238442
586.417493	0.239142
586.628706	0.239568
586.839902	0.239450
587.051079	0.239710
587.262238	0.239812
587.473379	0.240143
587.684502	0.240062
587.895606	0.240139
588.106692	0.239758
588.317760	0.239642
588.528810	0.239052
588.739841	0.239492
588.950855	0.239352
589.161850	0.239876
589.372827	0.239292
589.583785	0.239950
589.794726	0.240484
590.005648	0.240618
590.216552	0.241061
590.427437	0.241830
590.638305	0.241884
590.849154	0.242350
591.059985	0.242434
591.270798	0.242745
591.481592	0.242442
591.692369	0.242514
591.903127	0.242767
592.113867	0.243064
592.324588	0.243086
592.535292	0.243174
592.745977	0.243266
592.956644	0.243560
593.167293	0.244433
593.377923	0.244793
593.588536	0.245109
593.799130	0.245266
594.009706	0.245322
594.220263	0.245562
594.430803	0.245562
594.641324	0.245757
594.851827	0.245685
595.062312	0.245135
595.272778	0.245432
595.483227	0.245399
595.693657	0.245589
595.904069	0.245634
596.114462	0.245868
596.324838	0.246386
596.535195	0.246452
596.745534	0.246626
596.955855	0.247238
597.166157	0.247197
597.376441	0.247436
597.586707	0.247732
597.796955	0.248026
598.007185	0.248364
598.217396	0.248500
598.427589	0.248377
598.637764	0.248574
598.847921	0.248482
599.058060	0.249141
599.268180	0.249253
599.478282	0.249267
599.688366	0.249446
599.898431	0.249316
600.108479	0.249198
600.318508	0.249849
600.528519	0.250020
600.738511	0.250159
600.948486	0.249959
601.158442	0.249908
601.368380	0.250360
601.578300	0.250487
601.788202	0.250520
601.998085	0.250858
602.207950	0.251059
602.417797	0.251001
602.627626	0.250960
602.837436	0.251221
603.047228	0.251652
603.257002	0.251573
603.466758	0.251871
603.676496	0.251965
603.886215	0.252133
604.095916	0.252143
604.305599	0.252336
604.515264	0.253167
604.724910	0.253267
604.934538	0.253229
605.144148	0.253535
605.353740	0.253387
605.563314	0.254077
605.772869	0.254323
605.982406	0.254259
606.191925	0.254493
606.401425	0.254034
606.610908	0.254077
606.820372	0.254477
607.029818	0.254679
607.239246	0.255107
607.448655	0.255100
607.658047	0.255089
607.867420	0.255684
608.076775	0.255752
608.286111	0.256156
608.495430	0.256815
608.704730	0.256611
608.914012	0.256679
609.123275	0.256567
609.332521	0.256554
609.541748	0.256697
609.750957	0.256848
609.960148	0.257148
610.169321	0.257257
610.378475	0.257124
610.587611	0.257339
610.796729	0.257378
611.005829	0.257584
611.214910	0.257576
611.423974	0.257869
611.633019	0.257666
611.842045	0.257727
612.051054	0.257874
612.260044	0.257945
612.469017	0.257646
612.677970	0.258096
612.886906	0.258200
613.095824	0.258261
613.304723	0.258018
613.513604	0.258251
613.722467	0.258502
613.931311	0.258704
614.140138	0.259062
614.348946	0.259668
614.557736	0.259796
614.766507	0.259897
614.975261	0.260275
615.183996	0.260588
615.392713	0.260728
615.601412	0.260783
615.810092	0.261099
616.018754	0.260881
616.227399	0.260892
616.436024	0.261008
616.644632	0.261357
616.853222	0.261665
617.061793	0.261963
617.270346	0.262252
617.478880	0.262588
617.687397	0.262644
617.895895	0.262791
618.104375	0.263189
618.312837	0.263297
618.521281	0.263475
618.729706	0.263533
618.938113	0.263506
619.146502	0.263546
619.354873	0.263811
619.563226	0.263732
619.771560	0.264051
619.979876	0.264236
620.188174	0.264243
620.396453	0.264334
620.604715	0.264448
620.812958	0.264618
621.021183	0.264591
621.229390	0.264364
621.437578	0.264635
621.645748	0.264739
621.853900	0.264665
622.062034	0.265093
622.270150	0.265227
622.478247	0.265291
622.686326	0.265497
622.894387	0.265657
623.102430	0.265970
623.310454	0.266132
623.518461	0.266225
623.726449	0.266518
623.934418	0.266040
624.142370	0.266047
624.350303	0.266051
624.558218	0.266073
624.766115	0.266167
624.973994	0.266310
625.181855	0.266526
625.389697	0.266822
625.597521	0.266730
625.805327	0.267238
626.013114	0.267343
626.220883	0.267575
626.428634	0.268176
626.636367	0.268491
626.844082	0.268560
627.051778	0.268638
627.259457	0.269032
627.467117	0.269437
627.674758	0.269711
627.882382	0.270129
628.089987	0.270276
628.297574	0.270164
628.505143	0.270239
628.712694	0.270420
628.920226	0.270520
629.127740	0.270400
629.335236	0.270420
629.542714	0.270736
629.750174	0.270768
629.957615	0.271210
630.165038	0.271439
630.372443	0.271850
630.579829	0.271920
630.787198	0.271960
630.994548	0.271990
631.201880	0.272279
631.409194	0.272208
631.616489	0.272386
631.823766	0.272333
632.031025	0.272463
632.238266	0.272338
632.445489	0.272600
632.652693	0.272723
632.859879	0.272768
633.067047	0.272658
633.274197	0.272647
633.481329	0.272723
633.688442	0.272961
633.895537	0.273040
634.102614	0.273360
634.309672	0.273272
634.516713	0.273822
634.723735	0.274198
634.930739	0.274503
635.137724	0.274802
635.344692	0.274824
635.551641	0.274907
635.758572	0.275004
635.965485	0.275129
636.172379	0.275723
636.379256	0.275779
636.586114	0.275966
636.792954	0.275956
636.999775	0.276193
637.206579	0.276573
637.413364	0.276877
637.620131	0.277046
637.826880	0.277407
638.033610	0.277466
638.240323	0.277249
638.447017	0.277381
638.653692	0.277841
638.860350	0.277826
639.066990	0.277923
639.273611	0.277774
639.480214	0.278026
639.686798	0.277884
639.893365	0.278184
640.099913	0.278766
640.306443	0.278755
640.512955	0.278895
640.719449	0.279163
640.925924	0.279495
641.132381	0.280037
641.338820	0.279974
641.545241	0.280165
641.751644	0.280055
641.958028	0.279999
642.164394	0.280148
642.370742	0.280348
642.577071	0.280535
642.783383	0.280591
642.989676	0.280490
643.195951	0.280828
643.402207	0.280955
643.608446	0.281171
643.814666	0.281485
644.020868	0.281744
644.227052	0.281748
644.433218	0.281919
644.639365	0.282241
644.845494	0.282423
645.051605	0.282793
645.257698	0.282739
645.463772	0.283004
645.669828	0.283087
645.875866	0.283364
646.081886	0.283723
646.287888	0.283735
646.493871	0.283458
646.699836	0.283787
646.905783	0.283781
647.111712	0.284101
647.317622	0.284053
647.523514	0.284051
647.729388	0.284095
647.935244	0.284188
648.141082	0.284550
648.346901	0.285154
648.552702	0.285183
648.758485	0.285514
648.964250	0.285965
649.169996	0.286250
649.375724	0.286661
649.581434	0.287003
649.787126	0.287204
649.992800	0.287343
650.198455	0.287319
650.404092	0.287478
650.609711	0.287385
650.815311	0.287181
651.020894	0.287133
651.226458	0.287159
651.432004	0.287313
651.637532	0.287355
651.843041	0.287667
652.048532	0.287925
652.254006	0.288033
652.459460	0.288366
652.664897	0.288922
652.870315	0.289201
653.075716	0.289636
653.281097	0.289649
653.486461	0.289867
653.691807	0.289969
653.897134	0.290300
654.102443	0.290403
654.307734	0.290625
654.513006	0.290716
654.718261	0.290923
654.923497	0.290833
655.128715	0.291232
655.333915	0.291540
655.539096	0.291621
655.744259	0.291553
655.949404	0.291980
656.154531	0.292300
656.359640	0.292361
656.564730	0.292533
656.769802	0.292941
656.974856	0.293055
657.179892	0.293242
657.384909	0.293470
657.589908	0.293907
657.794889	0.293981
657.999852	0.293908
658.204797	0.294424
658.409723	0.294847
658.614631	0.295009
658.819521	0.295095
659.024393	0.295421
659.229246	0.295551
659.434081	0.295593
659.638898	0.295889
659.843697	0.296130
660.048478	0.296300
660.253240	0.296362
660.457984	0.296396
660.662710	0.296785
660.867417	0.296950
661.072107	0.297250
661.276778	0.297426
661.481431	0.297546
661.686066	0.297907
661.890682	0.297933
662.095281	0.298339
662.299861	0.298948
662.504422	0.299083
662.708966	0.299042
662.913491	0.299402
663.117999	0.299440
663.322488	0.299750
663.526958	0.299810
663.731411	0.299959
663.935845	0.300134
664.140261	0.299962
664.344659	0.300357
664.549038	0.300627
664.753400	0.300535
664.957743	0.301089
665.162068	0.301573
665.366375	0.301790
665.570663	0.302071
665.774933	0.302100
665.979185	0.302534
666.183419	0.302440
666.387635	0.302746
666.591832	0.303195
666.796011	0.303447
667.000172	0.303604
667.204315	0.303857
667.408439	0.304042
667.612545	0.304306
667.816634	0.304419
668.020703	0.304627
668.224755	0.304827
668.428788	0.304913
668.632803	0.305058
668.836800	0.305012
669.040779	0.305290
669.244739	0.305356
669.448681	0.305788
669.652605	0.306182
669.856511	0.306539
670.060399	0.306589
670.264268	0.306617
670.468119	0.306731
670.671952	0.306886
670.875767	0.306895
671.079563	0.307217
671.283341	0.307157
671.487101	0.307291
671.690843	0.307376
671.894567	0.307698
672.098272	0.308258
672.301959	0.308503
672.505628	0.308800
672.709278	0.309091
672.912911	0.309193
673.116525	0.309600
673.320121	0.309613
673.523699	0.309842
673.727258	0.310101
673.930799	0.310327
674.134322	0.310602
674.337827	0.310607
674.541314	0.310843
674.744782	0.311252
674.948232	0.311287
675.151664	0.311731
675.355078	0.311985
675.558474	0.312265
675.761851	0.312491
675.965210	0.312433
676.168551	0.312757
676.371873	0.312987
676.575178	0.313201
676.778464	0.313574
676.981732	0.313584
677.184981	0.313921
677.388213	0.314173
677.591426	0.314034
677.794621	0.314534
677.997798	0.314745
678.200956	0.314992
678.404097	0.315403
678.607219	0.315458
678.810323	0.315733
679.013408	0.315875
679.216476	0.316023
679.419525	0.316321
679.622556	0.316545
679.825569	0.316801
680.028563	0.316853
680.231540	0.316585
680.434498	0.316687
680.637438	0.317022
680.840359	0.317138
681.043263	0.317441
681.246148	0.317718
681.449015	0.317752
681.651864	0.318012
681.854694	0.318490
682.057506	0.319065
682.260301	0.319618
682.463076	0.319782
682.665834	0.320012
682.868573	0.320230
683.071295	0.320448
683.273998	0.320845
683.476682	0.320770
683.679349	0.320993
683.881997	0.321169
684.084627	0.321466
684.287239	0.321753
684.489833	0.322194
684.692408	0.322297
684.894965	0.322541
685.097504	0.322716
685.300025	0.323336
685.502527	0.323341
685.705012	0.323418
685.907478	0.323518
686.109925	0.323640
686.312355	0.323821
686.514766	0.324119
686.717159	0.324533
686.919534	0.324681
687.121891	0.324686
687.324230	0.325244
687.526550	0.325501
687.728852	0.325515
687.931136	0.325674
688.133401	0.325804
688.335649	0.325819
688.537878	0.325728
688.740089	0.325979
688.942281	0.326380
689.144456	0.326179
689.346612	0.326251
689.548750	0.326392
689.750870	0.326648
689.952971	0.326462
690.155055	0.326704
690.357120	0.326829
690.559167	0.326869
690.761195	0.326940
690.963206	0.327127
691.165198	0.327383
691.367172	0.327606
691.569128	0.327668
691.771065	0.328455
691.972984	0.328616
692.174885	0.329040
692.376768	0.329169
692.578633	0.329451
692.780479	0.329794
692.982308	0.329967
693.184118	0.329995
693.385909	0.329861
693.587683	0.329755
693.789438	0.330152
693.991175	0.330328
694.192894	0.330711
694.394595	0.330562
694.596277	0.330622
694.797941	0.330995
694.999587	0.331436
695.201215	0.331740
695.402824	0.331870
695.604416	0.331821
695.805989	0.331603
696.007543	0.331578
696.209080	0.331779
696.410598	0.331918
696.612099	0.331769
696.813580	0.331726
697.015044	0.331994
697.216490	0.331997
697.417917	0.332161
697.619326	0.332592
697.820717	0.332677
698.022089	0.332873
698.223444	0.333069
698.424780	0.333365
698.626098	0.333690
698.827397	0.333935
699.028679	0.334302
699.229942	0.334473
699.431187	0.334342
699.632414	0.334692
699.833622	0.334860
700.034813	0.334809
700.235985	0.334846
700.437139	0.335001
700.638274	0.334982
700.839392	0.335138
701.040491	0.335065
701.241572	0.335441
701.442635	0.335722
701.643679	0.335722
701.844706	0.335991
702.045714	0.335916
702.246704	0.336106
702.447675	0.336279
702.648629	0.336198
702.849564	0.336292
703.050481	0.336517
703.251380	0.336243
703.452260	0.336476
703.653122	0.336587
703.853966	0.336807
704.054792	0.336818
704.255600	0.336534
704.456389	0.336418
704.657160	0.336392
704.857913	0.336288
705.058648	0.336356
705.259365	0.336445
705.460063	0.336189
705.660743	0.336204
705.861405	0.335853
706.062048	0.336254
706.262674	0.336298
706.463281	0.336360
706.663870	0.336205
706.864441	0.336347
707.064993	0.336430
707.265527	0.336791
707.466043	0.337045
707.666541	0.337254
707.867021	0.337569
708.067482	0.337859
708.267925	0.338174
708.468350	0.338689
708.668757	0.338828
708.869145	0.338877
709.069516	0.339078
709.269868	0.339174
709.470201	0.339098
709.670517	0.338987
709.870814	0.339104
710.071093	0.339221
710.271354	0.338957
710.471597	0.338734
710.671821	0.338759
710.872028	0.338479
711.072216	0.338417
711.272385	0.338564
711.472537	0.338245
711.672670	0.338287
711.872785	0.337814
712.072882	0.337994
712.272961	0.337985
712.473021	0.337901
712.673063	0.338154
712.873087	0.338043
713.073093	0.338151
713.273081	0.338382
713.473050	0.338362
713.673001	0.338840
713.872934	0.338711
714.072849	0.338897
714.272745	0.338812
714.472623	0.338687
714.672483	0.338902
714.872325	0.338921
715.072148	0.338992
715.271954	0.338841
715.471741	0.338903
715.671509	0.338892
715.871260	0.338767
716.070992	0.338693
716.270707	0.338722
716.470403	0.338765
716.670080	0.338784
716.869740	0.338461
717.069381	0.338640
717.269004	0.338364
717.468609	0.338274
717.668195	0.338205
717.867764	0.338427
718.067314	0.338198
718.266846	0.337856
718.466360	0.337480
718.665855	0.337762
718.865332	0.337558
719.064791	0.337308
719.264232	0.337155
719.463655	0.337149
719.663059	0.336772
719.862445	0.336667
720.061813	0.336777
720.261163	0.336644
720.460494	0.336244
720.659807	0.336131
720.859102	0.336049
721.058379	0.336084
721.257638	0.335871
721.456878	0.335764
721.656100	0.335657
721.855304	0.335312
722.054490	0.335422
722.253657	0.335377
722.452806	0.335036
722.651937	0.335147
722.851050	0.335084
723.050145	0.335190
723.249221	0.335547
723.448279	0.335311
723.647319	0.335316
723.846340	0.335443
724.045344	0.335421
724.244329	0.335461
724.443296	0.335499
724.642245	0.335208
724.841175	0.335136
725.040088	0.334905
725.238982	0.335144
725.437857	0.335201
725.636715	0.334921
725.835554	0.334966
726.034376	0.335165
726.233179	0.335032
726.431963	0.335066
726.630730	0.334917
726.829478	0.334669
727.028208	0.334477
727.226920	0.334331
727.425614	0.334486
727.624289	0.334333
727.822946	0.333843
728.021585	0.333662
728.220206	0.333509
728.418808	0.333334
728.617392	0.333214
728.815958	0.333220
729.014506	0.333209
729.213036	0.332963
729.411547	0.332919
729.610040	0.333335
729.808515	0.333529
730.006972	0.333533
730.205410	0.333699
730.403831	0.333629
730.602233	0.333502
730.800616	0.333288
730.998982	0.333282
731.197329	0.333010
731.395658	0.332550
731.593969	0.332080
731.792262	0.331827
731.990536	0.331212
732.188793	0.330899
732.387031	0.330767
732.585250	0.330527
732.783452	0.330085
732.981635	0.330130
733.179800	0.329676
733.377947	0.329445
733.576076	0.329028
733.774186	0.329036
733.972278	0.328945
734.170352	0.328697
734.368408	0.328690
734.566446	0.328543
734.764465	0.327939
734.962466	0.328245
735.160449	0.328222
735.358413	0.328185
735.556360	0.327970
735.754288	0.327851
735.952198	0.327617
736.150090	0.327402
736.347963	0.327386
736.545818	0.327505
736.743655	0.327098
736.941474	0.326913
737.139275	0.326882
737.337057	0.326676
737.534821	0.326617
737.732567	0.326390
737.930295	0.326229
738.128005	0.326016
738.325696	0.325743
738.523369	0.325409
738.721024	0.324995
738.918660	0.324962
739.116279	0.324926
739.313879	0.324734
739.511461	0.324746
739.709024	0.324393
739.906570	0.324021
740.104097	0.323826
740.301606	0.323927
740.499097	0.323817
740.696569	0.323399
740.894024	0.323459
741.091460	0.323398
741.288878	0.323100
741.486277	0.322865
741.683659	0.322967
741.881022	0.323028
742.078367	0.322830
742.275694	0.323032
742.473002	0.322822
742.670293	0.322352
742.867565	0.321969
743.064819	0.321910
743.262054	0.321880
743.459272	0.321606
743.656471	0.321390
743.853652	0.321168
744.050815	0.320469
744.247959	0.320363
744.445085	0.320149
744.642194	0.320238
744.839283	0.319972
745.036355	0.319635
745.233408	0.319209
745.430444	0.318749
745.627461	0.318618
745.824459	0.318762
746.021440	0.318626
746.218402	0.318661
746.415346	0.318263
746.612272	0.318156
746.809180	0.318142
747.006069	0.318098
747.202940	0.318027
747.399793	0.317628
747.596628	0.317354
747.793444	0.317145
747.990243	0.316922
748.187023	0.316703
748.383784	0.316341
748.580528	0.315993
748.777253	0.315793
748.973960	0.315664
749.170649	0.315665
749.367320	0.315401
749.563973	0.315136
749.760607	0.314771
749.957223	0.314406
750.153821	0.314458
750.350400	0.314530
750.546962	0.314425
750.743505	0.314329
750.940030	0.313992
751.136536	0.313897
751.333025	0.313840
751.529495	0.313873
751.725947	0.314083
751.922381	0.313744
752.118796	0.313360
752.315194	0.313163
752.511573	0.312802
752.707934	0.312728
752.904276	0.312294
753.100601	0.312243
753.296907	0.311740
753.493195	0.311221
753.689465	0.311014
753.885716	0.310662
754.081949	0.310325
754.278164	0.310061
754.474361	0.309589
754.670540	0.309555
754.866700	0.309280
755.062843	0.309208
755.258967	0.309184
755.455072	0.308976
755.651160	0.309207
755.847229	0.309040
756.043280	0.308954
756.239313	0.308990
756.435328	0.308707
756.631324	0.308424
756.827302	0.308420
757.023262	0.308248
757.219204	0.308484
757.415127	0.308228
757.611033	0.308079
757.806920	0.307982
758.002788	0.307847
758.198639	0.307932
758.394471	0.307904
758.590286	0.307677
758.786081	0.307536
758.981859	0.306748
759.177619	0.306516
759.373360	0.306475
759.569083	0.306371
759.764788	0.306186
759.960474	0.305998
760.156143	0.305557
760.351793	0.305204
760.547425	0.304763
760.743038	0.304617
760.938634	0.304566
761.134211	0.304525
761.329770	0.304418
761.525311	0.304253
761.720833	0.304072
761.916338	0.304177
762.111824	0.304191
762.307292	0.304341
762.502741	0.304479
762.698173	0.303799
762.893586	0.303586
763.088981	0.303329
763.284358	0.303109
763.479716	0.302946
763.675057	0.302801
763.870379	0.302258
764.065683	0.302101
764.260968	0.301843
764.456236	0.302271
764.651485	0.302068
764.846716	0.301804
765.041929	0.301737
765.237123	0.301369
765.432299	0.301382
765.627457	0.301315
765.822597	0.301217
766.017719	0.301060
766.212822	0.300835
766.407907	0.300518
766.602974	0.300471
766.798023	0.300565
766.993054	0.300769
767.188066	0.300481
767.383060	0.300752
767.578036	0.300466
767.772993	0.300450
767.967933	0.300234
768.162854	0.300300
768.357757	0.300109
768.552642	0.299807
768.747508	0.299425
768.942356	0.299189
769.137186	0.298948
769.331998	0.298604
769.526792	0.298723
769.721567	0.298543
769.916324	0.298557
770.111063	0.298643
770.305784	0.298719
770.500486	0.298886
770.695171	0.298951
770.889837	0.298961
771.084484	0.299401
771.279114	0.299112
771.473725	0.299008
771.668318	0.298459
771.862893	0.298429
772.057450	0.298011
772.251988	0.297863
772.446509	0.297658
772.641011	0.297450
772.835494	0.297216
773.029960	0.297195
773.224407	0.297214
773.418836	0.297233
773.613247	0.296918
773.807640	0.296996
774.002014	0.296828
774.196370	0.296687
774.390708	0.296665
774.585028	0.296604
774.779330	0.296333
774.973613	0.296604
775.167878	0.296802
775.362125	0.296859
775.556354	0.296899
775.750564	0.296920
775.944756	0.296969
776.138930	0.296838
776.333086	0.296820
776.527223	0.296910
776.721343	0.296465
776.915444	0.296543
777.109526	0.296797
777.303591	0.296858
777.497637	0.296624
777.691666	0.296571
777.885676	0.296693
778.079667	0.296591
778.273641	0.296349
778.467596	0.296481
778.661533	0.296296
778.855452	0.295990
779.049352	0.295798
779.243235	0.296024
779.437099	0.296172
779.630945	0.296255
779.824773	0.296141
780.018582	0.296434
780.212373	0.296236
780.406146	0.296216
780.599901	0.296273
780.793638	0.296086
780.987356	0.296057
781.181056	0.295878
781.374738	0.295877
781.568402	0.295864
781.762047	0.295653
781.955674	0.295895
782.149283	0.296261
782.342874	0.296113
782.536447	0.296552
782.730001	0.296471
782.923537	0.296554
783.117055	0.296548
783.310555	0.296805
783.504036	0.297051
783.697499	0.297058
783.890944	0.296739
784.084371	0.296970
784.277780	0.296869
784.471170	0.297030
784.664542	0.297005
784.857896	0.297009
785.051231	0.297006
785.244549	0.296932
785.437848	0.296971
785.631129	0.296988
785.824392	0.297051
786.017636	0.296874
786.210863	0.297238
786.404071	0.297378
786.597260	0.297433
786.790432	0.297478
786.983585	0.297677
787.176721	0.297750
787.369838	0.297941
787.562936	0.297831
787.756017	0.297732
787.949079	0.297495
788.142123	0.297302
788.335149	0.297268
788.528156	0.297005
788.721146	0.296970
788.914117	0.296760
789.107070	0.296880
789.300005	0.296806
789.492921	0.297251
789.685819	0.297335
789.878699	0.297597
790.071561	0.297514
790.264405	0.297886
790.457230	0.297773
790.650037	0.297943
790.842826	0.297800
791.035597	0.297898
791.228349	0.297940
791.421084	0.298056
791.613800	0.298217
791.806497	0.298309
791.999177	0.298204
792.191838	0.298499
792.384481	0.298496
792.577106	0.298532
792.769713	0.298819
792.962301	0.298619
793.154871	0.298747
793.347423	0.298950
793.539957	0.299416
793.732473	0.299671
793.924970	0.299851
794.117449	0.300091
794.309910	0.300391
794.502353	0.300860
794.694777	0.301289
794.887183	0.301349
795.079571	0.301694
795.271941	0.301786
795.464293	0.302005
795.656626	0.302065
795.848941	0.302099
796.041238	0.302047
796.233516	0.301780
796.425777	0.301950
796.618019	0.302171
796.810243	0.302064
797.002449	0.302093
797.194636	0.302113
797.386805	0.302120
797.578956	0.302526
797.771089	0.302927
797.963204	0.303092
798.155300	0.303090
798.347378	0.302919
798.539438	0.303316
798.731480	0.303392
798.923503	0.303756
799.115509	0.303988
799.307496	0.303948
799.499465	0.304140
799.691415	0.304700
799.883348	0.305034
800.075262	0.305391
800.267158	0.305163
800.459035	0.305295
800.650895	0.305334
800.842736	0.305356
801.034559	0.305671
801.226364	0.305794
801.418150	0.305529
801.609919	0.305662
801.801669	0.305905
801.993401	0.306100
802.185114	0.306271
802.376810	0.306516
802.568487	0.306620
802.760146	0.306719
802.951787	0.306506
803.143409	0.306695
803.335014	0.306667
803.526600	0.306845
803.718168	0.307064
803.909717	0.307285
804.101249	0.307464
804.292762	0.307955
804.484257	0.308396
804.675734	0.309019
804.867192	0.309360
805.058632	0.309452
805.250054	0.309616
805.441458	0.310095
805.632844	0.310438
805.824211	0.310714
806.015561	0.311131
806.206891	0.310992
806.398204	0.311346
806.589499	0.311506
806.780775	0.311860
806.972033	0.312198
807.163273	0.312111
807.354495	0.312322
807.545698	0.312542
807.736883	0.312876
807.928050	0.313346
808.119199	0.313524
808.310329	0.313894
808.501441	0.314408
808.692535	0.314870
808.883611	0.315505
809.074669	0.315837
809.265708	0.315916
809.456729	0.316002
809.647732	0.316137
809.838717	0.316416
810.029683	0.316643
810.220632	0.317014
810.411562	0.317134
810.602474	0.317299
810.793367	0.317623
810.984242	0.318216
811.175100	0.318743
811.365938	0.319193
811.556759	0.319678
811.747562	0.320343
811.938346	0.320684
812.129112	0.321065
812.319860	0.321260
812.510589	0.321493
812.701300	0.321569
812.891994	0.321619
813.082668	0.322103
813.273325	0.322236
813.463964	0.322177
813.654584	0.322476
813.845186	0.322604
814.035769	0.323012
814.226335	0.323440
814.416882	0.323733
814.607411	0.324102
814.797922	0.324369
814.988415	0.324573
815.178889	0.325062
815.369345	0.325333
815.559783	0.325527
815.750203	0.325649
815.940605	0.325921
816.130988	0.326380
816.321353	0.326566
816.511700	0.326936
816.702028	0.327682
816.892339	0.327819
817.082631	0.328188
817.272905	0.328858
817.463161	0.329496
817.653398	0.329766
817.843617	0.330252
818.033819	0.330560
818.224001	0.331076
818.414166	0.331085
818.604312	0.331419
818.794440	0.331921
818.984550	0.332117
819.174642	0.332483
819.364716	0.332791
819.554771	0.332895
819.744808	0.333357
819.934827	0.333378
820.124827	0.333787
820.314810	0.334090
820.504774	0.334115
820.694720	0.334574
820.884647	0.334914
821.074557	0.335032
821.264448	0.335605
821.454321	0.336161
821.644176	0.336327
821.834012	0.336467
822.023831	0.336891
822.213631	0.337365
822.403413	0.337151
822.593176	0.337392
822.782922	0.338163
822.972649	0.338297
823.162358	0.338256
823.352049	0.338749
823.541721	0.339537
823.731376	0.339925
823.921012	0.340314
824.110629	0.341215
824.300229	0.341216
824.489811	0.341558
824.679374	0.341836
824.868919	0.342554
825.058445	0.343007
825.247954	0.342947
825.437444	0.343174
825.626916	0.343217
825.816370	0.343356
826.005806	0.343892
826.195223	0.344365
826.384622	0.345127
826.574003	0.345288
826.763366	0.345932
826.952711	0.346638
827.142037	0.347474
827.331345	0.348161
827.520635	0.348757
827.709906	0.349349
827.899160	0.349749
828.088395	0.350053
828.277612	0.350525
828.466810	0.350804
828.655991	0.351443
828.845153	0.351784
829.034297	0.352270
829.223423	0.352486
829.412531	0.352618
829.601620	0.353002
829.790691	0.353382
829.979744	0.353974
830.168779	0.354556
830.357795	0.354364
830.546793	0.354390
830.735773	0.354634
830.924735	0.355269
831.113679	0.355885
831.302604	0.356717
831.491511	0.356705
831.680400	0.356913
831.869271	0.357055
832.058123	0.357772
832.246957	0.358080
832.435773	0.358542
832.624571	0.359106
832.813351	0.359550
833.002112	0.359605
833.190855	0.360204
833.379580	0.360795
833.568287	0.361176
833.756975	0.361084
833.945645	0.361985
834.134297	0.362376
834.322931	0.362577
834.511547	0.362950
834.700144	0.363315
834.888723	0.364137
835.077284	0.364551
835.265826	0.364881
835.454351	0.366022
835.642857	0.366471
835.831345	0.366927
836.019815	0.367449
836.208266	0.368023
836.396699	0.368294
836.585114	0.368749
836.773511	0.369250
836.961890	0.369815
837.150250	0.369891
837.338592	0.369981
837.526916	0.370371
837.715222	0.370837
837.903510	0.371059
838.091779	0.371700
838.280030	0.371899
838.468263	0.372087
838.656477	0.372444
838.844674	0.372955
839.032852	0.373657
839.221012	0.374373
839.409153	0.374756
839.597277	0.375324
839.785382	0.375824
839.973469	0.376517
840.161538	0.377251
840.349589	0.377940
840.537621	0.378338
840.725635	0.378593
840.913631	0.379155
841.101609	0.379611
841.289568	0.380567
841.477509	0.380821
841.665432	0.381285
841.853337	0.381739
842.041224	0.382019
842.229092	0.382456
842.416942	0.383288
842.604774	0.383523
842.792588	0.384164
842.980383	0.384345
843.168160	0.385118
843.355919	0.385340
843.543660	0.385529
843.731382	0.386157
843.919087	0.386806
844.106773	0.387254
844.294441	0.387692
844.482090	0.387963
844.669722	0.388166
844.857335	0.388276
845.044930	0.388920
845.232507	0.389599
845.420065	0.389776
845.607605	0.390407
845.795127	0.390674
845.982631	0.391366
846.170117	0.391967
846.357584	0.392212
846.545033	0.392570
846.732464	0.392956
846.919877	0.393381
847.107272	0.394342
847.294648	0.394740
847.482006	0.395525
847.669346	0.395771
847.856667	0.396084
848.043971	0.396532
848.231256	0.397643
848.418523	0.398279
848.605771	0.398810
848.793002	0.398742
848.980214	0.398998
849.167408	0.399009
849.354584	0.399448
849.541742	0.400345
849.728881	0.401267
849.916002	0.401480
850.103105	0.402055
850.290190	0.402671
850.477256	0.403529
850.664304	0.403898
850.851334	0.404717
851.038346	0.405357
851.225340	0.405632
851.412315	0.406532
851.599272	0.406874
851.786211	0.407026
851.973132	0.407248
852.160034	0.407555
852.346918	0.408068
852.533784	0.408793
852.720632	0.408859
852.907462	0.409257
853.094273	0.409288
853.281066	0.409874
853.467841	0.410330
853.654598	0.410686
853.841336	0.411562
854.028056	0.412070
854.214758	0.412220
854.401442	0.412936
854.588107	0.413622
854.774755	0.414149
854.961384	0.414299
855.147995	0.414776
855.334587	0.415501
855.521162	0.415532
855.707718	0.416140
855.894256	0.416257
856.080775	0.416847
856.267277	0.417058
856.453760	0.417401
856.640225	0.417573
856.826672	0.418042
857.013101	0.418591
857.199511	0.418927
857.385903	0.419656
857.572277	0.420282
857.758633	0.420967
857.944970	0.421392
858.131290	0.422305
858.317591	0.423103
858.503873	0.423517
858.690138	0.423566
858.876384	0.424410
859.062612	0.424394
859.248822	0.424458
859.435014	0.424482
859.621188	0.424776
859.807343	0.424435
859.993480	0.424580
860.179599	0.425051
860.365699	0.425270
860.551781	0.425118
860.737846	0.425558
860.923891	0.426280
861.109919	0.426872
861.295929	0.427037
861.481920	0.427781
861.667893	0.428283
861.853848	0.428702
862.039784	0.429415
862.225702	0.430007
862.411603	0.430114
862.597484	0.430418
862.783348	0.430457
862.969193	0.431016
863.155021	0.431422
863.340830	0.432338
863.526620	0.432637
863.712393	0.433199
863.898147	0.433582
864.083883	0.434291
864.269601	0.434691
864.455301	0.435318
864.640982	0.435881
864.826645	0.436115
865.012290	0.436177
865.197917	0.436955
865.383526	0.437455
865.569116	0.437512
865.754688	0.438194
865.940242	0.438580
866.125777	0.439066
866.311295	0.439444
866.496794	0.440062
866.682275	0.440781
866.867737	0.440868
867.053182	0.440749
867.238608	0.441253
867.424016	0.441191
867.609406	0.441434
867.794778	0.441250
867.980131	0.441426
868.165466	0.441377
868.350783	0.441478
868.536082	0.441383
868.721362	0.441937
868.906625	0.442524
869.091869	0.443020
869.277094	0.443514
869.462302	0.444087
869.647491	0.444388
869.832662	0.444693
870.017815	0.444892
870.202950	0.445689
870.388066	0.446216
870.573165	0.446409
870.758245	0.446466
870.943306	0.446991
871.128350	0.447445
871.313375	0.448264
871.498382	0.448745
871.683371	0.449181
871.868342	0.449288
872.053294	0.449547
872.238229	0.450101
872.423144	0.450961
872.608042	0.450535
872.792922	0.450783
872.977783	0.450990
873.162626	0.451663
873.347451	0.451183
873.532258	0.451226
873.717046	0.451205
873.901816	0.451546
874.086568	0.451679
874.271302	0.452194
874.456017	0.452856
874.640715	0.453017
874.825394	0.453241
875.010055	0.454031
875.194697	0.454757
875.379322	0.454837
875.563928	0.454521
875.748516	0.454408
875.933085	0.454966
876.117637	0.455487
876.302170	0.455320
876.486685	0.455442
876.671182	0.455588
876.855661	0.455479
877.040121	0.455758
877.224563	0.456500
877.408987	0.457209
877.593393	0.457193
877.777780	0.456749
877.962150	0.457123
878.146501	0.456579
878.330833	0.456864
878.515148	0.457665
878.699444	0.458016
878.883722	0.458225
879.067982	0.458140
879.252224	0.458582
879.436447	0.458914
879.620653	0.459285
879.804840	0.460097
879.989008	0.460545
880.173159	0.460124
880.357291	0.460562
880.541405	0.460492
880.725501	0.460340
880.909579	0.460335
881.093638	0.460622
881.277680	0.460637
881.461703	0.460423
881.645707	0.459845
881.829694	0.459820
882.013662	0.459924
882.197612	0.459932
882.381544	0.460327
882.565458	0.460760
882.749353	0.460344
882.933230	0.459845
883.117089	0.460170
883.300930	0.460962
883.484753	0.461346
883.668557	0.461025
883.852343	0.461618
884.036111	0.461430
884.219861	0.461638
884.403592	0.461750
884.587305	0.462700
884.771000	0.463037
884.954677	0.463441
885.138335	0.463520
885.321976	0.463546
885.505598	0.463567
885.689201	0.464188
885.872787	0.463928
886.056354	0.464619
886.239904	0.464061
886.423434	0.463794
886.606947	0.463483
886.790442	0.463291
886.973918	0.464093
887.157376	0.463670
887.340816	0.463548
887.524237	0.463597
887.707641	0.463261
887.891026	0.463537
888.074393	0.464184
888.257741	0.463948
888.441072	0.463697
888.624384	0.463234
888.807678	0.463935
888.990954	0.463858
889.174211	0.463678
889.357451	0.463641
889.540672	0.463660
889.723875	0.463112
889.907059	0.462898
890.090226	0.463193
890.273374	0.463222
890.456504	0.462755
890.639616	0.463081
890.822709	0.463246
891.005785	0.463341
891.188842	0.463490
891.371881	0.462786
891.554901	0.463137
891.737904	0.462915
891.920888	0.462822
892.103854	0.462333
892.286802	0.462083
892.469731	0.461928
892.652643	0.461407
892.835536	0.461069
893.018410	0.461708
893.201267	0.461763
893.384106	0.461607
893.566926	0.461130
893.749728	0.461251
893.932511	0.460839
894.115277	0.460709
894.298024	0.460517
894.480753	0.460369
894.663464	0.460356
894.846157	0.460107
895.028831	0.460190
895.211487	0.460157
895.394125	0.460194
895.576745	0.460024
895.759346	0.460309
895.941930	0.460475
896.124495	0.459969
896.307041	0.459243
896.489570	0.459115
896.672080	0.458974
896.854573	0.459267
897.037046	0.459199
897.219502	0.458852
897.401940	0.457926
897.584359	0.457527
897.766760	0.457657
897.949143	0.457430
898.131507	0.456765
898.313854	0.456899
898.496182	0.456737
898.678492	0.456233
898.860783	0.456227
899.043057	0.456440
899.225312	0.455749
899.407549	0.455702
899.589768	0.455971
899.771968	0.455571
899.954151	0.455171
900.136315	0.454591
900.318461	0.454335
900.500588	0.453869
900.682698	0.453243
900.864789	0.453386
901.046862	0.452657
901.228917	0.451577
901.410953	0.451949
901.592971	0.451764
901.774972	0.450803
901.956953	0.450198
902.138917	0.449909
902.320862	0.450035
902.502790	0.449890
902.684699	0.449147
902.866589	0.449126
903.048462	0.448719
903.230316	0.447558
903.412152	0.447225
903.593970	0.447801
903.775770	0.447299
903.957551	0.446244
904.139314	0.445731
904.321059	0.445791
904.502786	0.445381
904.684494	0.444731
904.866185	0.444049
905.047857	0.444314
905.229510	0.442759
905.411146	0.442265
905.592763	0.442219
905.774363	0.441816
905.955943	0.441254
906.137506	0.441399
906.319051	0.441024
906.500577	0.441543
906.682085	0.441309
906.863575	0.441652
907.045046	0.442095
907.226500	0.441489
907.407935	0.440841
907.589352	0.440708
907.770750	0.439981
907.952131	0.439494
908.133493	0.439156
908.314837	0.438061
908.496163	0.437355
908.677470	0.436525
908.858760	0.436444
909.040031	0.437006
909.221284	0.437201
909.402518	0.436325
909.583735	0.436377
909.764933	0.435835
909.946113	0.435179
910.127275	0.434803
910.308418	0.433199
910.489544	0.431813
910.670651	0.429971
910.851740	0.428653
911.032810	0.428829
911.213863	0.428072
911.394897	0.427366
911.575913	0.427257
911.756911	0.426324
911.937890	0.426465
912.118851	0.426194
912.299794	0.426378
912.480719	0.426157
912.661626	0.424717
912.842514	0.424242
913.023384	0.423418
913.204236	0.423061
913.385070	0.422798
913.565886	0.422317
913.746683	0.421513
913.927462	0.420576
914.108223	0.419270
914.288965	0.419344
914.469690	0.418227
914.650396	0.417857
914.831084	0.416932
915.011754	0.416327
915.192405	0.415786
915.373038	0.415889
915.553653	0.415371
915.734250	0.415122
915.914829	0.414115
916.095389	0.413530
916.275931	0.412684
916.456455	0.411814
916.636961	0.411158
916.817448	0.410260
916.997917	0.409186
917.178368	0.408977
917.358801	0.408425
917.539216	0.407886
917.719612	0.406951
917.899990	0.405882
918.080350	0.405905
918.260692	0.404888
918.441015	0.404352
918.621320	0.403667
918.801607	0.402157
918.981876	0.401378
919.162127	0.400758
919.342359	0.400536
919.522573	0.400007
919.702769	0.398969
919.882947	0.397922
920.063106	0.397034
920.243247	0.396456
920.423370	0.396287
920.603475	0.395096
920.783562	0.394376
920.963630	0.393144
921.143680	0.392408
921.323712	0.391612
921.503725	0.390718
921.683721	0.390070
921.863698	0.389718
922.043657	0.389021
922.223598	0.388656
922.403520	0.388105
922.583424	0.388007
922.763311	0.387495
922.943178	0.386800
923.123028	0.386121
923.302859	0.385044
923.482673	0.383200
923.662467	0.382176
923.842244	0.380901
924.022003	0.379299
924.201743	0.377656
924.381465	0.376700
924.561169	0.375700
924.740854	0.375893
924.920522	0.375097
925.100171	0.373744
925.279802	0.372153
925.459414	0.371866
925.639009	0.371492
925.818585	0.370425
925.998143	0.369504
926.177683	0.368827
926.357205	0.367029
926.536708	0.366471
926.716193	0.367125
926.895660	0.366748
927.075109	0.365568
927.254539	0.364152
927.433951	0.363988
927.613345	0.363062
927.792721	0.362017
927.972079	0.361001
928.151418	0.359373
928.330739	0.357474
928.510042	0.356695
928.689327	0.355626
928.868593	0.355196
929.047841	0.353781
929.227071	0.352753
929.406283	0.352017
929.585476	0.352079
929.764652	0.351474
929.943809	0.350515
930.122948	0.349527
930.302068	0.348517
930.481171	0.347053
930.660255	0.346328
930.839321	0.344560
931.018369	0.342725
931.197398	0.340784
931.376409	0.340260
931.555402	0.340845
931.734377	0.339636
931.913334	0.339421
932.092272	0.338391
932.271192	0.336327
932.450094	0.335802
932.628978	0.335325
932.807844	0.334438
932.986691	0.333785
933.165520	0.330943
933.344331	0.330116
933.523123	0.328816
933.701898	0.328027
933.880654	0.328497
934.059392	0.328161
934.238111	0.326692
934.416813	0.326027
934.595496	0.323915
934.774161	0.322874
934.952808	0.321720
935.131437	0.319412
935.310047	0.318157
935.488639	0.316601
935.667213	0.316360
935.845769	0.315171
936.024306	0.314052
936.202825	0.313319
936.381326	0.313030
936.559809	0.311953
936.738274	0.312926
936.916720	0.312206
937.095148	0.311036
937.273558	0.308997
937.451950	0.308794
937.630323	0.306905
937.808678	0.306169
937.987015	0.305455
938.165334	0.304431
938.343635	0.302333
938.521917	0.301406
938.700181	0.300625
938.878427	0.299513
939.056655	0.297953
939.234864	0.298054
939.413055	0.296921
939.591228	0.294527
939.769383	0.293110
939.947519	0.291880
940.125638	0.289785
940.303738	0.287864
940.481820	0.287207
940.659883	0.285682
940.837929	0.284106
941.015956	0.282328
941.193965	0.282386
941.371955	0.281713
941.549928	0.280390
941.727882	0.281088
941.905818	0.280755
942.083736	0.278781
942.261636	0.277182
942.439517	0.274978
942.617380	0.274372
942.795225	0.272909
942.973052	0.271293
943.150860	0.271302
943.328651	0.268674
943.506423	0.266848
943.684176	0.266672
943.861912	0.266246
944.039629	0.266347
944.217328	0.264880
944.395009	0.264463
944.572672	0.263450
944.750317	0.260295
944.927943	0.260160
945.105551	0.260704
945.283141	0.257911
945.460712	0.256754
945.638265	0.255400
945.815801	0.255019
945.993317	0.253568
946.170816	0.251346
946.348297	0.250383
946.525759	0.247719
946.703203	0.243815
946.880629	0.242332
947.058036	0.240838
947.235425	0.238714
947.412797	0.236295
947.590149	0.234752
947.767484	0.234314
947.944800	0.233908
948.122099	0.233725
948.299379	0.234404
948.476640	0.235763
948.653884	0.233299
948.831109	0.233557
949.008316	0.232487
949.185505	0.230995
949.362676	0.230693
949.539828	0.229263
949.716962	0.229280
949.894078	0.227844
950.071176	0.224515
950.248256	0.224645
950.425317	0.222106
950.602360	0.221454
950.779385	0.221161
950.956391	0.219061
951.133380	0.218439
951.310350	0.215053
951.487302	0.213350
951.664235	0.214027
951.841151	0.213863
952.018048	0.213676
952.194927	0.212029
952.371788	0.210572
952.548631	0.210930
952.725455	0.210003
952.902261	0.208721
953.079049	0.209026
953.255819	0.206203
953.432570	0.204941
953.609303	0.202871
953.786018	0.201886
953.962715	0.199510
954.139394	0.198093
954.316054	0.197112
954.492696	0.198567
954.669320	0.196226
954.845926	0.196427
955.022513	0.196025
955.199083	0.196490
955.375634	0.196875
955.552166	0.198725
955.728681	0.197056
955.905177	0.194404
956.081655	0.190610
956.258115	0.191997
956.434557	0.190242
956.610980	0.187358
956.787385	0.185172
956.963772	0.182582
957.140141	0.179005
957.316492	0.178979
957.492824	0.180372
957.669138	0.182261
957.845434	0.180119
958.021712	0.179390
958.197971	0.179487
958.374212	0.178495
958.550435	0.177645
958.726640	0.177441
958.902826	0.174588
959.078995	0.172704
959.255145	0.170060
959.431277	0.167719
959.607390	0.167898
959.783486	0.168410
959.959563	0.168546
960.135622	0.167460
960.311662	0.168084
960.487685	0.167668
960.663689	0.165965
960.839675	0.165613
961.015643	0.164969
961.191593	0.163522
961.367524	0.161857
961.543437	0.160971
961.719332	0.163022
961.895209	0.162140
962.071067	0.163284
962.246907	0.162888
962.422730	0.163576
962.598533	0.164302
962.774319	0.163107
962.950086	0.162640
963.125835	0.164330
963.301566	0.163724
963.477279	0.162680
963.652973	0.163754
963.828650	0.165353
964.004308	0.163876
964.179947	0.163606
964.355569	0.165439
964.531172	0.165514
964.706757	0.164887
964.882324	0.162641
965.057873	0.162047
965.233403	0.159139
965.408916	0.158092
965.584410	0.156801
965.759885	0.156608
965.935343	0.154869
966.110782	0.154741
966.286203	0.153075
966.461606	0.154465
966.636991	0.152079
966.812357	0.151986
966.987705	0.151163
967.163035	0.154904
967.338347	0.154453
967.513641	0.152508
967.688916	0.152666
967.864173	0.151345
968.039412	0.153369
968.214632	0.154856
968.389835	0.156310
968.565019	0.157680
968.740185	0.154583
968.915333	0.154053
969.090462	0.155247
969.265573	0.154470
969.440667	0.153688
969.615741	0.150140
969.790798	0.150492
969.965836	0.150145
970.140856	0.147752
970.315858	0.148094
970.490842	0.148724
970.665808	0.148324
970.840755	0.147176
971.015684	0.149838
971.190595	0.148705
971.365487	0.148554
971.540362	0.147306
971.715218	0.148181
971.890056	0.147629
972.064875	0.147272
972.239677	0.146293
972.414460	0.148494
972.589225	0.148615
972.763972	0.148946
972.938700	0.146446
973.113411	0.148962
973.288103	0.148599
973.462777	0.147714
973.637432	0.147974
973.812070	0.148425
973.986689	0.145890
974.161290	0.145939
974.335873	0.145839
974.510437	0.149180
974.684984	0.148582
974.859512	0.148508
975.034022	0.148518
975.208513	0.147038
975.382987	0.148473
975.557442	0.148700
975.731879	0.147809
975.906298	0.149914
976.080698	0.149892
976.255080	0.147708
976.429445	0.150333
976.603790	0.150862
976.778118	0.150660
976.952427	0.150179
977.126719	0.152930
977.300992	0.152458
977.475246	0.149774
977.649483	0.149562
977.823701	0.149231
977.997901	0.144745
978.172083	0.148156
978.346247	0.147338
978.520392	0.147370
978.694519	0.147877
978.868628	0.147386
979.042719	0.148259
979.216791	0.148127
979.390845	0.147077
979.564882	0.150255
979.738899	0.147556
979.912899	0.148389
980.086880	0.147283
980.260843	0.143949
980.434788	0.145117
980.608715	0.143795
980.782623	0.143523
980.956514	0.144678
981.130386	0.143553
981.304240	0.144806
981.478075	0.146239
981.651892	0.148401
981.825692	0.150394
981.999472	0.150490
982.173235	0.149686
982.346980	0.149147
982.520706	0.148537
982.694414	0.148001
982.868104	0.146161
983.041775	0.145339
983.215428	0.145695
983.389064	0.144762
983.562680	0.144464
983.736279	0.148089
983.909860	0.148855
984.083422	0.151236
984.256966	0.151955
984.430491	0.151735
984.603999	0.149711
984.777488	0.146977
984.950959	0.145541
985.124412	0.144788
985.297847	0.143272
985.471263	0.142472
985.644661	0.141432
985.818041	0.142542
985.991403	0.143787
986.164747	0.146339
986.338072	0.146792
986.511379	0.146378
986.684668	0.148385
986.857938	0.148972
987.031191	0.149728
987.204425	0.150806
987.377641	0.151782
987.550839	0.149610
987.724018	0.149020
987.897179	0.150250
988.070322	0.151839
988.243447	0.148318
988.416554	0.148361
988.589642	0.148233
988.762712	0.147804
988.935764	0.147008
989.108798	0.148814
989.281813	0.147846
989.454811	0.146494
989.627790	0.147742
989.800751	0.151585
989.973693	0.149958
990.146617	0.148877
990.319524	0.146578
990.492412	0.144776
990.665281	0.143395
990.838133	0.143208
991.010966	0.142990
991.183781	0.142139
991.356578	0.140733
991.529356	0.143534
991.702117	0.143930
991.874859	0.145643
992.047583	0.145866
992.220288	0.147382
992.392976	0.150341
992.565645	0.150797
992.738296	0.148661
992.910929	0.149936
993.083543	0.148823
993.256139	0.151076
993.428718	0.151136
993.601277	0.151565
993.773819	0.151519
993.946342	0.149156
994.118848	0.149494
994.291335	0.150090
994.463803	0.148984
994.636254	0.146396
994.808686	0.143462
994.981100	0.143797
995.153496	0.144597
995.325874	0.145743
995.498233	0.147119
995.670574	0.147195
995.842897	0.147935
996.015202	0.146872
996.187488	0.147829
996.359757	0.148340
996.532007	0.146700
996.704239	0.145905
996.876452	0.143801
997.048648	0.144197
997.220825	0.144189
997.392984	0.145017
997.565124	0.144291
997.737247	0.145268
997.909351	0.145883
998.081437	0.148971
998.253505	0.148801
998.425554	0.147690
998.597586	0.146293
998.769599	0.147353
998.941594	0.147110
999.113571	0.148233
999.285529	0.149933
999.457469	0.149295
999.629391	0.147497
999.801295	0.148044
999.973181	0.151070
1000.145048	0.149388
1000.316897	0.148257
1000.488728	0.149095
1000.660541	0.149944
1000.832335	0.147982
1001.004111	0.147815
1001.175869	0.147309
1001.347609	0.147339
1001.519331	0.146895
1001.691034	0.149672
1001.862719	0.150694
1002.034386	0.150691
1002.206035	0.149450
1002.377665	0.149947
1002.549277	0.150861
1002.720871	0.150358
1002.892447	0.150974
1003.064004	0.150853
1003.235544	0.150834
1003.407065	0.149866
1003.578568	0.150155
1003.750052	0.147763
1003.921519	0.149323
1004.092967	0.149951
1004.264397	0.148869
1004.435809	0.148060
1004.607202	0.146601
1004.778577	0.146916
1004.949934	0.149176
1005.121273	0.148323
1005.292594	0.151377
1005.463896	0.150909
1005.635180	0.150841
1005.806446	0.152843
1005.977694	0.153637
1006.148923	0.153732
1006.320135	0.153836
1006.491328	0.151298
1006.662503	0.150660
1006.833659	0.150344
1007.004798	0.149575
1007.175918	0.148443
1007.347020	0.148667
1007.518103	0.146265
1007.689169	0.148223
1007.860216	0.146357
1008.031245	0.148143
1008.202256	0.148416
1008.373248	0.149183
1008.544223	0.149516
1008.715179	0.148406
1008.886117	0.148106
1009.057036	0.149955
1009.227938	0.147248
1009.398821	0.149023
1009.569686	0.149719
1009.740533	0.149457
1009.911361	0.147711
1010.082172	0.147489
1010.252964	0.148633
1010.423738	0.146157
1010.594493	0.146240
1010.765231	0.145449
1010.935950	0.145687
1011.106651	0.143203
1011.277334	0.142220
1011.447998	0.142337
1011.618645	0.141271
1011.789273	0.143196
1011.959882	0.144591
1012.130474	0.144245
1012.301048	0.145189
1012.471603	0.143760
1012.642140	0.142062
1012.812658	0.143366
1012.983159	0.144431
1013.153641	0.144699
1013.324105	0.143620
1013.494551	0.143909
1013.664979	0.144153
1013.835388	0.147167
1014.005779	0.145996
1014.176152	0.148813
1014.346507	0.148719
1014.516843	0.148458
1014.687162	0.150791
1014.857462	0.149884
1015.027744	0.148621
1015.198007	0.146466
1015.368252	0.143461
1015.538480	0.145190
1015.708689	0.144660
1015.878879	0.144530
1016.049052	0.144209
1016.219206	0.142117
1016.389342	0.144368
1016.559460	0.145443
1016.729559	0.146136
1016.899641	0.145992
1017.069704	0.145425
1017.239749	0.145756
1017.409775	0.146103
1017.579784	0.147209
1017.749774	0.147232
1017.919746	0.145763
1018.089700	0.147647
1018.259635	0.146182
1018.429553	0.145876
1018.599452	0.144879
1018.769333	0.145495
1018.939195	0.145349
1019.109040	0.145659
1019.278866	0.146228
1019.448674	0.145388
1019.618464	0.144289
1019.788235	0.146425
1019.957989	0.145304
1020.127724	0.146013
1020.297441	0.143951
1020.467139	0.143410
1020.636820	0.142198
1020.806482	0.141271
1020.976126	0.141620
1021.145752	0.141335
1021.315359	0.139852
1021.484948	0.142280
1021.654519	0.141989
1021.824072	0.143912
1021.993607	0.143651
1022.163123	0.144657
1022.332621	0.143731
1022.502101	0.143854
1022.671563	0.143637
1022.841007	0.145194
1023.010432	0.145356
1023.179839	0.145653
1023.349228	0.143688
1023.518598	0.142352
1023.687951	0.140575
1023.857285	0.142202
1024.026601	0.141915
1024.195899	0.142965
1024.365178	0.141072
1024.534439	0.139215
1024.703682	0.139089
1024.872907	0.139264
1025.042114	0.140955
1025.211302	0.142895
1025.380472	0.141765
1025.549624	0.143409
1025.718758	0.142297
1025.887873	0.143628
1026.056970	0.145714
1026.226049	0.147309
1026.395110	0.146850
1026.564153	0.147557
1026.733177	0.147807
1026.902183	0.148326
1027.071171	0.145940
1027.240141	0.145650
1027.409092	0.145175
1027.578026	0.144792
1027.746940	0.143247
1027.915837	0.144619
1028.084716	0.142619
1028.253576	0.140525
1028.422418	0.140345
1028.591242	0.139508
1028.760048	0.138823
1028.928835	0.139963
1029.097604	0.138249
1029.266355	0.138264
1029.435088	0.138297
1029.603803	0.139997
1029.772499	0.139539
1029.941177	0.141251
1030.109837	0.144128
1030.278478	0.145648
1030.447102	0.143489
1030.615707	0.146440
1030.784294	0.145765
1030.952863	0.144412
1031.121413	0.143917
1031.289945	0.145846
1031.458460	0.143744
1031.626955	0.141891
1031.795433	0.142514
1031.963892	0.145910
1032.132334	0.145437
1032.300756	0.145591
1032.469161	0.145833
1032.637548	0.147188
1032.805916	0.146334
1032.974266	0.147339
1033.142598	0.148051
1033.310911	0.146559
1033.479207	0.144009
1033.647484	0.141825
1033.815743	0.142011
1033.983983	0.141968
1034.152206	0.140352
1034.320410	0.139867
1034.488596	0.139728
1034.656764	0.139867
1034.824914	0.139917
1034.993045	0.142049
1035.161158	0.141961
1035.329253	0.141875
1035.497330	0.143361
1035.665388	0.144418
1035.833428	0.144193
1036.001450	0.146009
1036.169454	0.146218
1036.337440	0.145772
1036.505407	0.143550
1036.673356	0.144164
1036.841287	0.143996
1037.009200	0.143638
1037.177094	0.143435
1037.344970	0.144571
1037.512828	0.142622
1037.680668	0.141792
1037.848489	0.140760
1038.016293	0.140871
1038.184078	0.141974
1038.351845	0.142122
1038.519593	0.140270
1038.687324	0.139704
1038.855036	0.136146
1039.022730	0.136490
1039.190406	0.136716
1039.358063	0.138568
1039.525702	0.138619
1039.693323	0.137363
1039.860926	0.138462
1040.028511	0.140874
1040.196077	0.140768
1040.363625	0.143193
1040.531155	0.141356
1040.698667	0.140897
1040.866161	0.140932
1041.033636	0.141505
1041.201093	0.142092
1041.368532	0.140390
1041.535952	0.138570
1041.703355	0.137322
1041.870739	0.136711
1042.038105	0.138037
1042.205452	0.138228
1042.372782	0.140388
1042.540093	0.140541
1042.707386	0.140372
1042.874661	0.141059
1043.041918	0.141933
1043.209156	0.144186
1043.376376	0.146388
1043.543578	0.145846
1043.710762	0.144861
1043.877927	0.142357
1044.045074	0.142945
1044.212203	0.142145
1044.379314	0.142185
1044.546407	0.142417
1044.713481	0.140259
1044.880537	0.138166
1045.047575	0.138105
1045.214595	0.139406
1045.381596	0.140130
1045.548579	0.138963
1045.715544	0.139167
1045.882491	0.140107
1046.049420	0.138811
1046.216330	0.139369
1046.383222	0.140978
1046.550096	0.142954
1046.716951	0.141316
1046.883789	0.142137
1047.050608	0.142062
1047.217409	0.141748
1047.384192	0.141306
1047.550956	0.142911
1047.717703	0.143211
1047.884431	0.142229
1048.051140	0.142035
1048.217832	0.142324
1048.384505	0.139712
1048.551161	0.140724
1048.717798	0.143088
1048.884416	0.142935
1049.051017	0.142592
1049.217599	0.140611
1049.384163	0.139304
1049.550709	0.137929
1049.717237	0.139437
1049.883746	0.140221
1050.050237	0.138980
1050.216710	0.136445
1050.383165	0.134093
1050.549601	0.132752
1050.716019	0.134650
1050.882420	0.134427
1051.048801	0.133884
1051.215165	0.132641
1051.381510	0.133198
1051.547837	0.132427
1051.714146	0.135779
1051.880437	0.139029
1052.046709	0.138349
1052.212964	0.140862
1052.379200	0.142427
1052.545417	0.142751
1052.711617	0.143400
1052.877798	0.143870
1053.043961	0.146108
1053.210106	0.143375
1053.376233	0.141629
1053.542341	0.143436
1053.708432	0.141731
1053.874504	0.142709
1054.040557	0.142840
1054.206593	0.143238
1054.372610	0.142556
1054.538609	0.141721
1054.704590	0.141532
1054.870553	0.140755
1055.036497	0.140828
1055.202424	0.140717
1055.368331	0.138768
1055.534221	0.138821
1055.700093	0.140451
1055.865946	0.141480
1056.031781	0.141573
1056.197598	0.140520
1056.363397	0.143161
1056.529177	0.141799
1056.694939	0.141119
1056.860683	0.141245
1057.026409	0.141371
1057.192116	0.139893
1057.357806	0.138441
1057.523477	0.139048
1057.689130	0.141985
1057.854764	0.140594
1058.020381	0.141389
1058.185979	0.143014
1058.351559	0.145641
1058.517120	0.144718
1058.682664	0.143802
1058.848189	0.143801
1059.013696	0.144168
1059.179185	0.141718
1059.344656	0.142199
1059.510108	0.140936
1059.675542	0.140389
1059.840958	0.137647
1060.006356	0.138684
1060.171735	0.139109
1060.337096	0.139222
1060.502439	0.138479
1060.667764	0.140599
1060.833071	0.140055
1060.998359	0.141334
1061.163629	0.140690
1061.328881	0.142581
1061.494115	0.142209
1061.659330	0.143681
1061.824527	0.144124
1061.989706	0.144609
1062.154867	0.144194
1062.320010	0.145177
1062.485134	0.144761
1062.650240	0.144315
1062.815328	0.144270
1062.980398	0.144846
1063.145449	0.143516
1063.310482	0.144071
1063.475497	0.143876
1063.640494	0.142671
1063.805473	0.142677
1063.970433	0.144060
1064.135375	0.145217
1064.300299	0.147851
1064.465204	0.147607
1064.630092	0.147288
1064.794961	0.147661
1064.959812	0.148310
1065.124645	0.149789
1065.289459	0.150682
1065.454256	0.149692
1065.619034	0.151569
1065.783793	0.147625
1065.948535	0.148212
1066.113258	0.149287
1066.277964	0.148526
1066.442651	0.147637
1066.607319	0.144570
1066.771970	0.142278
1066.936602	0.142290
1067.101216	0.140716
1067.265812	0.142009
1067.430389	0.141847
1067.594949	0.141740
1067.759490	0.144635
1067.924013	0.144873
1068.088518	0.148706
1068.253004	0.149317
1068.417472	0.152287
1068.581922	0.150954
1068.746354	0.150813
1068.910768	0.149956
1069.075163	0.148910
1069.239540	0.146443
1069.403899	0.147677
1069.568240	0.147896
1069.732562	0.149050
1069.896866	0.147688
1070.061152	0.149018
1070.225420	0.151318
1070.389670	0.152678
1070.553901	0.152263
1070.718114	0.153349
1070.882309	0.151317
1071.046486	0.149093
1071.210644	0.148619
1071.374784	0.146852
1071.538906	0.147382
1071.703010	0.146772
1071.867096	0.144194
1072.031163	0.145606
1072.195212	0.143275
1072.359243	0.144848
1072.523256	0.146134
1072.687250	0.145516
1072.851226	0.147750
1073.015184	0.144688
1073.179124	0.139544
1073.343045	0.142721
1073.506949	0.142517
1073.670834	0.143883
1073.834701	0.143026
1073.998549	0.144385
1074.162380	0.143099
1074.326192	0.141315
1074.489986	0.144339
1074.653761	0.148215
1074.817519	0.148897
1074.981258	0.147922
1075.144979	0.145824
1075.308682	0.147054
1075.472367	0.148210
1075.636033	0.152009
1075.799681	0.154910
1075.963311	0.153829
1076.126923	0.152168
1076.290516	0.151519
1076.454092	0.149492
1076.617649	0.151605
1076.781187	0.151084
1076.944708	0.150226
1077.108210	0.149199
1077.271695	0.146917
1077.435160	0.144818
1077.598608	0.147487
1077.762038	0.144695
1077.925449	0.148239
1078.088842	0.149802
1078.252217	0.148600
1078.415573	0.146294
1078.578912	0.145976
1078.742232	0.146451
1078.905534	0.150982
1079.068817	0.149410
1079.232083	0.152263
1079.395330	0.151442
1079.558559	0.152035
1079.721770	0.153633
1079.884962	0.155008
1080.048136	0.155242
1080.211293	0.155611
1080.374430	0.153598
1080.537550	0.155562
1080.700651	0.157210
1080.863735	0.158354
1081.026800	0.155462
1081.189846	0.153793
1081.352875	0.155151
1081.515885	0.156656
1081.678877	0.157479
1081.841851	0.156714
1082.004807	0.153435
1082.167744	0.155177
1082.330663	0.154579
1082.493564	0.157467
1082.656447	0.157203
1082.819312	0.157717
1082.982158	0.157579
1083.144986	0.157596
1083.307796	0.155690
1083.470587	0.158674
1083.633361	0.154678
1083.796116	0.152929
1083.958853	0.152200
1084.121571	0.156119
1084.284272	0.155193
1084.446954	0.153681
1084.609618	0.151312
1084.772264	0.157646
1084.934892	0.156678
1085.097501	0.158705
1085.260092	0.163314
1085.422665	0.164109
1085.585220	0.161080
1085.747756	0.158424
1085.910274	0.159796
1086.072774	0.160139
1086.235256	0.156601
1086.397720	0.154603
1086.560165	0.152023
1086.722592	0.151269
1086.885001	0.149187
1087.047392	0.150395
1087.209764	0.151335
1087.372119	0.149763
1087.534455	0.152710
1087.696772	0.154843
1087.859072	0.158210
1088.021353	0.158894
1088.183616	0.159456
1088.345861	0.161283
1088.508088	0.162638
1088.670296	0.163564
1088.832486	0.161428
1088.994658	0.159324
1089.156812	0.158871
1089.318948	0.158346
1089.481065	0.158884
1089.643164	0.156961
1089.805245	0.156039
1089.967308	0.155280
1090.129352	0.159034
1090.291378	0.160701
1090.453386	0.159391
1090.615376	0.155676
1090.777347	0.156895
1090.939301	0.158756
1091.101236	0.159792
1091.263153	0.158277
1091.425051	0.158418
1091.586932	0.152431
1091.748794	0.152736
1091.910638	0.155622
1092.072463	0.159479
1092.234271	0.159872
1092.396060	0.159194
1092.557831	0.159838
1092.719584	0.162805
1092.881319	0.160915
1093.043035	0.162549
1093.204733	0.161755
1093.366413	0.160424
1093.528075	0.160589
1093.689718	0.159747
1093.851343	0.162510
1094.012950	0.162781
1094.174539	0.159779
1094.336110	0.161559
1094.497662	0.161093
1094.659196	0.161182
1094.820712	0.161974
1094.982210	0.162069
1095.143689	0.163918
1095.305151	0.160950
1095.466594	0.159388
1095.628018	0.162317
1095.789425	0.162241
1095.950813	0.164918
1096.112183	0.167334
1096.273535	0.168855
1096.434869	0.168592
1096.596184	0.167983
1096.757482	0.167116
1096.918761	0.171101
1097.080021	0.167170
1097.241264	0.164722
1097.402488	0.164353
1097.563694	0.162076
1097.724882	0.162525
1097.886052	0.160925
1098.047203	0.160271
1098.208336	0.161581
1098.369451	0.157021
1098.530548	0.158452
1098.691627	0.161820
1098.852687	0.164678
1099.013729	0.167141
1099.174753	0.167459
1099.335758	0.169837
1099.496746	0.169849
1099.657715	0.170150
1099.818666	0.170366
1099.979599	0.171397
1100.140513	0.172117
1100.301409	0.168828
1100.462287	0.167412
1100.623147	0.163751
1100.783989	0.161087
1100.944812	0.161045
1101.105617	0.158413
1101.266404	0.163097
1101.427173	0.163379
1101.587923	0.160509
1101.748656	0.161155
1101.909370	0.162821
1102.070066	0.163183
1102.230743	0.167256
1102.391403	0.165877
1102.552044	0.167372
1102.712667	0.164549
1102.873271	0.163304
1103.033858	0.166480
1103.194426	0.166870
1103.354976	0.172573
1103.515508	0.171359
1103.676021	0.174231
1103.836517	0.175121
1103.996994	0.177377
1104.157453	0.177948
1104.317893	0.186176
1104.478316	0.187715
1104.638720	0.189794
1104.799106	0.184407
1104.959474	0.189768
1105.119823	0.185549
1105.280155	0.185277
1105.440468	0.182435
1105.600763	0.179295
1105.761039	0.176143
1105.921298	0.175862
1106.081538	0.174855
1106.241760	0.175341
1106.401964	0.168888
1106.562149	0.167690
1106.722316	0.166451
1106.882465	0.165824
1107.042596	0.166547
1107.202709	0.160792
1107.362803	0.159931
1107.522879	0.159524
1107.682937	0.163702
1107.842977	0.168557
1108.002999	0.165906
1108.163002	0.170261
1108.322987	0.172898
1108.482954	0.174221
1108.642902	0.178572
1108.802833	0.181185
1108.962745	0.179535
1109.122639	0.172677
1109.282515	0.175397
1109.442372	0.176200
1109.602211	0.169996
1109.762032	0.171846
1109.921835	0.174455
1110.081620	0.176006
1110.241386	0.174414
1110.401134	0.176473
1110.560864	0.181495
1110.720576	0.178537
1110.880269	0.185344
1111.039945	0.186917
1111.199602	0.187046
1111.359240	0.185234
1111.518861	0.183603
1111.678463	0.183863
1111.838047	0.183426
1111.997613	0.182052
1112.157161	0.178786
1112.316690	0.173072
1112.476202	0.175770
1112.635695	0.168647
1112.795169	0.167618
1112.954626	0.172360
1113.114064	0.175706
1113.273484	0.173513
1113.432886	0.174887
1113.592270	0.182695
1113.751635	0.184079
1113.910983	0.188801
1114.070312	0.196240
1114.229622	0.196605
1114.388915	0.192374
1114.548189	0.186996
1114.707445	0.187379
1114.866683	0.184828
1115.025903	0.180930
1115.185104	0.181406
1115.344287	0.174194
1115.503452	0.176403
1115.662599	0.179356
1115.821727	0.182087
1115.980838	0.186108
1116.139930	0.185625
1116.299004	0.183003
1116.458059	0.183613
1116.617097	0.182038
1116.776116	0.187378
1116.935117	0.182710
1117.094099	0.178175
1117.253064	0.176404
1117.412010	0.171708
1117.570938	0.172755
1117.729848	0.171636
1117.888740	0.171027
1118.047613	0.171711
1118.206468	0.169016
1118.365305	0.167291
1118.524124	0.173573
1118.682924	0.171359
1118.841707	0.169927
1119.000471	0.172441
1119.159216	0.178557
1119.317944	0.179748
1119.476653	0.179736
1119.635344	0.181575
1119.794017	0.183157
1119.952672	0.180283
1120.111308	0.186252
1120.269927	0.196376
1120.428527	0.195799
1120.587108	0.197305
1120.745672	0.192406
1120.904217	0.191845
1121.062744	0.187484
1121.221253	0.190345
1121.379744	0.194651
1121.538216	0.192616
1121.696671	0.187376
1121.855107	0.183195
1122.013524	0.179964
1122.171924	0.179359
1122.330305	0.179114
1122.488668	0.179193
1122.647013	0.177657
1122.805340	0.171782
1122.963648	0.171801
1123.121938	0.164035
1123.280210	0.168307
1123.438464	0.164688
1123.596700	0.163991
1123.754917	0.170319
1123.913116	0.170222
1124.071297	0.172559
1124.229459	0.175800
1124.387604	0.175114
1124.545730	0.182463
1124.703838	0.178382
1124.861928	0.182353
1125.019999	0.189093
1125.178052	0.182041
1125.336088	0.188389
1125.494104	0.186848
1125.652103	0.187447
1125.810083	0.182800
1125.968045	0.180185
1126.125989	0.188071
1126.283915	0.187841
1126.441823	0.184271
1126.599712	0.189116
1126.757583	0.187124
1126.915436	0.188992
1127.073270	0.184800
1127.231087	0.192649
1127.388885	0.196878
1127.546665	0.195092
1127.704426	0.195995
1127.862170	0.198086
1128.019895	0.201420
1128.177602	0.202761
1128.335291	0.196549
1128.492961	0.201088
1128.650614	0.190120
1128.808248	0.188185
1128.965864	0.184761
1129.123461	0.189380
1129.281041	0.190040
1129.438602	0.185416
1129.596145	0.185313
1129.753670	0.193696
1129.911176	0.194118
1130.068665	0.194201
1130.226135	0.195912
1130.383587	0.197092
1130.541020	0.185374
1130.698436	0.181971
1130.855833	0.171177
1131.013212	0.166544
1131.170573	0.163279
1131.327915	0.163836
1131.485239	0.166036
1131.642545	0.160373
1131.799833	0.155677
1131.957103	0.163641
1132.114354	0.167065
1132.271588	0.178210
1132.428803	0.183196
1132.585999	0.181683
1132.743178	0.178572
1132.900338	0.187634
1133.057480	0.191551
1133.214604	0.190858
1133.371710	0.187119
1133.528797	0.188410
1133.685866	0.185433
1133.842917	0.182383
1133.999950	0.176440
1134.156964	0.179167
1134.313960	0.171205
1134.470938	0.168544
1134.627898	0.173534
1134.784840	0.180114
1134.941763	0.175615
1135.098668	0.177094
1135.255555	0.175384
1135.412424	0.177353
1135.569274	0.183263
1135.726107	0.185257
1135.882921	0.185213
1136.039716	0.182944
1136.196494	0.179680
1136.353253	0.180571
1136.509995	0.181768
1136.666717	0.183014
1136.823422	0.192072
1136.980109	0.184949
1137.136777	0.185778
1137.293427	0.190015
1137.450059	0.192305
1137.606672	0.196371
1137.763267	0.196519
1137.919844	0.194137
1138.076403	0.195266
1138.232944	0.195687
1138.389466	0.192690
1138.545971	0.198229
1138.702457	0.196051
1138.858924	0.197646
1139.015374	0.192154
1139.171805	0.192372
1139.328218	0.197396
1139.484613	0.198000
1139.640990	0.193065
1139.797348	0.196320
1139.953688	0.188874
1140.110010	0.186987
1140.266314	0.181452
1140.422600	0.174381
1140.578867	0.171803
1140.735116	0.172299
1140.891347	0.173262
1141.047559	0.169306
1141.203754	0.161890
1141.359930	0.168344
1141.516088	0.172881
1141.672228	0.178708
1141.828349	0.182827
1141.984452	0.186547
1142.140537	0.187649
1142.296604	0.186612
1142.452653	0.185672
1142.608683	0.185030
1142.764695	0.174109
1142.920689	0.172564
1143.076665	0.174698
1143.232622	0.182030
1143.388562	0.183890
1143.544483	0.176970
1143.700385	0.180341
1143.856270	0.188526
1144.012136	0.198381
1144.167985	0.203100
1144.323814	0.205032
1144.479626	0.197982
1144.635420	0.193311
1144.791195	0.202314
1144.946952	0.210096
1145.102691	0.203883
1145.258411	0.204326
1145.414113	0.207179
1145.569798	0.204421
1145.725463	0.205237
1145.881111	0.208290
1146.036741	0.214141
1146.192352	0.212288
1146.347945	0.205433
1146.503519	0.208210
1146.659076	0.195982
1146.814614	0.192515
1146.970134	0.194993
1147.125636	0.193901
1147.281120	0.191043
1147.436585	0.186035
1147.592032	0.183247
1147.747461	0.183889
1147.902872	0.181193
1148.058265	0.194087
1148.213639	0.193275
1148.368995	0.193411
1148.524333	0.184730
1148.679653	0.184299
1148.834954	0.185944
1148.990237	0.182560
1149.145502	0.181463
1149.300749	0.189676
1149.455977	0.190580
1149.611188	0.189910
1149.766380	0.188375
1149.921553	0.198059
1150.076709	0.194570
1150.231846	0.186773
1150.386966	0.193832
1150.542066	0.196297
1150.697149	0.202962
1150.852214	0.201979
1151.007260	0.196709
1151.162288	0.197561
1151.317298	0.201934
1151.472289	0.214527
1151.627263	0.219349
1151.782218	0.209414
1151.937155	0.209816
1152.092073	0.194999
1152.246974	0.187445
1152.401856	0.193078
1152.556720	0.193533
1152.711566	0.190644
1152.866393	0.191959
1153.021203	0.190720
1153.175994	0.202365
1153.330767	0.199315
1153.485521	0.204168
1153.640258	0.206248
1153.794976	0.192635
1153.949676	0.192346
1154.104358	0.190170
1154.259021	0.195951
1154.413667	0.200865
1154.568294	0.194123
1154.722903	0.200567
1154.877493	0.201961
1155.032066	0.197920
1155.186620	0.208476
1155.341156	0.211922
1155.495674	0.217601
1155.650173	0.202696
1155.804654	0.193770
1155.959118	0.191307
1156.113562	0.186731
1156.267989	0.184878
1156.422397	0.180628
1156.576788	0.181488
1156.731160	0.178649
1156.885513	0.173212
1157.039849	0.164423
1157.194166	0.165178
1157.348465	0.165808
1157.502746	0.175757
1157.657009	0.162675
1157.811253	0.180655
1157.965479	0.173299
1158.119687	0.172260
1158.273877	0.181394
1158.428048	0.192793
1158.582201	0.201836
1158.736337	0.192731
1158.890453	0.189165
1159.044552	0.201293
1159.198632	0.188319
1159.352694	0.197548
1159.506738	0.203243
1159.660764	0.189170
1159.814771	0.187867
1159.968761	0.186814
1160.122732	0.186284
1160.276685	0.189219
1160.430619	0.192771
1160.584535	0.204990
1160.738434	0.200051
1160.892313	0.198803
1161.046175	0.197524
1161.200019	0.201170
1161.353844	0.194124
1161.507651	0.196189
1161.661440	0.190268
1161.815210	0.181400
1161.968962	0.170782
1162.122697	0.169270
1162.276412	0.168080
1162.430110	0.175270
1162.583789	0.164783
1162.737451	0.176338
1162.891094	0.177287
1163.044718	0.184035
1163.198325	0.196660
1163.351913	0.203236
1163.505483	0.210452
1163.659035	0.208628
1163.812569	0.199977
1163.966084	0.193822
1164.119581	0.180273
1164.273060	0.184898
1164.426521	0.174434
1164.579964	0.156740
1164.733388	0.154760
1164.886794	0.149872
1165.040182	0.150381
1165.193551	0.150032
1165.346903	0.175079
1165.500236	0.191377
1165.653551	0.187556
1165.806848	0.183189
1165.960126	0.190979
1166.113386	0.200092
1166.266628	0.212959
1166.419852	0.213193
1166.573058	0.218114
1166.726245	0.219217
1166.879414	0.202107
1167.032565	0.214156
1167.185698	0.218517
1167.338812	0.230769
1167.491909	0.216198
1167.644987	0.214540
1167.798046	0.236370
1167.951088	0.251757
1168.104111	0.211118
1168.257117	0.224456
1168.410103	0.204957
1168.563072	0.212025
1168.716023	0.208316
1168.868955	0.215730
1169.021869	0.216323
1169.174765	0.193388
1169.327642	0.168366
1169.480501	0.180917
1169.633343	0.153693
1169.786165	0.154567
1169.938970	0.146948
1170.091757	0.151689
1170.244525	0.145740
1170.397275	0.137000
1170.550007	0.158763
1170.702720	0.172285
1170.855415	0.178899
1171.008092	0.203339
1171.160751	0.213633
1171.313392	0.216565
1171.466014	0.134712
1171.618619	0.201081
1171.771205	0.201081
1171.923772	0.201081
