sample name	sample
index	1143
start time	 04-22-2021  03:09:36 PM


Wavelength (nm)	Absorbance
494.344910	-0.344756
494.563924	-0.344756
494.782919	-0.344756
495.001897	NaN
495.220856	-0.699652
495.439797	-0.798538
495.658719	-0.913051
495.877624	-0.971352
496.096510	-1.254894
496.315378	-0.825579
496.534227	-0.519094
496.753059	-0.267831
496.971872	-0.133470
497.190667	0.086969
497.409444	0.090092
497.628203	0.089920
497.846943	0.088112
498.065665	0.086704
498.284369	0.086984
498.503055	0.087413
498.721723	0.087874
498.940372	0.089152
499.159003	0.089111
499.377616	0.089972
499.596210	0.089224
499.814787	0.089874
500.033345	0.090642
500.251885	0.090348
500.470406	0.088962
500.688910	0.088689
500.907395	0.088455
501.125862	0.088758
501.344311	0.089958
501.562742	0.090664
501.781154	0.091644
501.999548	0.092272
502.217924	0.092034
502.436282	0.093012
502.654621	0.092618
502.872942	0.092369
503.091245	0.091913
503.309530	0.091546
503.527797	0.091075
503.746045	0.089865
503.964275	0.089908
504.182487	0.091223
504.400681	0.090545
504.618856	0.091063
504.837013	0.091805
505.055152	0.091947
505.273273	0.091082
505.491376	0.092272
505.709460	0.093587
505.927526	0.092574
506.145574	0.091734
506.363604	0.091499
506.581615	0.091483
506.799608	0.091368
507.017583	0.091135
507.235540	0.090815
507.453478	0.089296
507.671399	0.087793
507.889301	0.087492
508.107185	0.088852
508.325050	0.089215
508.542898	0.088452
508.760727	0.087765
508.978538	0.088650
509.196330	0.088158
509.414105	0.088326
509.631861	0.089720
509.849599	0.091634
510.067319	0.091413
510.285021	0.091575
510.502704	0.092130
510.720369	0.091907
510.938016	0.091811
511.155645	0.092322
511.373255	0.092992
511.590848	0.092991
511.808422	0.091148
512.025977	0.091435
512.243515	0.091927
512.461034	0.091612
512.678536	0.091867
512.896018	0.091964
513.113483	0.091746
513.330930	0.090779
513.548358	0.090405
513.765768	0.090909
513.983160	0.090449
514.200533	0.089066
514.417889	0.088204
514.635226	0.088735
514.852545	0.087995
515.069845	0.087979
515.287128	0.089372
515.504392	0.088964
515.721638	0.088938
515.938866	0.088127
516.156075	0.088500
516.373267	0.089567
516.590440	0.089174
516.807594	0.089778
517.024731	0.090199
517.241850	0.089345
517.458950	0.089491
517.676032	0.089599
517.893095	0.090266
518.110141	0.090376
518.327168	0.089762
518.544177	0.089500
518.761168	0.089304
518.978141	0.089561
519.195095	0.089211
519.412031	0.088833
519.628949	0.089048
519.845849	0.088255
520.062731	0.087907
520.279594	0.088125
520.496439	0.088197
520.713266	0.088177
520.930074	0.088028
521.146865	0.088534
521.363637	0.088603
521.580391	0.087539
521.797127	0.087937
522.013844	0.088845
522.230543	0.089152
522.447224	0.089117
522.663887	0.088665
522.880532	0.088508
523.097158	0.087849
523.313766	0.087732
523.530356	0.088551
523.746928	0.088752
523.963481	0.087700
524.180017	0.087270
524.396534	0.087565
524.613032	0.088181
524.829513	0.088546
525.045975	0.088823
525.262420	0.089248
525.478845	0.089246
525.695253	0.089198
525.911643	0.089421
526.128014	0.089099
526.344367	0.088688
526.560702	0.087875
526.777018	0.087278
526.993316	0.087031
527.209597	0.087085
527.425858	0.086325
527.642102	0.085925
527.858328	0.085829
528.074535	0.086430
528.290724	0.086496
528.506894	0.086668
528.723047	0.086366
528.939181	0.086562
529.155297	0.086453
529.371395	0.086962
529.587475	0.087377
529.803536	0.087653
530.019579	0.087650
530.235604	0.087752
530.451611	0.087896
530.667600	0.088029
530.883570	0.087966
531.099522	0.087607
531.315456	0.087072
531.531372	0.086592
531.747269	0.086526
531.963148	0.086415
532.179009	0.087013
532.394852	0.087031
532.610676	0.087211
532.826482	0.087149
533.042271	0.087926
533.258040	0.088406
533.473792	0.087939
533.689525	0.088310
533.905240	0.088335
534.120937	0.087957
534.336616	0.088204
534.552277	0.087618
534.767919	0.087807
534.983543	0.087274
535.199149	0.087328
535.414736	0.088208
535.630306	0.087691
535.845857	0.087509
536.061390	0.087407
536.276904	0.087557
536.492401	0.087700
536.707879	0.087345
536.923339	0.087615
537.138781	0.087564
537.354204	0.086978
537.569610	0.087460
537.784997	0.087341
538.000366	0.086756
538.215716	0.086589
538.431049	0.086946
538.646363	0.087456
538.861659	0.087010
539.076937	0.087444
539.292196	0.088106
539.507438	0.088130
539.722661	0.088400
539.937866	0.089259
540.153052	0.089062
540.368221	0.088845
540.583371	0.088820
540.798503	0.089091
541.013617	0.089034
541.228712	0.088550
541.443789	0.088300
541.658848	0.088140
541.873889	0.088055
542.088912	0.088307
542.303916	0.088338
542.518902	0.088100
542.733870	0.088116
542.948820	0.087807
543.163752	0.088269
543.378665	0.088069
543.593560	0.087973
543.808437	0.087600
544.023295	0.087650
544.238136	0.088524
544.452958	0.088810
544.667762	0.088672
544.882548	0.088779
545.097315	0.088644
545.312064	0.089119
545.526795	0.089472
545.741508	0.089537
545.956203	0.089098
546.170879	0.088504
546.385537	0.088612
546.600177	0.088434
546.814799	0.088088
547.029402	0.088572
547.243988	0.088357
547.458555	0.088769
547.673103	0.088765
547.887634	0.088916
548.102146	0.089082
548.316640	0.089135
548.531116	0.089713
548.745574	0.089480
548.960013	0.088948
549.174435	0.088575
549.388838	0.088163
549.603222	0.087644
549.817589	0.088003
550.031937	0.087516
550.246267	0.086867
550.460579	0.086525
550.674873	0.087400
550.889148	0.087396
551.103405	0.087860
551.317644	0.087898
551.531865	0.088497
551.746068	0.088075
551.960252	0.088176
552.174418	0.088382
552.388566	0.088056
552.602696	0.087655
552.816807	0.088067
553.030900	0.087839
553.244975	0.087393
553.459032	0.086871
553.673070	0.087127
553.887091	0.087220
554.101093	0.087147
554.315077	0.087574
554.529042	0.087797
554.742990	0.087744
554.956919	0.087771
555.170830	0.088148
555.384722	0.088398
555.598597	0.088484
555.812453	0.088370
556.026291	0.088507
556.240111	0.088781
556.453913	0.088007
556.667696	0.087639
556.881461	0.087588
557.095208	0.087489
557.308937	0.087797
557.522647	0.087460
557.736339	0.087609
557.950013	0.087448
558.163669	0.087198
558.377307	0.087733
558.590926	0.087718
558.804527	0.088040
559.018110	0.087829
559.231675	0.087433
559.445221	0.087291
559.658749	0.087015
559.872259	0.086727
560.085751	0.086604
560.299225	0.086480
560.512680	0.086483
560.726117	0.086253
560.939536	0.085925
561.152937	0.086011
561.366319	0.086341
561.579683	0.086349
561.793029	0.086948
562.006357	0.086981
562.219667	0.087282
562.432958	0.087235
562.646231	0.087010
562.859486	0.087473
563.072723	0.087567
563.285941	0.087434
563.499141	0.087731
563.712323	0.087203
563.925487	0.087160
564.138632	0.086843
564.351760	0.086847
564.564869	0.087096
564.777960	0.087198
564.991032	0.086913
565.204087	0.086701
565.417123	0.086612
565.630141	0.086918
565.843140	0.086293
566.056122	0.086283
566.269085	0.086360
566.482030	0.085991
566.694957	0.085707
566.907866	0.086039
567.120756	0.086071
567.333628	0.086207
567.546482	0.086037
567.759318	0.086590
567.972135	0.086487
568.184935	0.086728
568.397716	0.087011
568.610478	0.087119
568.823223	0.087092
569.035949	0.087177
569.248657	0.086921
569.461347	0.087108
569.674019	0.087051
569.886672	0.087138
570.099308	0.087042
570.311925	0.087042
570.524523	0.087167
570.737104	0.087239
570.949666	0.087333
571.162210	0.087764
571.374736	0.087634
571.587244	0.087721
571.799733	0.087535
572.012205	0.087232
572.224658	0.087279
572.437092	0.087168
572.649509	0.086881
572.861907	0.087105
573.074287	0.086316
573.286649	0.086160
573.498993	0.086104
573.711318	0.086331
573.923625	0.086194
574.135914	0.086037
574.348185	0.086029
574.560438	0.085886
574.772672	0.085584
574.984888	0.085676
575.197086	0.085817
575.409266	0.085895
575.621427	0.085606
575.833570	0.085863
576.045695	0.085926
576.257802	0.085817
576.469890	0.085879
576.681961	0.085843
576.894013	0.086081
577.106046	0.086077
577.318062	0.085820
577.530059	0.086229
577.742039	0.086028
577.954000	0.085790
578.165942	0.085981
578.377867	0.086126
578.589773	0.086254
578.801661	0.086373
579.013531	0.086169
579.225382	0.086278
579.437216	0.086141
579.649031	0.086421
579.860828	0.086624
580.072606	0.086411
580.284367	0.086222
580.496109	0.086017
580.707833	0.085873
580.919539	0.086053
581.131227	0.085949
581.342896	0.085990
581.554547	0.085698
581.766180	0.085695
581.977795	0.085817
582.189391	0.085804
582.400969	0.085872
582.612529	0.085780
582.824071	0.085702
583.035595	0.085868
583.247100	0.085402
583.458587	0.085499
583.670056	0.085655
583.881506	0.085436
584.092939	0.085710
584.304353	0.085588
584.515749	0.085930
584.727127	0.086129
584.938486	0.086074
585.149828	0.086418
585.361151	0.086247
585.572456	0.086142
585.783742	0.086358
585.995011	0.086383
586.206261	0.086609
586.417493	0.086412
586.628706	0.086202
586.839902	0.086189
587.051079	0.086018
587.262238	0.085846
587.473379	0.085622
587.684502	0.085412
587.895606	0.085626
588.106692	0.085214
588.317760	0.085382
588.528810	0.085446
588.739841	0.085395
588.950855	0.085680
589.161850	0.085743
589.372827	0.086053
589.583785	0.086350
589.794726	0.086104
590.005648	0.086577
590.216552	0.086237
590.427437	0.086391
590.638305	0.086319
590.849154	0.085848
591.059985	0.085958
591.270798	0.085580
591.481592	0.085535
591.692369	0.085329
591.903127	0.084975
592.113867	0.085358
592.324588	0.085232
592.535292	0.085374
592.745977	0.085737
592.956644	0.085707
593.167293	0.085815
593.377923	0.085624
593.588536	0.085787
593.799130	0.085862
594.009706	0.085869
594.220263	0.085947
594.430803	0.085749
594.641324	0.085949
594.851827	0.086324
595.062312	0.086177
595.272778	0.086682
595.483227	0.086725
595.693657	0.086801
595.904069	0.086643
596.114462	0.086566
596.324838	0.086641
596.535195	0.086419
596.745534	0.086147
596.955855	0.086358
597.166157	0.086090
597.376441	0.085638
597.586707	0.085612
597.796955	0.085464
598.007185	0.085685
598.217396	0.085561
598.427589	0.085509
598.637764	0.085913
598.847921	0.086321
599.058060	0.086355
599.268180	0.086564
599.478282	0.086543
599.688366	0.086351
599.898431	0.085918
600.108479	0.086123
600.318508	0.086065
600.528519	0.085547
600.738511	0.085026
600.948486	0.084717
601.158442	0.084855
601.368380	0.084584
601.578300	0.084673
601.788202	0.085042
601.998085	0.084875
602.207950	0.084621
602.417797	0.084651
602.627626	0.084321
602.837436	0.084403
603.047228	0.084316
603.257002	0.084565
603.466758	0.084583
603.676496	0.084233
603.886215	0.084112
604.095916	0.084421
604.305599	0.084396
604.515264	0.084825
604.724910	0.084718
604.934538	0.084945
605.144148	0.084823
605.353740	0.084748
605.563314	0.084898
605.772869	0.085186
605.982406	0.085095
606.191925	0.085137
606.401425	0.084815
606.610908	0.084797
606.820372	0.084586
607.029818	0.084705
607.239246	0.084722
607.448655	0.084492
607.658047	0.084473
607.867420	0.084639
608.076775	0.084263
608.286111	0.084470
608.495430	0.084442
608.704730	0.084317
608.914012	0.084197
609.123275	0.084278
609.332521	0.084541
609.541748	0.084367
609.750957	0.084074
609.960148	0.084460
610.169321	0.084536
610.378475	0.084502
610.587611	0.084539
610.796729	0.084362
611.005829	0.084326
611.214910	0.084157
611.423974	0.084018
611.633019	0.084050
611.842045	0.083927
612.051054	0.083920
612.260044	0.083977
612.469017	0.084246
612.677970	0.084570
612.886906	0.084557
613.095824	0.084443
613.304723	0.084650
613.513604	0.084535
613.722467	0.084498
613.931311	0.084445
614.140138	0.084246
614.348946	0.084187
614.557736	0.084025
614.766507	0.084222
614.975261	0.084212
615.183996	0.084066
615.392713	0.084366
615.601412	0.084396
615.810092	0.084226
616.018754	0.084186
616.227399	0.083943
616.436024	0.083852
616.644632	0.083505
616.853222	0.083504
617.061793	0.083469
617.270346	0.083249
617.478880	0.083392
617.687397	0.083666
617.895895	0.084059
618.104375	0.084200
618.312837	0.084273
618.521281	0.084523
618.729706	0.084824
618.938113	0.084904
619.146502	0.084968
619.354873	0.084920
619.563226	0.084722
619.771560	0.084741
619.979876	0.084449
620.188174	0.084512
620.396453	0.084426
620.604715	0.084241
620.812958	0.084296
621.021183	0.084231
621.229390	0.084186
621.437578	0.084352
621.645748	0.083916
621.853900	0.083961
622.062034	0.083605
622.270150	0.083453
622.478247	0.083435
622.686326	0.083443
622.894387	0.083510
623.102430	0.083334
623.310454	0.083432
623.518461	0.083715
623.726449	0.083830
623.934418	0.083890
624.142370	0.083944
624.350303	0.083866
624.558218	0.083929
624.766115	0.083643
624.973994	0.083823
625.181855	0.083502
625.389697	0.083411
625.597521	0.083396
625.805327	0.083533
626.013114	0.083537
626.220883	0.083543
626.428634	0.083511
626.636367	0.083620
626.844082	0.083481
627.051778	0.083394
627.259457	0.083198
627.467117	0.082979
627.674758	0.083065
627.882382	0.083151
628.089987	0.083020
628.297574	0.082953
628.505143	0.083101
628.712694	0.082981
628.920226	0.083358
629.127740	0.083779
629.335236	0.084118
629.542714	0.084154
629.750174	0.084219
629.957615	0.084496
630.165038	0.084600
630.372443	0.084540
630.579829	0.084850
630.787198	0.084654
630.994548	0.084412
631.201880	0.084489
631.409194	0.084437
631.616489	0.084268
631.823766	0.084307
632.031025	0.084184
632.238266	0.084071
632.445489	0.083850
632.652693	0.083856
632.859879	0.083880
633.067047	0.083405
633.274197	0.083377
633.481329	0.083372
633.688442	0.083204
633.895537	0.083021
634.102614	0.082997
634.309672	0.083059
634.516713	0.082947
634.723735	0.082992
634.930739	0.083281
635.137724	0.083432
635.344692	0.083488
635.551641	0.083657
635.758572	0.083805
635.965485	0.084043
636.172379	0.084209
636.379256	0.084305
636.586114	0.084126
636.792954	0.084003
636.999775	0.083989
637.206579	0.083954
637.413364	0.083794
637.620131	0.083922
637.826880	0.083770
638.033610	0.083737
638.240323	0.083835
638.447017	0.084066
638.653692	0.084244
638.860350	0.084325
639.066990	0.084338
639.273611	0.084395
639.480214	0.084261
639.686798	0.084279
639.893365	0.084445
640.099913	0.084330
640.306443	0.084300
640.512955	0.084248
640.719449	0.084348
640.925924	0.084685
641.132381	0.084832
641.338820	0.085031
641.545241	0.085551
641.751644	0.085558
641.958028	0.085788
642.164394	0.085979
642.370742	0.086199
642.577071	0.085965
642.783383	0.085748
642.989676	0.085756
643.195951	0.085773
643.402207	0.085448
643.608446	0.085363
643.814666	0.085278
644.020868	0.085177
644.227052	0.084861
644.433218	0.084812
644.639365	0.084835
644.845494	0.084753
645.051605	0.084771
645.257698	0.084648
645.463772	0.084622
645.669828	0.084675
645.875866	0.084849
646.081886	0.085025
646.287888	0.085078
646.493871	0.085172
646.699836	0.085170
646.905783	0.085165
647.111712	0.085188
647.317622	0.085266
647.523514	0.085156
647.729388	0.084947
647.935244	0.084975
648.141082	0.084832
648.346901	0.084643
648.552702	0.084637
648.758485	0.084587
648.964250	0.084915
649.169996	0.085048
649.375724	0.084982
649.581434	0.084953
649.787126	0.084858
649.992800	0.085213
650.198455	0.085413
650.404092	0.085550
650.609711	0.085671
650.815311	0.085152
651.020894	0.084742
651.226458	0.084872
651.432004	0.084928
651.637532	0.084837
651.843041	0.084692
652.048532	0.084676
652.254006	0.084658
652.459460	0.084437
652.664897	0.084797
652.870315	0.085215
653.075716	0.085473
653.281097	0.085708
653.486461	0.086026
653.691807	0.086213
653.897134	0.086318
654.102443	0.086260
654.307734	0.086229
654.513006	0.086023
654.718261	0.085833
654.923497	0.085496
655.128715	0.085305
655.333915	0.085082
655.539096	0.084971
655.744259	0.084805
655.949404	0.084567
656.154531	0.084577
656.359640	0.084690
656.564730	0.084679
656.769802	0.084857
656.974856	0.084900
657.179892	0.084993
657.384909	0.084961
657.589908	0.085045
657.794889	0.085310
657.999852	0.085357
658.204797	0.085485
658.409723	0.085663
658.614631	0.085774
658.819521	0.085930
659.024393	0.086123
659.229246	0.086145
659.434081	0.086194
659.638898	0.086205
659.843697	0.086419
660.048478	0.086461
660.253240	0.086239
660.457984	0.085978
660.662710	0.085685
660.867417	0.085441
661.072107	0.085288
661.276778	0.085050
661.481431	0.084984
661.686066	0.084951
661.890682	0.084787
662.095281	0.085045
662.299861	0.085285
662.504422	0.085368
662.708966	0.085650
662.913491	0.085935
663.117999	0.086271
663.322488	0.086556
663.526958	0.086423
663.731411	0.086559
663.935845	0.086361
664.140261	0.086242
664.344659	0.086386
664.549038	0.086079
664.753400	0.086105
664.957743	0.086090
665.162068	0.085946
665.366375	0.086013
665.570663	0.086225
665.774933	0.086284
665.979185	0.086280
666.183419	0.086303
666.387635	0.086488
666.591832	0.086767
666.796011	0.086786
667.000172	0.086947
667.204315	0.087210
667.408439	0.087117
667.612545	0.087120
667.816634	0.087361
668.020703	0.087358
668.224755	0.087309
668.428788	0.087084
668.632803	0.087105
668.836800	0.087017
669.040779	0.086880
669.244739	0.086704
669.448681	0.086639
669.652605	0.086554
669.856511	0.086511
670.060399	0.086654
670.264268	0.086822
670.468119	0.086910
670.671952	0.086915
670.875767	0.086950
671.079563	0.087165
671.283341	0.087148
671.487101	0.087080
671.690843	0.087335
671.894567	0.087396
672.098272	0.087219
672.301959	0.087006
672.505628	0.087103
672.709278	0.087129
672.912911	0.087110
673.116525	0.087313
673.320121	0.087349
673.523699	0.087150
673.727258	0.087103
673.930799	0.087088
674.134322	0.087230
674.337827	0.087154
674.541314	0.087249
674.744782	0.087271
674.948232	0.087184
675.151664	0.087327
675.355078	0.087406
675.558474	0.087508
675.761851	0.087416
675.965210	0.087184
676.168551	0.087187
676.371873	0.087108
676.575178	0.087059
676.778464	0.087045
676.981732	0.087016
677.184981	0.086954
677.388213	0.086818
677.591426	0.086764
677.794621	0.087017
677.997798	0.087216
678.200956	0.087234
678.404097	0.087327
678.607219	0.087265
678.810323	0.087075
679.013408	0.087180
679.216476	0.087283
679.419525	0.087516
679.622556	0.087608
679.825569	0.087593
680.028563	0.087611
680.231540	0.087622
680.434498	0.087945
680.637438	0.088245
680.840359	0.088236
681.043263	0.088194
681.246148	0.088278
681.449015	0.088096
681.651864	0.088176
681.854694	0.088239
682.057506	0.088256
682.260301	0.088310
682.463076	0.088209
682.665834	0.088305
682.868573	0.088525
683.071295	0.088553
683.273998	0.088736
683.476682	0.088631
683.679349	0.088709
683.881997	0.088787
684.084627	0.088894
684.287239	0.088924
684.489833	0.088944
684.692408	0.088757
684.894965	0.088724
685.097504	0.088766
685.300025	0.089006
685.502527	0.088958
685.705012	0.088991
685.907478	0.088957
686.109925	0.089102
686.312355	0.089157
686.514766	0.089135
686.717159	0.089016
686.919534	0.088973
687.121891	0.088715
687.324230	0.088715
687.526550	0.088522
687.728852	0.088178
687.931136	0.088132
688.133401	0.087988
688.335649	0.088190
688.537878	0.088224
688.740089	0.088298
688.942281	0.088251
689.144456	0.088131
689.346612	0.088156
689.548750	0.088150
689.750870	0.088054
689.952971	0.088058
690.155055	0.087870
690.357120	0.087897
690.559167	0.087806
690.761195	0.087701
690.963206	0.087831
691.165198	0.087786
691.367172	0.087990
691.569128	0.087910
691.771065	0.087716
691.972984	0.087830
692.174885	0.087790
692.376768	0.087823
692.578633	0.087839
692.780479	0.087867
692.982308	0.087925
693.184118	0.087849
693.385909	0.087927
693.587683	0.088268
693.789438	0.088193
693.991175	0.088252
694.192894	0.088373
694.394595	0.088550
694.596277	0.088394
694.797941	0.088546
694.999587	0.088714
695.201215	0.088820
695.402824	0.088821
695.604416	0.089129
695.805989	0.089194
696.007543	0.089123
696.209080	0.089082
696.410598	0.089340
696.612099	0.089251
696.813580	0.089165
697.015044	0.089163
697.216490	0.089179
697.417917	0.088831
697.619326	0.088838
697.820717	0.088857
698.022089	0.088816
698.223444	0.088672
698.424780	0.088627
698.626098	0.088604
698.827397	0.088666
699.028679	0.088598
699.229942	0.088760
699.431187	0.088715
699.632414	0.088707
699.833622	0.088715
700.034813	0.088639
700.235985	0.088928
700.437139	0.089146
700.638274	0.089186
700.839392	0.089345
701.040491	0.089593
701.241572	0.089688
701.442635	0.089610
701.643679	0.089599
701.844706	0.089897
702.045714	0.089619
702.246704	0.089390
702.447675	0.089369
702.648629	0.089146
702.849564	0.088787
703.050481	0.088601
703.251380	0.088583
703.452260	0.088721
703.653122	0.088646
703.853966	0.088752
704.054792	0.088729
704.255600	0.088423
704.456389	0.088443
704.657160	0.088538
704.857913	0.088583
705.058648	0.088538
705.259365	0.088350
705.460063	0.088094
705.660743	0.088044
705.861405	0.087915
706.062048	0.087933
706.262674	0.087819
706.463281	0.087605
706.663870	0.087454
706.864441	0.087193
707.064993	0.087151
707.265527	0.087166
707.466043	0.086910
707.666541	0.086938
707.867021	0.086887
708.067482	0.086786
708.267925	0.086828
708.468350	0.086947
708.668757	0.087149
708.869145	0.087129
709.069516	0.087194
709.269868	0.087395
709.470201	0.087497
709.670517	0.087666
709.870814	0.087809
710.071093	0.087866
710.271354	0.087949
710.471597	0.088029
710.671821	0.088135
710.872028	0.088059
711.072216	0.088068
711.272385	0.088212
711.472537	0.088182
711.672670	0.088333
711.872785	0.088218
712.072882	0.088360
712.272961	0.088471
712.473021	0.088541
712.673063	0.088703
712.873087	0.088884
713.073093	0.088753
713.273081	0.088815
713.473050	0.088707
713.673001	0.088958
713.872934	0.088815
714.072849	0.088868
714.272745	0.088800
714.472623	0.088799
714.672483	0.088543
714.872325	0.088640
715.072148	0.088679
715.271954	0.088761
715.471741	0.088590
715.671509	0.088454
715.871260	0.088221
716.070992	0.088046
716.270707	0.087891
716.470403	0.087963
716.670080	0.087893
716.869740	0.087799
717.069381	0.087732
717.269004	0.087805
717.468609	0.087880
717.668195	0.087813
717.867764	0.087953
718.067314	0.087949
718.266846	0.087824
718.466360	0.087624
718.665855	0.087452
718.865332	0.087247
719.064791	0.087147
719.264232	0.087003
719.463655	0.087050
719.663059	0.087078
719.862445	0.087117
720.061813	0.087031
720.261163	0.087117
720.460494	0.087214
720.659807	0.087192
720.859102	0.087138
721.058379	0.087253
721.257638	0.087116
721.456878	0.087126
721.656100	0.087011
721.855304	0.086971
722.054490	0.086981
722.253657	0.087005
722.452806	0.087074
722.651937	0.087156
722.851050	0.087022
723.050145	0.087140
723.249221	0.087059
723.448279	0.086999
723.647319	0.087130
723.846340	0.087233
724.045344	0.087268
724.244329	0.087404
724.443296	0.087370
724.642245	0.087551
724.841175	0.087643
725.040088	0.087683
725.238982	0.087794
725.437857	0.087805
725.636715	0.087608
725.835554	0.087474
726.034376	0.087201
726.233179	0.087047
726.431963	0.086859
726.630730	0.086659
726.829478	0.086560
727.028208	0.086512
727.226920	0.086474
727.425614	0.086399
727.624289	0.086509
727.822946	0.086612
728.021585	0.086676
728.220206	0.086463
728.418808	0.086555
728.617392	0.086540
728.815958	0.086359
729.014506	0.086372
729.213036	0.086358
729.411547	0.086235
729.610040	0.086123
729.808515	0.086028
730.006972	0.086066
730.205410	0.086014
730.403831	0.085940
730.602233	0.085865
730.800616	0.085824
730.998982	0.085981
731.197329	0.085923
731.395658	0.086036
731.593969	0.086167
731.792262	0.086228
731.990536	0.086229
732.188793	0.086432
732.387031	0.086538
732.585250	0.086565
732.783452	0.086408
732.981635	0.086262
733.179800	0.086349
733.377947	0.086273
733.576076	0.086338
733.774186	0.086296
733.972278	0.086026
734.170352	0.085959
734.368408	0.085741
734.566446	0.085791
734.764465	0.085880
734.962466	0.085605
735.160449	0.085319
735.358413	0.085272
735.556360	0.085203
735.754288	0.085016
735.952198	0.085278
736.150090	0.085466
736.347963	0.085249
736.545818	0.085228
736.743655	0.085298
736.941474	0.085517
737.139275	0.085451
737.337057	0.085493
737.534821	0.085788
737.732567	0.085556
737.930295	0.085572
738.128005	0.085704
738.325696	0.085747
738.523369	0.085950
738.721024	0.086055
738.918660	0.086176
739.116279	0.085956
739.313879	0.085756
739.511461	0.085541
739.709024	0.085174
739.906570	0.085264
740.104097	0.085161
740.301606	0.084808
740.499097	0.084656
740.696569	0.084535
740.894024	0.084672
741.091460	0.084672
741.288878	0.084993
741.486277	0.085224
741.683659	0.085046
741.881022	0.085011
742.078367	0.085112
742.275694	0.085067
742.473002	0.085188
742.670293	0.085099
742.867565	0.085199
743.064819	0.084954
743.262054	0.084664
743.459272	0.084806
743.656471	0.084749
743.853652	0.084889
744.050815	0.084929
744.247959	0.084878
744.445085	0.085049
744.642194	0.085170
744.839283	0.085492
745.036355	0.085744
745.233408	0.085645
745.430444	0.085845
745.627461	0.085767
745.824459	0.085866
746.021440	0.085800
746.218402	0.085641
746.415346	0.085468
746.612272	0.085297
746.809180	0.085348
747.006069	0.085423
747.202940	0.085220
747.399793	0.085094
747.596628	0.085041
747.793444	0.084925
747.990243	0.085162
748.187023	0.085250
748.383784	0.085086
748.580528	0.085210
748.777253	0.085053
748.973960	0.085255
749.170649	0.085248
749.367320	0.085190
749.563973	0.085238
749.760607	0.085004
749.957223	0.084859
750.153821	0.085010
750.350400	0.084752
750.546962	0.084801
750.743505	0.084810
750.940030	0.084784
751.136536	0.084624
751.333025	0.084502
751.529495	0.084487
751.725947	0.084698
751.922381	0.084601
752.118796	0.084397
752.315194	0.084415
752.511573	0.084231
752.707934	0.084337
752.904276	0.084577
753.100601	0.084658
753.296907	0.084722
753.493195	0.084572
753.689465	0.084468
753.885716	0.084711
754.081949	0.084719
754.278164	0.084855
754.474361	0.084837
754.670540	0.084795
754.866700	0.084833
755.062843	0.084932
755.258967	0.085046
755.455072	0.085166
755.651160	0.085203
755.847229	0.085266
756.043280	0.085065
756.239313	0.085035
756.435328	0.085160
756.631324	0.085343
756.827302	0.085212
757.023262	0.085163
757.219204	0.085225
757.415127	0.085349
757.611033	0.085392
757.806920	0.085603
758.002788	0.085636
758.198639	0.085550
758.394471	0.085567
758.590286	0.085572
758.786081	0.085440
758.981859	0.085583
759.177619	0.085371
759.373360	0.085196
759.569083	0.085053
759.764788	0.085110
759.960474	0.084807
760.156143	0.084626
760.351793	0.084528
760.547425	0.084577
760.743038	0.084179
760.938634	0.084152
761.134211	0.083961
761.329770	0.083792
761.525311	0.083446
761.720833	0.083489
761.916338	0.083278
762.111824	0.083314
762.307292	0.083178
762.502741	0.083361
762.698173	0.083379
762.893586	0.083521
763.088981	0.083558
763.284358	0.083442
763.479716	0.083524
763.675057	0.083626
763.870379	0.083592
764.065683	0.083474
764.260968	0.083318
764.456236	0.083296
764.651485	0.083344
764.846716	0.083510
765.041929	0.083857
765.237123	0.083799
765.432299	0.083742
765.627457	0.083912
765.822597	0.083943
766.017719	0.084067
766.212822	0.084109
766.407907	0.084022
766.602974	0.083974
766.798023	0.083974
766.993054	0.083900
767.188066	0.083792
767.383060	0.083653
767.578036	0.083699
767.772993	0.083530
767.967933	0.083398
768.162854	0.083476
768.357757	0.083398
768.552642	0.083081
768.747508	0.083100
768.942356	0.083215
769.137186	0.082989
769.331998	0.082793
769.526792	0.082856
769.721567	0.082757
769.916324	0.082538
770.111063	0.082402
770.305784	0.082555
770.500486	0.082454
770.695171	0.082307
770.889837	0.082420
771.084484	0.082608
771.279114	0.082596
771.473725	0.082669
771.668318	0.082500
771.862893	0.082663
772.057450	0.082489
772.251988	0.082411
772.446509	0.082427
772.641011	0.082359
772.835494	0.082308
773.029960	0.082203
773.224407	0.082030
773.418836	0.082185
773.613247	0.082119
773.807640	0.082285
774.002014	0.082345
774.196370	0.082504
774.390708	0.082446
774.585028	0.082362
774.779330	0.082305
774.973613	0.082395
775.167878	0.082475
775.362125	0.082299
775.556354	0.082237
775.750564	0.082223
775.944756	0.082132
776.138930	0.082181
776.333086	0.082069
776.527223	0.082170
776.721343	0.082261
776.915444	0.081977
777.109526	0.081988
777.303591	0.081955
777.497637	0.081936
777.691666	0.081919
777.885676	0.082025
778.079667	0.082177
778.273641	0.082209
778.467596	0.082215
778.661533	0.082337
778.855452	0.082435
779.049352	0.082602
779.243235	0.082560
779.437099	0.082318
779.630945	0.082184
779.824773	0.081956
780.018582	0.081886
780.212373	0.081742
780.406146	0.081734
780.599901	0.081623
780.793638	0.081378
780.987356	0.081450
781.181056	0.081630
781.374738	0.081528
781.568402	0.081810
781.762047	0.081898
781.955674	0.082018
782.149283	0.082065
782.342874	0.082202
782.536447	0.082278
782.730001	0.082199
782.923537	0.082211
783.117055	0.082484
783.310555	0.082355
783.504036	0.082423
783.697499	0.082311
783.890944	0.082380
784.084371	0.082329
784.277780	0.082185
784.471170	0.082269
784.664542	0.082270
784.857896	0.082149
785.051231	0.082180
785.244549	0.082088
785.437848	0.082214
785.631129	0.082246
785.824392	0.082373
786.017636	0.082472
786.210863	0.082484
786.404071	0.082800
786.597260	0.082812
786.790432	0.082990
786.983585	0.082804
787.176721	0.082673
787.369838	0.082694
787.562936	0.082418
787.756017	0.082604
787.949079	0.082789
788.142123	0.082613
788.335149	0.082626
788.528156	0.082677
788.721146	0.083031
788.914117	0.083106
789.107070	0.083067
789.300005	0.083266
789.492921	0.083091
789.685819	0.083233
789.878699	0.083208
790.071561	0.083452
790.264405	0.083480
790.457230	0.083307
790.650037	0.083365
790.842826	0.083618
791.035597	0.083690
791.228349	0.083956
791.421084	0.083813
791.613800	0.083897
791.806497	0.083744
791.999177	0.083821
792.191838	0.084180
792.384481	0.084416
792.577106	0.084462
792.769713	0.084507
792.962301	0.084524
793.154871	0.084737
793.347423	0.084715
793.539957	0.084900
793.732473	0.084832
793.924970	0.084731
794.117449	0.084758
794.309910	0.084709
794.502353	0.084761
794.694777	0.084772
794.887183	0.084678
795.079571	0.084897
795.271941	0.084721
795.464293	0.084668
795.656626	0.084467
795.848941	0.084385
796.041238	0.084292
796.233516	0.084425
796.425777	0.084444
796.618019	0.084560
796.810243	0.084474
797.002449	0.084389
797.194636	0.084401
797.386805	0.084425
797.578956	0.084448
797.771089	0.084430
797.963204	0.084185
798.155300	0.084181
798.347378	0.083829
798.539438	0.083722
798.731480	0.083707
798.923503	0.083683
799.115509	0.083690
799.307496	0.083588
799.499465	0.083672
799.691415	0.083772
799.883348	0.083809
800.075262	0.083955
800.267158	0.084045
800.459035	0.083953
800.650895	0.083969
800.842736	0.083982
801.034559	0.084035
801.226364	0.084030
801.418150	0.084143
801.609919	0.084054
801.801669	0.084156
801.993401	0.084225
802.185114	0.084519
802.376810	0.084622
802.568487	0.084718
802.760146	0.084712
802.951787	0.084613
803.143409	0.084540
803.335014	0.084844
803.526600	0.084945
803.718168	0.084933
803.909717	0.085031
804.101249	0.085186
804.292762	0.085453
804.484257	0.085555
804.675734	0.085696
804.867192	0.085923
805.058632	0.085853
805.250054	0.085832
805.441458	0.085883
805.632844	0.085894
805.824211	0.085716
806.015561	0.085628
806.206891	0.085627
806.398204	0.085876
806.589499	0.085816
806.780775	0.085898
806.972033	0.086073
807.163273	0.086021
807.354495	0.086012
807.545698	0.086414
807.736883	0.086424
807.928050	0.086570
808.119199	0.086528
808.310329	0.086699
808.501441	0.086511
808.692535	0.086167
808.883611	0.086399
809.074669	0.086436
809.265708	0.086369
809.456729	0.086324
809.647732	0.086364
809.838717	0.086362
810.029683	0.086139
810.220632	0.086344
810.411562	0.086736
810.602474	0.086707
810.793367	0.086649
810.984242	0.086739
811.175100	0.086920
811.365938	0.087147
811.556759	0.087114
811.747562	0.087396
811.938346	0.087620
812.129112	0.087796
812.319860	0.087992
812.510589	0.088396
812.701300	0.088292
812.891994	0.088126
813.082668	0.088027
813.273325	0.088081
813.463964	0.087981
813.654584	0.087808
813.845186	0.087683
814.035769	0.087636
814.226335	0.087557
814.416882	0.087517
814.607411	0.087775
814.797922	0.087662
814.988415	0.087758
815.178889	0.088014
815.369345	0.087914
815.559783	0.087900
815.750203	0.087888
815.940605	0.087875
816.130988	0.087879
816.321353	0.087921
816.511700	0.088087
816.702028	0.088167
816.892339	0.088091
817.082631	0.088080
817.272905	0.088310
817.463161	0.088276
817.653398	0.088174
817.843617	0.088219
818.033819	0.088363
818.224001	0.088349
818.414166	0.088351
818.604312	0.088255
818.794440	0.088293
818.984550	0.088172
819.174642	0.088254
819.364716	0.088467
819.554771	0.088531
819.744808	0.088179
819.934827	0.088200
820.124827	0.088283
820.314810	0.088203
820.504774	0.088547
820.694720	0.088520
820.884647	0.088429
821.074557	0.088170
821.264448	0.088213
821.454321	0.088396
821.644176	0.088460
821.834012	0.088443
822.023831	0.088625
822.213631	0.088620
822.403413	0.088656
822.593176	0.088787
822.782922	0.089151
822.972649	0.089279
823.162358	0.089681
823.352049	0.089739
823.541721	0.089940
823.731376	0.090060
823.921012	0.089941
824.110629	0.090017
824.300229	0.090232
824.489811	0.090401
824.679374	0.090383
824.868919	0.090253
825.058445	0.090424
825.247954	0.090196
825.437444	0.090221
825.626916	0.090469
825.816370	0.090741
826.005806	0.090864
826.195223	0.090751
826.384622	0.090943
826.574003	0.091410
826.763366	0.091367
826.952711	0.091422
827.142037	0.091479
827.331345	0.091443
827.520635	0.091494
827.709906	0.091501
827.899160	0.091801
828.088395	0.091710
828.277612	0.091283
828.466810	0.091166
828.655991	0.091402
828.845153	0.091387
829.034297	0.091456
829.223423	0.091187
829.412531	0.090996
829.601620	0.090951
829.790691	0.091088
829.979744	0.091180
830.168779	0.091543
830.357795	0.091491
830.546793	0.091443
830.735773	0.091468
830.924735	0.091610
831.113679	0.091683
831.302604	0.091796
831.491511	0.091673
831.680400	0.091856
831.869271	0.091768
832.058123	0.092023
832.246957	0.092363
832.435773	0.092389
832.624571	0.092549
832.813351	0.092929
833.002112	0.092761
833.190855	0.093257
833.379580	0.093289
833.568287	0.093338
833.756975	0.093294
833.945645	0.093308
834.134297	0.093201
834.322931	0.093066
834.511547	0.093255
834.700144	0.093601
834.888723	0.093578
835.077284	0.093520
835.265826	0.093480
835.454351	0.093568
835.642857	0.093733
835.831345	0.094211
836.019815	0.094343
836.208266	0.094321
836.396699	0.094284
836.585114	0.094306
836.773511	0.094482
836.961890	0.095209
837.150250	0.095387
837.338592	0.095312
837.526916	0.095451
837.715222	0.095756
837.903510	0.095620
838.091779	0.095628
838.280030	0.095664
838.468263	0.095583
838.656477	0.095465
838.844674	0.095630
839.032852	0.095855
839.221012	0.095691
839.409153	0.095739
839.597277	0.095882
839.785382	0.096177
839.973469	0.096540
840.161538	0.097002
840.349589	0.096797
840.537621	0.096817
840.725635	0.096932
840.913631	0.097352
841.101609	0.097654
841.289568	0.098061
841.477509	0.098133
841.665432	0.097979
841.853337	0.097705
842.041224	0.097955
842.229092	0.098011
842.416942	0.098031
842.604774	0.097680
842.792588	0.097344
842.980383	0.097223
843.168160	0.097092
843.355919	0.097034
843.543660	0.097181
843.731382	0.097100
843.919087	0.097208
844.106773	0.097635
844.294441	0.097800
844.482090	0.097922
844.669722	0.098022
844.857335	0.097991
845.044930	0.098264
845.232507	0.098569
845.420065	0.098658
845.607605	0.098807
845.795127	0.098590
845.982631	0.098906
846.170117	0.099112
846.357584	0.099120
846.545033	0.099103
846.732464	0.099244
846.919877	0.099282
847.107272	0.099415
847.294648	0.099531
847.482006	0.099523
847.669346	0.099589
847.856667	0.099953
848.043971	0.099974
848.231256	0.100509
848.418523	0.100576
848.605771	0.100647
848.793002	0.100913
848.980214	0.101017
849.167408	0.101217
849.354584	0.101176
849.541742	0.101210
849.728881	0.101472
849.916002	0.101385
850.103105	0.101460
850.290190	0.101347
850.477256	0.101179
850.664304	0.101054
850.851334	0.101021
851.038346	0.101257
851.225340	0.101398
851.412315	0.101198
851.599272	0.101475
851.786211	0.101230
851.973132	0.101309
852.160034	0.101629
852.346918	0.102028
852.533784	0.102128
852.720632	0.102226
852.907462	0.101968
853.094273	0.102172
853.281066	0.102217
853.467841	0.102630
853.654598	0.102977
853.841336	0.102846
854.028056	0.102910
854.214758	0.103026
854.401442	0.103173
854.588107	0.103246
854.774755	0.103331
854.961384	0.103229
855.147995	0.103231
855.334587	0.103289
855.521162	0.103321
855.707718	0.103114
855.894256	0.103149
856.080775	0.102866
856.267277	0.103052
856.453760	0.103228
856.640225	0.103300
856.826672	0.103239
857.013101	0.103444
857.199511	0.103729
857.385903	0.103903
857.572277	0.104208
857.758633	0.104414
857.944970	0.104537
858.131290	0.104641
858.317591	0.104780
858.503873	0.105141
858.690138	0.105233
858.876384	0.105244
859.062612	0.105452
859.248822	0.105410
859.435014	0.105510
859.621188	0.105802
859.807343	0.105908
859.993480	0.106138
860.179599	0.106389
860.365699	0.106423
860.551781	0.106668
860.737846	0.106700
860.923891	0.107075
861.109919	0.107137
861.295929	0.107102
861.481920	0.106948
861.667893	0.106996
861.853848	0.106986
862.039784	0.106916
862.225702	0.106545
862.411603	0.106183
862.597484	0.106122
862.783348	0.106562
862.969193	0.106777
863.155021	0.106870
863.340830	0.106640
863.526620	0.106341
863.712393	0.106411
863.898147	0.106488
864.083883	0.107196
864.269601	0.107198
864.455301	0.107130
864.640982	0.107097
864.826645	0.107524
865.012290	0.108143
865.197917	0.108530
865.383526	0.108814
865.569116	0.109361
865.754688	0.108971
865.940242	0.109154
866.125777	0.109238
866.311295	0.109317
866.496794	0.109147
866.682275	0.109152
866.867737	0.109215
867.053182	0.109095
867.238608	0.109267
867.424016	0.109684
867.609406	0.109503
867.794778	0.109465
867.980131	0.109392
868.165466	0.109654
868.350783	0.109653
868.536082	0.109701
868.721362	0.109700
868.906625	0.109408
869.091869	0.109482
869.277094	0.109827
869.462302	0.109906
869.647491	0.109889
869.832662	0.109770
870.017815	0.109738
870.202950	0.109711
870.388066	0.110014
870.573165	0.110144
870.758245	0.110084
870.943306	0.110054
871.128350	0.110046
871.313375	0.110434
871.498382	0.110681
871.683371	0.110823
871.868342	0.111056
872.053294	0.111024
872.238229	0.110997
872.423144	0.111035
872.608042	0.111036
872.792922	0.111371
872.977783	0.111164
873.162626	0.110884
873.347451	0.110755
873.532258	0.110695
873.717046	0.110884
873.901816	0.111188
874.086568	0.111272
874.271302	0.111549
874.456017	0.111510
874.640715	0.111741
874.825394	0.112042
875.010055	0.112325
875.194697	0.112509
875.379322	0.113021
875.563928	0.113122
875.748516	0.113213
875.933085	0.113309
876.117637	0.113301
876.302170	0.113440
876.486685	0.113433
876.671182	0.113110
876.855661	0.113183
877.040121	0.112888
877.224563	0.113174
877.408987	0.113300
877.593393	0.113407
877.777780	0.113602
877.962150	0.113584
878.146501	0.113727
878.330833	0.114150
878.515148	0.114112
878.699444	0.113897
878.883722	0.113868
879.067982	0.113995
879.252224	0.113640
879.436447	0.113637
879.620653	0.113637
879.804840	0.113370
879.989008	0.113248
880.173159	0.113384
880.357291	0.113444
880.541405	0.113101
880.725501	0.113017
880.909579	0.113069
881.093638	0.113297
881.277680	0.113434
881.461703	0.113859
881.645707	0.113916
881.829694	0.113883
882.013662	0.113802
882.197612	0.114123
882.381544	0.113973
882.565458	0.114494
882.749353	0.114451
882.933230	0.114619
883.117089	0.114666
883.300930	0.114808
883.484753	0.114850
883.668557	0.115003
883.852343	0.115080
884.036111	0.115470
884.219861	0.115236
884.403592	0.114859
884.587305	0.114564
884.771000	0.114585
884.954677	0.114299
885.138335	0.114351
885.321976	0.114257
885.505598	0.113969
885.689201	0.113556
885.872787	0.113641
886.056354	0.113739
886.239904	0.113572
886.423434	0.113343
886.606947	0.113565
886.790442	0.113514
886.973918	0.113961
887.157376	0.114227
887.340816	0.114394
887.524237	0.113976
887.707641	0.113813
887.891026	0.114024
888.074393	0.114157
888.257741	0.114213
888.441072	0.114400
888.624384	0.113836
888.807678	0.113645
888.990954	0.113936
889.174211	0.114470
889.357451	0.114903
889.540672	0.115256
889.723875	0.115233
889.907059	0.115194
890.090226	0.115109
890.273374	0.115433
890.456504	0.115965
890.639616	0.116034
890.822709	0.115754
891.005785	0.115622
891.188842	0.115546
891.371881	0.115847
891.554901	0.116057
891.737904	0.116105
891.920888	0.116484
892.103854	0.116210
892.286802	0.116087
892.469731	0.115922
892.652643	0.115931
892.835536	0.115911
893.018410	0.115730
893.201267	0.115499
893.384106	0.114847
893.566926	0.114507
893.749728	0.114400
893.932511	0.114463
894.115277	0.114686
894.298024	0.114671
894.480753	0.114440
894.663464	0.114715
894.846157	0.114771
895.028831	0.115463
895.211487	0.115154
895.394125	0.115370
895.576745	0.115362
895.759346	0.115471
895.941930	0.115767
896.124495	0.116082
896.307041	0.115979
896.489570	0.115979
896.672080	0.115833
896.854573	0.116253
897.037046	0.116017
897.219502	0.115545
897.401940	0.115459
897.584359	0.115309
897.766760	0.114909
897.949143	0.115102
898.131507	0.115431
898.313854	0.115690
898.496182	0.115297
898.678492	0.115102
898.860783	0.115476
899.043057	0.115733
899.225312	0.115386
899.407549	0.115596
899.589768	0.114993
899.771968	0.114428
899.954151	0.114276
900.136315	0.114283
900.318461	0.114622
900.500588	0.114470
900.682698	0.114100
900.864789	0.113942
901.046862	0.114062
901.228917	0.114000
901.410953	0.114246
901.592971	0.114096
901.774972	0.114104
901.956953	0.113762
902.138917	0.113742
902.320862	0.113477
902.502790	0.113543
902.684699	0.113552
902.866589	0.113635
903.048462	0.113581
903.230316	0.113745
903.412152	0.113722
903.593970	0.113740
903.775770	0.113532
903.957551	0.113703
904.139314	0.113841
904.321059	0.113499
904.502786	0.113587
904.684494	0.113326
904.866185	0.112886
905.047857	0.112813
905.229510	0.113045
905.411146	0.113018
905.592763	0.113025
905.774363	0.112881
905.955943	0.112777
906.137506	0.112724
906.319051	0.112691
906.500577	0.112793
906.682085	0.113049
906.863575	0.112645
907.045046	0.113019
907.226500	0.112801
907.407935	0.112838
907.589352	0.113017
907.770750	0.112812
907.952131	0.112534
908.133493	0.112483
908.314837	0.112049
908.496163	0.111827
908.677470	0.111257
908.858760	0.111415
909.040031	0.111580
909.221284	0.111356
909.402518	0.111426
909.583735	0.111390
909.764933	0.110997
909.946113	0.110904
910.127275	0.110878
910.308418	0.110679
910.489544	0.109890
910.670651	0.109742
910.851740	0.109188
911.032810	0.108613
911.213863	0.108700
911.394897	0.108255
911.575913	0.108062
911.756911	0.108312
911.937890	0.108534
912.118851	0.108612
912.299794	0.108204
912.480719	0.108455
912.661626	0.108463
912.842514	0.108259
913.023384	0.108706
913.204236	0.108984
913.385070	0.108554
913.565886	0.108203
913.746683	0.108293
913.927462	0.108376
914.108223	0.108091
914.288965	0.107723
914.469690	0.107710
914.650396	0.107221
914.831084	0.106558
915.011754	0.106132
915.192405	0.106037
915.373038	0.106473
915.553653	0.105936
915.734250	0.105409
915.914829	0.105475
916.095389	0.105281
916.275931	0.105316
916.456455	0.105583
916.636961	0.105832
916.817448	0.105608
916.997917	0.104647
917.178368	0.104869
917.358801	0.104957
917.539216	0.104554
917.719612	0.104125
917.899990	0.104182
918.080350	0.103893
918.260692	0.103582
918.441015	0.103483
918.621320	0.103573
918.801607	0.103522
918.981876	0.103411
919.162127	0.103688
919.342359	0.103385
919.522573	0.103068
919.702769	0.102704
919.882947	0.102628
920.063106	0.102638
920.243247	0.102515
920.423370	0.102087
920.603475	0.102036
920.783562	0.101746
920.963630	0.101906
921.143680	0.101952
921.323712	0.101928
921.503725	0.101649
921.683721	0.101697
921.863698	0.101316
922.043657	0.101093
922.223598	0.101155
922.403520	0.100832
922.583424	0.100481
922.763311	0.099962
922.943178	0.099832
923.123028	0.099392
923.302859	0.098969
923.482673	0.098857
923.662467	0.098524
923.842244	0.098270
924.022003	0.098188
924.201743	0.098512
924.381465	0.097902
924.561169	0.097822
924.740854	0.097953
924.920522	0.098008
925.100171	0.098080
925.279802	0.098257
925.459414	0.098044
925.639009	0.098098
925.818585	0.097753
925.998143	0.097474
926.177683	0.097547
926.357205	0.096969
926.536708	0.096566
926.716193	0.095980
926.895660	0.095530
927.075109	0.094784
927.254539	0.094431
927.433951	0.093935
927.613345	0.093880
927.792721	0.093207
927.972079	0.092788
928.151418	0.092407
928.330739	0.092511
928.510042	0.092045
928.689327	0.091951
928.868593	0.091994
929.047841	0.091494
929.227071	0.091562
929.406283	0.090668
929.585476	0.090888
929.764652	0.090743
929.943809	0.090732
930.122948	0.091047
930.302068	0.090845
930.481171	0.090328
930.660255	0.090208
930.839321	0.090200
931.018369	0.089962
931.197398	0.089827
931.376409	0.088853
931.555402	0.087801
931.734377	0.087148
931.913334	0.086577
932.092272	0.085985
932.271192	0.086122
932.450094	0.085796
932.628978	0.086433
932.807844	0.085895
932.986691	0.086142
933.165520	0.086189
933.344331	0.085371
933.523123	0.085599
933.701898	0.085782
933.880654	0.084695
934.059392	0.084608
934.238111	0.083705
934.416813	0.083289
934.595496	0.082743
934.774161	0.082103
934.952808	0.082327
935.131437	0.081860
935.310047	0.081192
935.488639	0.080977
935.667213	0.080661
935.845769	0.081061
936.024306	0.080765
936.202825	0.081061
936.381326	0.081008
936.559809	0.081009
936.738274	0.080532
936.916720	0.080483
937.095148	0.080248
937.273558	0.079245
937.451950	0.078515
937.630323	0.078572
937.808678	0.078321
937.987015	0.078068
938.165334	0.077600
938.343635	0.077127
938.521917	0.076397
938.700181	0.076626
938.878427	0.077221
939.056655	0.076952
939.234864	0.076776
939.413055	0.075819
939.591228	0.074944
939.769383	0.075030
939.947519	0.075479
940.125638	0.074952
940.303738	0.074271
940.481820	0.073710
940.659883	0.072590
940.837929	0.071973
941.015956	0.071996
941.193965	0.071335
941.371955	0.069652
941.549928	0.069194
941.727882	0.069309
941.905818	0.069427
942.083736	0.069388
942.261636	0.069667
942.439517	0.070385
942.617380	0.069361
942.795225	0.069430
942.973052	0.070822
943.150860	0.070733
943.328651	0.070795
943.506423	0.071099
943.684176	0.070391
943.861912	0.070386
944.039629	0.068444
944.217328	0.070212
944.395009	0.070323
944.572672	0.068269
944.750317	0.068924
944.927943	0.068199
945.105551	0.067756
945.283141	0.067938
945.460712	0.067399
945.638265	0.067986
945.815801	0.065559
945.993317	0.065711
946.170816	0.066569
946.348297	0.065001
946.525759	0.065746
946.703203	0.065863
946.880629	0.066000
947.058036	0.065091
947.235425	0.065509
947.412797	0.066904
947.590149	0.066042
947.767484	0.065964
947.944800	0.066907
948.122099	0.066550
948.299379	0.065865
948.476640	0.064353
948.653884	0.066059
948.831109	0.065285
949.008316	0.065003
949.185505	0.066050
949.362676	0.065525
949.539828	0.065005
949.716962	0.063487
949.894078	0.064137
950.071176	0.066719
950.248256	0.066530
950.425317	0.066186
950.602360	0.065455
950.779385	0.064679
950.956391	0.064637
951.133380	0.064694
951.310350	0.066112
951.487302	0.065369
951.664235	0.063420
951.841151	0.062383
952.018048	0.062961
952.194927	0.064524
952.371788	0.064888
952.548631	0.066451
952.725455	0.067185
952.902261	0.067492
953.079049	0.066269
953.255819	0.065612
953.432570	0.065760
953.609303	0.066364
953.786018	0.065832
953.962715	0.066629
954.139394	0.065633
954.316054	0.064015
954.492696	0.064317
954.669320	0.065288
954.845926	0.066467
955.022513	0.068281
955.199083	0.068271
955.375634	0.067643
955.552166	0.067863
955.728681	0.067015
955.905177	0.068472
956.081655	0.066996
956.258115	0.069608
956.434557	0.068093
956.610980	0.066685
956.787385	0.066583
956.963772	0.065143
957.140141	0.065559
957.316492	0.067045
957.492824	0.066778
957.669138	0.068233
957.845434	0.064222
958.021712	0.066171
958.197971	0.067331
958.374212	0.068955
958.550435	0.071362
958.726640	0.071030
958.902826	0.069965
959.078995	0.069901
959.255145	0.069780
959.431277	0.073567
959.607390	0.073809
959.783486	0.073399
959.959563	0.072214
960.135622	0.071162
960.311662	0.071492
960.487685	0.075258
960.663689	0.076988
960.839675	0.078391
961.015643	0.079033
961.191593	0.081248
961.367524	0.082412
961.543437	0.082739
961.719332	0.083743
961.895209	0.084598
962.071067	0.082657
962.246907	0.082169
962.422730	0.082479
962.598533	0.080697
962.774319	0.077950
962.950086	0.081673
963.125835	0.080461
963.301566	0.081287
963.477279	0.082477
963.652973	0.080514
963.828650	0.083654
964.004308	0.084499
964.179947	0.085500
964.355569	0.087317
964.531172	0.081968
964.706757	0.082720
964.882324	0.081759
965.057873	0.080337
965.233403	0.081049
965.408916	0.079467
965.584410	0.077546
965.759885	0.078727
965.935343	0.078299
966.110782	0.080452
966.286203	0.083433
966.461606	0.085071
966.636991	0.086832
966.812357	0.085476
966.987705	0.082471
967.163035	0.083459
967.338347	0.082289
967.513641	0.080775
967.688916	0.081017
967.864173	0.079506
968.039412	0.078202
968.214632	0.077566
968.389835	0.080408
968.565019	0.080938
968.740185	0.078196
968.915333	0.078862
969.090462	0.081863
969.265573	0.079878
969.440667	0.080128
969.615741	0.081542
969.790798	0.081375
969.965836	0.081303
970.140856	0.082589
970.315858	0.084293
970.490842	0.083469
970.665808	0.081467
970.840755	0.085219
971.015684	0.085918
971.190595	0.086693
971.365487	0.086472
971.540362	0.087070
971.715218	0.088255
971.890056	0.089513
972.064875	0.087081
972.239677	0.087392
972.414460	0.087697
972.589225	0.085869
972.763972	0.085422
972.938700	0.083644
973.113411	0.081647
973.288103	0.081471
973.462777	0.080707
973.637432	0.083669
973.812070	0.084654
973.986689	0.080181
974.161290	0.081849
974.335873	0.081459
974.510437	0.082021
974.684984	0.082605
974.859512	0.081381
975.034022	0.082335
975.208513	0.080688
975.382987	0.080404
975.557442	0.081999
975.731879	0.078821
975.906298	0.077382
976.080698	0.078473
976.255080	0.080761
976.429445	0.079662
976.603790	0.077316
976.778118	0.079250
976.952427	0.078105
977.126719	0.078687
977.300992	0.082342
977.475246	0.082703
977.649483	0.082516
977.823701	0.081377
977.997901	0.083090
978.172083	0.087102
978.346247	0.087112
978.520392	0.087558
978.694519	0.086995
978.868628	0.086901
979.042719	0.087598
979.216791	0.086898
979.390845	0.086685
979.564882	0.088011
979.738899	0.087403
979.912899	0.087235
980.086880	0.086907
980.260843	0.085864
980.434788	0.084353
980.608715	0.084933
980.782623	0.085642
980.956514	0.086790
981.130386	0.085204
981.304240	0.084432
981.478075	0.083423
981.651892	0.083546
981.825692	0.086072
981.999472	0.086572
982.173235	0.086602
982.346980	0.086810
982.520706	0.085482
982.694414	0.088500
982.868104	0.087675
983.041775	0.090583
983.215428	0.091852
983.389064	0.091774
983.562680	0.091369
983.736279	0.090106
983.909860	0.090303
984.083422	0.090182
984.256966	0.087745
984.430491	0.086392
984.603999	0.084770
984.777488	0.084949
984.950959	0.083122
985.124412	0.083011
985.297847	0.081366
985.471263	0.080689
985.644661	0.082564
985.818041	0.080964
985.991403	0.082436
986.164747	0.081832
986.338072	0.081381
986.511379	0.082416
986.684668	0.083416
986.857938	0.086155
987.031191	0.087311
987.204425	0.086053
987.377641	0.088983
987.550839	0.090663
987.724018	0.092285
987.897179	0.091770
988.070322	0.093884
988.243447	0.094022
988.416554	0.091975
988.589642	0.089593
988.762712	0.090509
988.935764	0.086269
989.108798	0.084898
989.281813	0.084529
989.454811	0.083462
989.627790	0.081701
989.800751	0.080495
989.973693	0.082657
990.146617	0.083745
990.319524	0.084081
990.492412	0.086063
990.665281	0.084955
990.838133	0.084523
991.010966	0.085163
991.183781	0.082804
991.356578	0.082240
991.529356	0.081363
991.702117	0.082571
991.874859	0.079171
992.047583	0.079320
992.220288	0.080926
992.392976	0.081086
992.565645	0.080515
992.738296	0.081939
992.910929	0.083928
993.083543	0.082631
993.256139	0.083058
993.428718	0.085358
993.601277	0.086973
993.773819	0.085420
993.946342	0.084116
994.118848	0.084988
994.291335	0.084165
994.463803	0.085270
994.636254	0.086621
994.808686	0.087216
994.981100	0.086727
995.153496	0.085256
995.325874	0.084434
995.498233	0.084776
995.670574	0.086483
995.842897	0.087117
996.015202	0.085688
996.187488	0.084618
996.359757	0.081770
996.532007	0.081457
996.704239	0.081671
996.876452	0.082908
997.048648	0.083007
997.220825	0.081124
997.392984	0.081979
997.565124	0.082520
997.737247	0.083617
997.909351	0.085084
998.081437	0.085612
998.253505	0.086166
998.425554	0.086435
998.597586	0.085410
998.769599	0.085452
998.941594	0.084022
999.113571	0.083285
999.285529	0.083268
999.457469	0.084266
999.629391	0.082581
999.801295	0.084046
999.973181	0.083704
1000.145048	0.084281
1000.316897	0.084764
1000.488728	0.085769
1000.660541	0.086410
1000.832335	0.086543
1001.004111	0.084491
1001.175869	0.085193
1001.347609	0.082126
1001.519331	0.082863
1001.691034	0.083185
1001.862719	0.081648
1002.034386	0.080790
1002.206035	0.078830
1002.377665	0.079628
1002.549277	0.080170
1002.720871	0.080762
1002.892447	0.081054
1003.064004	0.081108
1003.235544	0.080169
1003.407065	0.080843
1003.578568	0.082266
1003.750052	0.083141
1003.921519	0.083730
1004.092967	0.083852
1004.264397	0.084258
1004.435809	0.083211
1004.607202	0.082811
1004.778577	0.084470
1004.949934	0.086431
1005.121273	0.086556
1005.292594	0.086255
1005.463896	0.082511
1005.635180	0.081796
1005.806446	0.081473
1005.977694	0.082741
1006.148923	0.082308
1006.320135	0.082012
1006.491328	0.079946
1006.662503	0.078428
1006.833659	0.077110
1007.004798	0.079333
1007.175918	0.080512
1007.347020	0.080705
1007.518103	0.081597
1007.689169	0.083090
1007.860216	0.081252
1008.031245	0.081881
1008.202256	0.081358
1008.373248	0.082274
1008.544223	0.081207
1008.715179	0.079305
1008.886117	0.075244
1009.057036	0.073977
1009.227938	0.072417
1009.398821	0.073357
1009.569686	0.072813
1009.740533	0.073313
1009.911361	0.074623
1010.082172	0.075132
1010.252964	0.075984
1010.423738	0.080796
1010.594493	0.081212
1010.765231	0.082355
1010.935950	0.083734
1011.106651	0.083936
1011.277334	0.083821
1011.447998	0.083384
1011.618645	0.085012
1011.789273	0.086147
1011.959882	0.084665
1012.130474	0.084089
1012.301048	0.083928
1012.471603	0.083702
1012.642140	0.084432
1012.812658	0.083533
1012.983159	0.083806
1013.153641	0.082286
1013.324105	0.082112
1013.494551	0.083000
1013.664979	0.083973
1013.835388	0.085131
1014.005779	0.082927
1014.176152	0.081583
1014.346507	0.082137
1014.516843	0.079742
1014.687162	0.079034
1014.857462	0.077675
1015.027744	0.077557
1015.198007	0.077067
1015.368252	0.075629
1015.538480	0.077187
1015.708689	0.076837
1015.878879	0.076064
1016.049052	0.077073
1016.219206	0.077310
1016.389342	0.076859
1016.559460	0.075421
1016.729559	0.076171
1016.899641	0.076322
1017.069704	0.076029
1017.239749	0.076649
1017.409775	0.077132
1017.579784	0.077847
1017.749774	0.078041
1017.919746	0.077949
1018.089700	0.078635
1018.259635	0.076935
1018.429553	0.075045
1018.599452	0.074484
1018.769333	0.074381
1018.939195	0.076266
1019.109040	0.076926
1019.278866	0.075411
1019.448674	0.077262
1019.618464	0.078700
1019.788235	0.079085
1019.957989	0.080325
1020.127724	0.081056
1020.297441	0.081473
1020.467139	0.079708
1020.636820	0.078341
1020.806482	0.079839
1020.976126	0.079273
1021.145752	0.077547
1021.315359	0.077991
1021.484948	0.079243
1021.654519	0.079740
1021.824072	0.079981
1021.993607	0.081182
1022.163123	0.082043
1022.332621	0.080982
1022.502101	0.080798
1022.671563	0.081391
1022.841007	0.082081
1023.010432	0.081632
1023.179839	0.081379
1023.349228	0.082189
1023.518598	0.082123
1023.687951	0.082065
1023.857285	0.085223
1024.026601	0.085639
1024.195899	0.085223
1024.365178	0.085191
1024.534439	0.082883
1024.703682	0.081828
1024.872907	0.079989
1025.042114	0.081069
1025.211302	0.080459
1025.380472	0.078822
1025.549624	0.077901
1025.718758	0.079518
1025.887873	0.080640
1026.056970	0.081944
1026.226049	0.081187
1026.395110	0.082366
1026.564153	0.081104
1026.733177	0.080502
1026.902183	0.081806
1027.071171	0.083171
1027.240141	0.081302
1027.409092	0.078362
1027.578026	0.078968
1027.746940	0.081094
1027.915837	0.083013
1028.084716	0.081906
1028.253576	0.082950
1028.422418	0.080873
1028.591242	0.080577
1028.760048	0.080556
1028.928835	0.082204
1029.097604	0.083195
1029.266355	0.081235
1029.435088	0.078426
1029.603803	0.080212
1029.772499	0.080950
1029.941177	0.082000
1030.109837	0.082614
1030.278478	0.082567
1030.447102	0.080541
1030.615707	0.078130
1030.784294	0.080623
1030.952863	0.080440
1031.121413	0.078423
1031.289945	0.077951
1031.458460	0.077676
1031.626955	0.074526
1031.795433	0.076387
1031.963892	0.077195
1032.132334	0.078923
1032.300756	0.077726
1032.469161	0.078668
1032.637548	0.079057
1032.805916	0.078987
1032.974266	0.078271
1033.142598	0.079290
1033.310911	0.077484
1033.479207	0.079219
1033.647484	0.080438
1033.815743	0.080674
1033.983983	0.079026
1034.152206	0.080606
1034.320410	0.079784
1034.488596	0.079434
1034.656764	0.079359
1034.824914	0.078072
1034.993045	0.075198
1035.161158	0.072977
1035.329253	0.071505
1035.497330	0.072079
1035.665388	0.068873
1035.833428	0.069310
1036.001450	0.069365
1036.169454	0.071030
1036.337440	0.072312
1036.505407	0.075221
1036.673356	0.073795
1036.841287	0.074014
1037.009200	0.074863
1037.177094	0.077003
1037.344970	0.075843
1037.512828	0.077284
1037.680668	0.076828
1037.848489	0.076656
1038.016293	0.075884
1038.184078	0.077337
1038.351845	0.077488
1038.519593	0.077408
1038.687324	0.076811
1038.855036	0.077501
1039.022730	0.076485
1039.190406	0.075393
1039.358063	0.076514
1039.525702	0.076828
1039.693323	0.077342
1039.860926	0.078360
1040.028511	0.078117
1040.196077	0.078633
1040.363625	0.078031
1040.531155	0.078316
1040.698667	0.078067
1040.866161	0.077708
1041.033636	0.076139
1041.201093	0.075537
1041.368532	0.075242
1041.535952	0.075656
1041.703355	0.077212
1041.870739	0.078455
1042.038105	0.079705
1042.205452	0.080273
1042.372782	0.082180
1042.540093	0.082543
1042.707386	0.084357
1042.874661	0.086980
1043.041918	0.088778
1043.209156	0.088904
1043.376376	0.089599
1043.543578	0.088934
1043.710762	0.088142
1043.877927	0.086538
1044.045074	0.087340
1044.212203	0.084166
1044.379314	0.083493
1044.546407	0.078808
1044.713481	0.076937
1044.880537	0.076650
1045.047575	0.074636
1045.214595	0.074567
1045.381596	0.074636
1045.548579	0.074820
1045.715544	0.076743
1045.882491	0.074909
1046.049420	0.075232
1046.216330	0.076518
1046.383222	0.076356
1046.550096	0.078296
1046.716951	0.078558
1046.883789	0.077310
1047.050608	0.077364
1047.217409	0.076599
1047.384192	0.076966
1047.550956	0.081148
1047.717703	0.079544
1047.884431	0.078446
1048.051140	0.078691
1048.217832	0.080355
1048.384505	0.079705
1048.551161	0.080183
1048.717798	0.080389
1048.884416	0.079694
1049.051017	0.076833
1049.217599	0.076050
1049.384163	0.076026
1049.550709	0.075777
1049.717237	0.074078
1049.883746	0.076060
1050.050237	0.074573
1050.216710	0.075071
1050.383165	0.075313
1050.549601	0.076770
1050.716019	0.077350
1050.882420	0.077558
1051.048801	0.075573
1051.215165	0.076034
1051.381510	0.074517
1051.547837	0.072809
1051.714146	0.072587
1051.880437	0.072291
1052.046709	0.073303
1052.212964	0.074110
1052.379200	0.074007
1052.545417	0.076209
1052.711617	0.075446
1052.877798	0.075443
1053.043961	0.077944
1053.210106	0.077280
1053.376233	0.077737
1053.542341	0.075389
1053.708432	0.074762
1053.874504	0.075185
1054.040557	0.074170
1054.206593	0.074366
1054.372610	0.075470
1054.538609	0.076447
1054.704590	0.079024
1054.870553	0.078614
1055.036497	0.079555
1055.202424	0.080648
1055.368331	0.082763
1055.534221	0.083202
1055.700093	0.084974
1055.865946	0.084893
1056.031781	0.081936
1056.197598	0.078940
1056.363397	0.078375
1056.529177	0.077555
1056.694939	0.076337
1056.860683	0.073401
1057.026409	0.073429
1057.192116	0.071349
1057.357806	0.072530
1057.523477	0.076279
1057.689130	0.076550
1057.854764	0.078403
1058.020381	0.077670
1058.185979	0.078538
1058.351559	0.080478
1058.517120	0.079419
1058.682664	0.080076
1058.848189	0.078107
1059.013696	0.075538
1059.179185	0.075016
1059.344656	0.071890
1059.510108	0.073463
1059.675542	0.074649
1059.840958	0.074663
1060.006356	0.075683
1060.171735	0.074439
1060.337096	0.075911
1060.502439	0.075925
1060.667764	0.077630
1060.833071	0.078929
1060.998359	0.077461
1061.163629	0.075653
1061.328881	0.075007
1061.494115	0.075966
1061.659330	0.077551
1061.824527	0.075495
1061.989706	0.076819
1062.154867	0.074664
1062.320010	0.075556
1062.485134	0.077196
1062.650240	0.078507
1062.815328	0.078352
1062.980398	0.076296
1063.145449	0.075437
1063.310482	0.073849
1063.475497	0.073371
1063.640494	0.074841
1063.805473	0.072760
1063.970433	0.072271
1064.135375	0.073177
1064.300299	0.073991
1064.465204	0.074641
1064.630092	0.075993
1064.794961	0.077154
1064.959812	0.074580
1065.124645	0.075389
1065.289459	0.075913
1065.454256	0.075290
1065.619034	0.073603
1065.783793	0.071468
1065.948535	0.071377
1066.113258	0.070975
1066.277964	0.072066
1066.442651	0.073814
1066.607319	0.073819
1066.771970	0.074478
1066.936602	0.074808
1067.101216	0.074145
1067.265812	0.076535
1067.430389	0.077027
1067.594949	0.075017
1067.759490	0.073463
1067.924013	0.073722
1068.088518	0.073177
1068.253004	0.073931
1068.417472	0.072798
1068.581922	0.072930
1068.746354	0.069577
1068.910768	0.067582
1069.075163	0.068780
1069.239540	0.071069
1069.403899	0.071324
1069.568240	0.067806
1069.732562	0.068242
1069.896866	0.069519
1070.061152	0.069782
1070.225420	0.071233
1070.389670	0.072213
1070.553901	0.074071
1070.718114	0.073116
1070.882309	0.071279
1071.046486	0.075296
1071.210644	0.073877
1071.374784	0.073422
1071.538906	0.071716
1071.703010	0.071279
1071.867096	0.071337
1072.031163	0.070138
1072.195212	0.070704
1072.359243	0.071935
1072.523256	0.070891
1072.687250	0.070074
1072.851226	0.073033
1073.015184	0.074191
1073.179124	0.074596
1073.343045	0.074233
1073.506949	0.073663
1073.670834	0.075315
1073.834701	0.075037
1073.998549	0.074284
1074.162380	0.073969
1074.326192	0.068533
1074.489986	0.068453
1074.653761	0.067461
1074.817519	0.070400
1074.981258	0.071126
1075.144979	0.068804
1075.308682	0.067795
1075.472367	0.070572
1075.636033	0.071641
1075.799681	0.075884
1075.963311	0.073139
1076.126923	0.072035
1076.290516	0.067542
1076.454092	0.065417
1076.617649	0.067834
1076.781187	0.068932
1076.944708	0.068186
1077.108210	0.067621
1077.271695	0.067673
1077.435160	0.072162
1077.598608	0.073290
1077.762038	0.073668
1077.925449	0.073430
1078.088842	0.072687
1078.252217	0.072063
1078.415573	0.069211
1078.578912	0.070494
1078.742232	0.069465
1078.905534	0.068596
1079.068817	0.069912
1079.232083	0.073154
1079.395330	0.072902
1079.558559	0.073422
1079.721770	0.074333
1079.884962	0.073831
1080.048136	0.075638
1080.211293	0.077058
1080.374430	0.076854
1080.537550	0.077781
1080.700651	0.076939
1080.863735	0.081188
1081.026800	0.077792
1081.189846	0.078584
1081.352875	0.079218
1081.515885	0.077264
1081.678877	0.074610
1081.841851	0.072760
1082.004807	0.071420
1082.167744	0.070382
1082.330663	0.067726
1082.493564	0.068738
1082.656447	0.064287
1082.819312	0.065291
1082.982158	0.064368
1083.144986	0.066534
1083.307796	0.069264
1083.470587	0.069169
1083.633361	0.068615
1083.796116	0.068800
1083.958853	0.068012
1084.121571	0.071361
1084.284272	0.073481
1084.446954	0.073787
1084.609618	0.071544
1084.772264	0.067479
1084.934892	0.066935
1085.097501	0.066960
1085.260092	0.066750
1085.422665	0.067117
1085.585220	0.066877
1085.747756	0.063484
1085.910274	0.064510
1086.072774	0.064695
1086.235256	0.070281
1086.397720	0.071857
1086.560165	0.072702
1086.722592	0.072551
1086.885001	0.071812
1087.047392	0.072308
1087.209764	0.074318
1087.372119	0.076234
1087.534455	0.078630
1087.696772	0.074621
1087.859072	0.074200
1088.021353	0.073142
1088.183616	0.076693
1088.345861	0.077387
1088.508088	0.075427
1088.670296	0.076802
1088.832486	0.075362
1088.994658	0.073050
1089.156812	0.071703
1089.318948	0.071260
1089.481065	0.073009
1089.643164	0.070213
1089.805245	0.072117
1089.967308	0.075573
1090.129352	0.072259
1090.291378	0.071121
1090.453386	0.070295
1090.615376	0.074744
1090.777347	0.077442
1090.939301	0.074442
1091.101236	0.074252
1091.263153	0.074147
1091.425051	0.073659
1091.586932	0.074684
1091.748794	0.075113
1091.910638	0.075784
1092.072463	0.076820
1092.234271	0.072706
1092.396060	0.072250
1092.557831	0.071597
1092.719584	0.069360
1092.881319	0.070746
1093.043035	0.068533
1093.204733	0.067029
1093.366413	0.068572
1093.528075	0.066196
1093.689718	0.067276
1093.851343	0.071980
1094.012950	0.075135
1094.174539	0.077190
1094.336110	0.074987
1094.497662	0.076369
1094.659196	0.074795
1094.820712	0.072981
1094.982210	0.069442
1095.143689	0.069159
1095.305151	0.066674
1095.466594	0.064103
1095.628018	0.060335
1095.789425	0.060547
1095.950813	0.059592
1096.112183	0.060926
1096.273535	0.063241
1096.434869	0.066380
1096.596184	0.067241
1096.757482	0.066656
1096.918761	0.066733
1097.080021	0.072804
1097.241264	0.072441
1097.402488	0.074541
1097.563694	0.075956
1097.724882	0.071102
1097.886052	0.067017
1098.047203	0.065042
1098.208336	0.065813
1098.369451	0.065803
1098.530548	0.063507
1098.691627	0.061102
1098.852687	0.062941
1099.013729	0.061481
1099.174753	0.066839
1099.335758	0.071131
1099.496746	0.071012
1099.657715	0.068781
1099.818666	0.068577
1099.979599	0.064923
1100.140513	0.064140
1100.301409	0.063142
1100.462287	0.064606
1100.623147	0.062657
1100.783989	0.061356
1100.944812	0.066724
1101.105617	0.071448
1101.266404	0.071595
1101.427173	0.074814
1101.587923	0.075891
1101.748656	0.074471
1101.909370	0.073141
1102.070066	0.071250
1102.230743	0.070551
1102.391403	0.066248
1102.552044	0.064001
1102.712667	0.065975
1102.873271	0.059929
1103.033858	0.063136
1103.194426	0.063037
1103.354976	0.066069
1103.515508	0.070835
1103.676021	0.069872
1103.836517	0.071652
1103.996994	0.069737
1104.157453	0.072369
1104.317893	0.076696
1104.478316	0.078616
1104.638720	0.077566
1104.799106	0.068905
1104.959474	0.067503
1105.119823	0.070266
1105.280155	0.069331
1105.440468	0.070210
1105.600763	0.065990
1105.761039	0.063823
1105.921298	0.059050
1106.081538	0.058786
1106.241760	0.064565
1106.401964	0.058806
1106.562149	0.058256
1106.722316	0.057959
1106.882465	0.057555
1107.042596	0.056350
1107.202709	0.056133
1107.362803	0.061561
1107.522879	0.062370
1107.682937	0.065248
1107.842977	0.066780
1108.002999	0.065194
1108.163002	0.064625
1108.322987	0.063715
1108.482954	0.068831
1108.642902	0.066628
1108.802833	0.062376
1108.962745	0.059883
1109.122639	0.055369
1109.282515	0.055015
1109.442372	0.056559
1109.602211	0.055700
1109.762032	0.057811
1109.921835	0.056198
1110.081620	0.064425
1110.241386	0.066836
1110.401134	0.068038
1110.560864	0.068870
1110.720576	0.069015
1110.880269	0.073558
1111.039945	0.075814
1111.199602	0.071769
1111.359240	0.067608
1111.518861	0.067918
1111.678463	0.066681
1111.838047	0.072205
1111.997613	0.069583
1112.157161	0.075898
1112.316690	0.073636
1112.476202	0.069843
1112.635695	0.073455
1112.795169	0.080660
1112.954626	0.075492
1113.114064	0.074410
1113.273484	0.071770
1113.432886	0.073052
1113.592270	0.064690
1113.751635	0.060438
1113.910983	0.060922
1114.070312	0.059225
1114.229622	0.057498
1114.388915	0.058871
1114.548189	0.056764
1114.707445	0.057088
1114.866683	0.064757
1115.025903	0.066932
1115.185104	0.070359
1115.344287	0.074054
1115.503452	0.077314
1115.662599	0.071518
1115.821727	0.071631
1115.980838	0.076694
1116.139930	0.072183
1116.299004	0.068934
1116.458059	0.078050
1116.617097	0.080988
1116.776116	0.078445
1116.935117	0.077830
1117.094099	0.077463
1117.253064	0.081003
1117.412010	0.076978
1117.570938	0.078785
1117.729848	0.081585
1117.888740	0.072985
1118.047613	0.068462
1118.206468	0.070228
1118.365305	0.070202
1118.524124	0.073372
1118.682924	0.066057
1118.841707	0.066906
1119.000471	0.074103
1119.159216	0.069261
1119.317944	0.073174
1119.476653	0.070742
1119.635344	0.072064
1119.794017	0.071705
1119.952672	0.069352
1120.111308	0.073678
1120.269927	0.073762
1120.428527	0.069376
1120.587108	0.068243
1120.745672	0.062649
1120.904217	0.066202
1121.062744	0.067153
1121.221253	0.066821
1121.379744	0.072740
1121.538216	0.069468
1121.696671	0.070025
1121.855107	0.069994
1122.013524	0.071480
1122.171924	0.080658
1122.330305	0.084836
1122.488668	0.084972
1122.647013	0.092472
1122.805340	0.084264
1122.963648	0.089527
1123.121938	0.087681
1123.280210	0.087038
1123.438464	0.084526
1123.596700	0.078891
1123.754917	0.077380
1123.913116	0.072923
1124.071297	0.068186
1124.229459	0.069466
1124.387604	0.059610
1124.545730	0.065076
1124.703838	0.060336
1124.861928	0.066178
1125.019999	0.067030
1125.178052	0.061230
1125.336088	0.064463
1125.494104	0.061295
1125.652103	0.055364
1125.810083	0.063041
1125.968045	0.066045
1126.125989	0.075597
1126.283915	0.069028
1126.441823	0.065890
1126.599712	0.072975
1126.757583	0.067024
1126.915436	0.067479
1127.073270	0.072033
1127.231087	0.070715
1127.388885	0.065307
1127.546665	0.060822
1127.704426	0.064685
1127.862170	0.073987
1128.019895	0.066679
1128.177602	0.063937
1128.335291	0.057549
1128.492961	0.064085
1128.650614	0.064857
1128.808248	0.066509
1128.965864	0.065929
1129.123461	0.069702
1129.281041	0.061272
1129.438602	0.062787
1129.596145	0.066803
1129.753670	0.073584
1129.911176	0.068595
1130.068665	0.065433
1130.226135	0.067788
1130.383587	0.068912
1130.541020	0.061983
1130.698436	0.062361
1130.855833	0.065141
1131.013212	0.065755
1131.170573	0.070040
1131.327915	0.071009
1131.485239	0.080820
1131.642545	0.074928
1131.799833	0.073584
1131.957103	0.078859
1132.114354	0.073913
1132.271588	0.067961
1132.428803	0.071415
1132.585999	0.062225
1132.743178	0.066322
1132.900338	0.054166
1133.057480	0.057743
1133.214604	0.060895
1133.371710	0.054024
1133.528797	0.057853
1133.685866	0.057418
1133.842917	0.054002
1133.999950	0.057636
1134.156964	0.053001
1134.313960	0.054357
1134.470938	0.047915
1134.627898	0.045148
1134.784840	0.046235
1134.941763	0.043714
1135.098668	0.048089
1135.255555	0.053921
1135.412424	0.055210
1135.569274	0.059031
1135.726107	0.066876
1135.882921	0.075798
1136.039716	0.069215
1136.196494	0.073302
1136.353253	0.075306
1136.509995	0.070697
1136.666717	0.060051
1136.823422	0.061419
1136.980109	0.061697
1137.136777	0.063596
1137.293427	0.059064
1137.450059	0.063568
1137.606672	0.060768
1137.763267	0.056103
1137.919844	0.051107
1138.076403	0.059208
1138.232944	0.054253
1138.389466	0.057741
1138.545971	0.053081
1138.702457	0.048999
1138.858924	0.049601
1139.015374	0.054408
1139.171805	0.063247
1139.328218	0.081768
1139.484613	0.082696
1139.640990	0.081620
1139.797348	0.076334
1139.953688	0.076480
1140.110010	0.080409
1140.266314	0.081248
1140.422600	0.074375
1140.578867	0.080729
1140.735116	0.071353
1140.891347	0.063214
1141.047559	0.069893
1141.203754	0.072608
1141.359930	0.069017
1141.516088	0.065381
1141.672228	0.059870
1141.828349	0.062314
1141.984452	0.046329
1142.140537	0.049714
1142.296604	0.050515
1142.452653	0.044918
1142.608683	0.039889
1142.764695	0.040422
1142.920689	0.041911
1143.076665	0.051957
1143.232622	0.051140
1143.388562	0.059184
1143.544483	0.059146
1143.700385	0.063691
1143.856270	0.069397
1144.012136	0.067642
1144.167985	0.069111
1144.323814	0.072083
1144.479626	0.067690
1144.635420	0.068465
1144.791195	0.073551
1144.946952	0.072860
1145.102691	0.073515
1145.258411	0.076409
1145.414113	0.080713
1145.569798	0.081090
1145.725463	0.075556
1145.881111	0.082581
1146.036741	0.077426
1146.192352	0.070115
1146.347945	0.069275
1146.503519	0.060207
1146.659076	0.052801
1146.814614	0.048998
1146.970134	0.053729
1147.125636	0.065842
1147.281120	0.057781
1147.436585	0.071322
1147.592032	0.088138
1147.747461	0.081365
1147.902872	0.092053
1148.058265	0.096435
1148.213639	0.098381
1148.368995	0.087064
1148.524333	0.084706
1148.679653	0.083195
1148.834954	0.072034
1148.990237	0.054769
1149.145502	0.064119
1149.300749	0.062694
1149.455977	0.065009
1149.611188	0.064630
1149.766380	0.073133
1149.921553	0.059579
1150.076709	0.056869
1150.231846	0.058079
1150.386966	0.067371
1150.542066	0.062446
1150.697149	0.068087
1150.852214	0.064244
1151.007260	0.058569
1151.162288	0.053565
1151.317298	0.062019
1151.472289	0.062886
1151.627263	0.065040
1151.782218	0.060665
1151.937155	0.061451
1152.092073	0.056517
1152.246974	0.062213
1152.401856	0.065397
1152.556720	0.065544
1152.711566	0.056823
1152.866393	0.061464
1153.021203	0.062299
1153.175994	0.052973
1153.330767	0.049393
1153.485521	0.053363
1153.640258	0.048819
1153.794976	0.049381
1153.949676	0.055837
1154.104358	0.060772
1154.259021	0.062231
1154.413667	0.053999
1154.568294	0.067280
1154.722903	0.073935
1154.877493	0.075756
1155.032066	0.072184
1155.186620	0.079906
1155.341156	0.079860
1155.495674	0.086925
1155.650173	0.092481
1155.804654	0.092566
1155.959118	0.085497
1156.113562	0.079767
1156.267989	0.060792
1156.422397	0.063602
1156.576788	0.053892
1156.731160	0.056238
1156.885513	0.047473
1157.039849	0.033342
1157.194166	0.046783
1157.348465	0.049469
1157.502746	0.052552
1157.657009	0.055021
1157.811253	0.058112
1157.965479	0.072892
1158.119687	0.069720
1158.273877	0.061094
1158.428048	0.066815
1158.582201	0.057899
1158.736337	0.043458
1158.890453	0.041694
1159.044552	0.045556
1159.198632	0.046496
1159.352694	0.046458
1159.506738	0.043810
1159.660764	0.049023
1159.814771	0.052835
1159.968761	0.057511
1160.122732	0.076307
1160.276685	0.064704
1160.430619	0.063271
1160.584535	0.054525
1160.738434	0.053515
1160.892313	0.070965
1161.046175	0.084869
1161.200019	0.076398
1161.353844	0.067815
1161.507651	0.052748
1161.661440	0.078111
1161.815210	0.073063
1161.968962	0.093486
1162.122697	0.062964
1162.276412	0.045441
1162.430110	0.035559
1162.583789	0.033793
1162.737451	0.028142
1162.891094	0.021318
1163.044718	0.010459
1163.198325	0.031862
1163.351913	0.020992
1163.505483	0.047673
1163.659035	0.032455
1163.812569	0.030468
1163.966084	0.037527
1164.119581	0.047858
1164.273060	0.062267
1164.426521	0.061109
1164.579964	0.067974
1164.733388	0.064869
1164.886794	0.063899
1165.040182	0.082999
1165.193551	0.095421
1165.346903	0.091578
1165.500236	0.087368
1165.653551	0.089473
1165.806848	0.080667
1165.960126	0.053079
1166.113386	0.038864
1166.266628	0.029358
1166.419852	0.038546
1166.573058	0.019175
1166.726245	0.021568
1166.879414	0.017341
1167.032565	0.001646
1167.185698	0.010394
1167.338812	0.013713
1167.491909	0.021847
1167.644987	0.021562
1167.798046	-0.000684
1167.951088	0.007211
1168.104111	0.004629
1168.257117	-0.010465
1168.410103	-0.001609
1168.563072	0.000197
1168.716023	0.006850
1168.868955	-0.010368
1169.021869	-0.020541
1169.174765	-0.022877
1169.327642	-0.022562
1169.480501	-0.014835
1169.633343	0.000468
1169.786165	0.017148
1169.938970	0.011327
1170.091757	-0.004887
1170.244525	0.010100
1170.397275	0.033999
1170.550007	0.062698
1170.702720	0.052629
1170.855415	0.058866
1171.008092	0.053533
1171.160751	0.024745
1171.313392	0.012254
1171.466014	0.183857
1171.618619	-0.070967
1171.771205	-0.070967
1171.923772	-0.070967
