sample name	sample
index	788
start time	 03-31-2021  02:05:40 PM
880	0.666736
Peak Time (s)	92.535
Peak Height 	0.6667
calc peak height	90,93
Baseline Time (s)	11.538
Baseline Value 	-8.6542E-4
subtract baseline	10,4
Abs	0.446751
Peak Time (s)	91.538
Peak Height 	0.4468
calc peak height	90,93
Baseline Time (s)	9.037
Baseline Value 	0.001261
subtract baseline	10,3
PK_550	0.065136
Peak Time (s)	91.037
Peak Height 	0.06514
calc peak height	90,93
Baseline Time (s)	9.037
Baseline Value 	-5.0025E-4
subtract baseline	10,2
PK_880	0.410277
Peak Time (s)	92.535
Peak Height 	0.4103
calc peak height	90,93
Baseline Time (s)	11.538
Baseline Value 	-5.2586E-4
subtract baseline	10,1


Time (s)	A880-A510	A880-A775	A880-A975	A880	I510	I775	I975	I880	
0.036500	-0.000835	0.000193	-0.000887	0.000810	6815.041042	41031.609931	4092.213628	22426.551671
0.534500	-0.002151	0.000333	-0.006924	0.003128	6784.268520	40842.133722	4073.236945	22323.760960
1.037000	-0.002371	0.000109	-0.002571	0.002712	6785.912833	40858.757346	4084.023867	22342.148406
1.536000	0.000581	0.000504	0.003741	0.001454	6821.618444	41002.551763	4101.391820	22397.928538
2.035500	-0.000484	-0.000176	0.001856	0.000703	6818.937640	41008.769081	4098.770817	22431.300139
2.541000	-0.001286	0.000202	0.000164	0.000466	6814.139289	41062.462124	4095.419606	22441.879314
3.036000	0.002954	0.000080	-0.002133	-0.001852	6870.329100	41254.631028	4095.468218	22545.308096
3.536500	0.000824	0.000490	0.000956	-0.000334	6838.967135	41157.494032	4099.089685	22477.513488
4.036500	-0.001198	0.000722	0.001465	0.000089	6818.089000	41140.789859	4099.286456	22458.643909
4.539000	0.001387	0.000862	-0.000051	0.000410	6837.412893	41124.957550	4095.054313	22444.356396
5.037000	0.002392	0.001401	-0.002184	0.000877	6842.021812	41131.254171	4089.090895	22423.572185
5.804500	0.000847	0.000643	-0.001895	0.000089	6835.535322	41133.828707	4091.555167	22458.631848
6.452500	0.002070	0.000303	-0.004254	-0.000038	6847.103570	41115.262851	4086.452833	22464.296841
6.800000	-0.001525	-0.000223	-0.002119	0.002390	6795.790225	40857.941093	4085.785954	22356.437728
7.109500	0.000376	0.000527	-0.000333	0.000666	6826.586612	41073.320338	4093.817400	22432.955322
7.536000	-0.000258	0.000344	0.000105	-0.000121	6827.899345	41126.173800	4096.634571	22468.022989
8.036500	0.000156	0.000396	-0.002199	0.000049	6829.974648	41115.816602	4090.953201	22460.434490
8.539000	0.000660	0.000360	0.001199	0.000153	6833.401075	41103.547752	4098.524988	22455.808452
9.036500	0.000011	0.000000	0.000000	-0.000066	6829.726865	41091.267732	4096.267178	22465.572653
9.537000	-0.001101	-0.000124	-0.000656	-0.000590	6824.706324	41126.236313	4095.961616	22488.919489
10.037000	0.002169	-0.000457	-0.007156	-0.000354	6850.667748	41076.389995	4080.573798	22478.368291
10.534500	-0.000729	-0.000243	0.001210	0.000037	6822.532006	41061.082506	4098.818534	22460.979282
11.034500	-0.001632	0.000356	0.003387	0.000589	6810.156424	41065.191440	4102.577109	22436.405033
11.538000	0.000000	0.000467	-0.001608	0.000000	6829.063902	41126.287491	4092.418058	22462.611093
12.038500	0.001708	0.000930	-0.000451	0.000909	6835.884689	41087.273496	4092.987714	22422.135263
12.535500	-0.000046	0.000726	0.003299	0.000266	6826.393919	41125.647899	4103.121598	22450.744076
13.036500	0.003120	0.000760	0.001406	0.001178	6845.685498	41049.004709	4096.640734	22410.218312
13.536500	-0.000742	0.000106	0.000967	0.000571	6817.868046	41044.841263	4097.026839	22437.195039
14.037000	-0.002524	0.000744	-0.002882	0.002724	6784.527568	40912.910757	4083.290733	22341.631743
14.536000	-0.002996	-0.000279	-0.003450	0.002497	6782.461603	40843.724902	4082.515510	22351.684569
15.045500	-0.001530	-0.000324	0.001328	0.003456	6786.742549	40756.766135	4091.226831	22309.275816
15.537500	0.000540	0.000240	0.000100	0.001310	6822.495740	40992.142582	4093.332040	22404.354787
16.035000	-0.001339	0.000027	0.001323	0.000536	6813.088223	41040.984119	4097.927016	22438.742179
16.535500	0.001049	0.001159	0.004454	0.001651	6823.925225	41042.502807	4102.587937	22389.179500
17.035500	0.001482	0.000110	0.003858	0.000426	6838.086775	41057.837652	4104.044979	22443.620198
17.536500	0.000113	0.000505	-0.001272	0.001556	6816.768757	40993.787851	4089.625314	22393.432721
18.036500	-0.001856	-0.000572	-0.005345	0.001542	6800.163416	40901.291258	4080.383551	22394.041311
18.537500	-0.000701	0.000748	-0.003657	0.001943	6806.562157	40981.263787	4083.303729	22376.243353
19.036500	-0.000570	-0.000612	0.003119	0.001658	6810.094367	40887.732347	4099.483226	22388.899237
19.538500	0.000564	0.000470	0.005467	0.002120	6815.803711	40941.677089	4103.850756	22368.411052
20.034000	0.000021	0.000701	-0.003701	0.002193	6810.562314	40955.340791	4082.634974	22365.151273
20.537500	-0.002227	-0.000121	-0.002356	0.001716	6795.549210	40925.360571	4086.782287	22386.297958
21.034500	0.001100	0.000503	-0.002424	0.002036	6821.082214	40951.742414	4085.896777	22372.106971
21.538500	-0.001044	-0.000978	-0.005052	0.001294	6809.148491	40887.494748	4081.607983	22405.031512
22.035500	-0.000554	0.000409	-0.001401	0.002390	6804.008481	40912.814772	4087.423776	22356.423950
22.536000	0.000379	0.000451	0.001179	0.002646	6809.764763	40894.270577	4092.742555	22345.105574
23.036000	-0.002866	-0.000060	0.001332	0.001854	6788.977886	40918.633100	4094.910957	22380.171494
23.536500	0.000738	0.000328	-0.000645	0.002160	6816.939266	40925.779977	4089.676628	22366.621854
24.037000	-0.002050	-0.000650	-0.002909	0.001671	6797.427670	40883.307608	4085.624352	22388.303280
24.537000	0.000188	-0.000105	-0.003424	0.002029	6813.380375	40899.552183	4083.637917	22372.447724
25.035000	-0.002625	0.000909	-0.000501	0.002388	6786.510428	40956.493851	4089.484058	22356.509468
25.535000	-0.002804	-0.000287	-0.001881	0.001404	6793.312885	40938.087500	4088.579319	22400.161605
26.034500	-0.000842	-0.000038	-0.000565	0.002068	6804.301424	40901.964816	4090.070996	22370.715586
26.535500	-0.001794	-0.000354	-0.002354	0.001486	6801.163740	40925.030906	4087.312351	22396.509275
27.036000	0.000179	0.000328	0.001191	-0.000495	6834.825372	41157.373420	4100.004425	22484.677884
27.537500	-0.001544	0.000163	0.000584	0.000138	6814.725520	41087.631469	4097.141121	22456.442125
28.036500	0.000464	0.001478	0.005129	0.001621	6819.198862	41072.977727	4104.225069	22390.542031
28.536500	0.002013	-0.000367	0.000905	0.000916	6838.448840	40973.643487	4096.089945	22421.865892
29.037000	0.000411	-0.000144	-0.000523	0.001898	6816.391869	40907.564185	4090.557250	22378.254005
29.537500	0.000474	0.000409	0.000091	0.001559	6819.809699	40985.080648	4092.738045	22393.262372
30.034500	0.000668	0.000094	-0.005281	0.001259	6824.022116	40983.804869	4081.169135	22406.590315
30.535000	-0.001330	0.000052	-0.000429	0.002555	6796.046852	40867.476910	4089.269109	22349.130874
31.035000	-0.001987	0.000084	0.001552	0.003068	6786.160468	40825.772472	4092.631441	22326.426768
31.536000	-0.001431	0.000377	0.001885	0.001161	6807.001793	41017.027783	4097.782386	22410.954504
32.036000	-0.000385	0.000089	0.003625	0.000986	6817.372380	41007.214486	4102.207461	22418.726978
32.536000	-0.001033	-0.000001	-0.001594	0.001243	6809.685709	40976.976817	4089.603745	22407.325788
33.036500	0.000523	0.000314	0.000613	0.002671	6810.763950	40880.130303	4091.386041	22343.963382
33.536500	0.001119	0.000241	-0.000422	-0.001443	6850.997895	41232.802776	4098.466082	22526.985324
34.037000	-0.000526	0.000591	0.002824	0.002672	6801.860350	40904.095025	4096.463346	22343.919191
34.537500	-0.001496	0.000003	-0.001189	0.002515	6794.977505	40866.686200	4087.623404	22350.900818
35.034500	0.000330	0.000510	-0.000159	0.003011	6806.248314	40867.648682	4088.841829	22328.943673
35.538000	-0.002402	-0.000148	-0.002579	0.002269	6789.400971	40874.977641	4085.015018	22361.807930
36.035500	-0.000970	0.000115	-0.005248	0.002869	6796.430064	40845.745906	4077.599293	22335.232782
36.535000	-0.001003	-0.000244	-0.000956	0.002440	6799.790284	40851.763912	4088.326191	22354.227222
37.036000	-0.001159	0.000384	0.000182	0.003092	6792.948152	40849.744812	4089.437253	22325.368108
37.536500	-0.003287	-0.000216	0.000503	0.002491	6780.052002	40849.745105	4091.546594	22351.932762
38.037000	-0.000637	0.000132	-0.003063	0.002661	6801.006670	40865.190016	4083.021526	22344.411521
38.537500	-0.000635	0.000278	-0.003345	0.002831	6799.591415	40863.092784	4081.994535	22336.894074
39.036500	-0.004022	-0.000536	0.004485	0.002012	6777.902043	40863.552474	4101.824058	22373.182502
39.534500	-0.000475	0.000234	0.000019	0.002859	6800.708342	40856.836208	4089.597514	22335.655655
40.037500	0.000349	0.001162	0.003651	0.003429	6802.865515	40888.022260	4096.625414	22310.467188
40.536000	0.001220	0.000605	0.002133	0.002895	6814.789899	40886.005100	4094.361665	22334.071999
41.035500	-0.001752	0.000097	0.002681	0.002438	6793.457899	40881.529403	4096.673715	22354.287322
41.536000	-0.002474	0.000045	0.001287	0.002678	6785.334210	40856.184128	4092.916035	22343.666217
42.036500	-0.000650	-0.000502	-0.002271	0.002016	6806.370155	40866.211642	4086.293331	22373.008937
42.536500	0.001440	0.000987	0.003065	0.003594	6810.718692	40858.419349	4094.896308	22303.160212
43.036500	-0.000679	0.000093	-0.002816	0.002817	6799.335331	40848.326412	4083.230019	22337.538491
43.537000	-0.001259	0.000371	0.005557	0.001948	6801.779221	40947.972666	4104.456784	22376.001446
44.035000	0.000561	0.000348	0.003843	-0.002201	6852.718347	41308.755983	4110.127189	22560.922738
44.535000	0.000023	-0.000185	-0.001457	0.001171	6819.274556	40967.254268	4090.082787	22410.514637
45.038000	0.000132	0.000765	-0.001858	0.001740	6815.358492	41000.369698	4087.863003	22385.229553
45.535500	0.000407	0.000723	0.000899	0.001910	6816.249968	40981.923172	4093.787724	22377.692609
46.036000	0.001105	0.001015	0.000237	0.002005	6821.382024	40999.087255	4092.050441	22373.471725
46.536000	-0.000443	0.000661	0.000681	0.002073	6807.646721	40962.354862	4092.913712	22370.475184
47.036000	-0.002296	0.000362	-0.002765	0.002973	6784.353650	40858.143938	4082.991247	22330.631468
47.536500	-0.000272	0.000818	-0.004042	0.003587	6796.266473	40844.434001	4078.703435	22303.483581
48.037000	0.000666	0.000438	0.002342	0.001706	6820.194146	40974.836537	4097.578093	22386.742186
48.537000	0.001826	0.001102	0.004537	0.001613	6830.879366	41040.820019	4102.867798	22390.868555
49.034500	-0.001097	0.000235	0.002414	0.001683	6805.407382	40959.171532	4097.797774	22387.776567
49.535500	0.003433	0.000363	0.003200	-0.001374	6870.332806	41237.513967	4106.701666	22523.918480
50.035500	0.003812	0.001778	0.003939	0.001772	6846.517883	41085.934271	4101.116159	22383.820663
50.536000	-0.004064	-0.002511	0.008604	-0.000897	6802.120831	40944.761870	4118.229710	22502.599862
51.036000	-0.033932	0.000049	-0.004128	0.100164	5844.043415	33275.803280	3882.653093	18477.462020
51.536000	-0.042060	-0.011312	-0.004540	0.081523	5910.760685	33784.979996	3916.364023	19151.228528
52.036500	-0.013408	-0.026133	0.018464	-0.107034	7721.141656	48852.553964	4431.132028	27870.018934
52.536500	0.021582	-0.058993	0.042213	-0.255854	10144.919368	62839.134564	5082.419220	37987.756771
53.037000	0.031281	-0.047113	0.056453	-0.234081	9952.323740	61494.815897	5048.260267	36282.476384
53.537500	0.047524	-0.026189	0.077149	-0.175635	9319.737644	56665.846203	4885.751437	32106.200504
54.034500	0.087542	-0.007885	0.111958	-0.125987	9183.781000	52939.677637	4825.637786	28974.297672
54.538000	0.125474	0.013303	0.145941	-0.055851	8750.486564	47633.039325	4687.503309	25117.880031
55.035500	0.156108	0.028890	0.172518	-0.022550	8716.031036	45855.369706	4663.056228	23493.788550
55.535500	0.189418	0.046142	0.201849	0.050923	8221.807925	40670.116306	4511.623735	20321.899300
56.036000	0.221783	0.060723	0.236256	0.133417	7665.762489	35239.043695	4363.270097	17345.036295
56.536000	0.245274	0.075230	0.261402	0.220094	7050.400476	30326.500237	4195.888393	14770.363859
57.037000	0.267861	0.086704	0.284145	0.289866	6645.867194	26913.020948	4083.028068	13040.460311
57.537000	0.282046	0.095642	0.303937	0.349887	6292.811936	24276.367028	3995.724837	11759.241454
58.037000	0.295533	0.098577	0.314284	0.400885	6030.358784	22063.358154	3915.349512	10801.449238
58.537500	0.312820	0.107322	0.324521	0.419110	6024.086678	21655.058590	3900.420440	10485.542786
59.037500	0.318959	0.110761	0.343274	0.453382	5841.995336	20386.996722	3872.189376	9926.224466
59.535500	0.330631	0.112174	0.349282	0.470739	5806.604704	19765.735160	3852.173531	9659.349978
60.035500	0.333735	0.113349	0.352578	0.491580	5699.135342	19030.258087	3822.243193	9352.698281
60.536000	0.333774	0.112225	0.356634	0.508803	5599.117566	18373.459454	3800.561279	9110.144250
61.036000	0.343328	0.114551	0.364356	0.523001	5572.762208	17963.034020	3790.135811	8917.302459
61.536500	0.349648	0.116054	0.368939	0.529480	5571.866779	17794.296797	3787.113452	8831.381268
62.037000	0.354716	0.116117	0.362473	0.531157	5591.073821	17739.996792	3774.279984	8809.344110
62.536500	0.353792	0.115475	0.362920	0.533439	5572.911768	17642.105982	3771.421569	8779.505211
63.037000	0.358855	0.117008	0.370293	0.535763	5588.420191	17615.753968	3779.316871	8749.266688
63.537000	0.360395	0.114520	0.367685	0.537610	5586.681409	17472.085071	3772.345845	8725.357012
64.038000	0.357130	0.113963	0.375528	0.541546	5546.131003	17324.718918	3778.454340	8674.730594
64.535500	0.359580	0.113175	0.368858	0.547903	5524.417273	17093.484493	3758.295673	8593.942480
65.035500	0.359558	0.109987	0.374332	0.549669	5514.543192	16935.342708	3763.972465	8571.701886
65.536000	0.362244	0.111795	0.366568	0.553983	5505.588206	16856.060528	3745.657926	8517.768855
66.036000	0.361605	0.110517	0.378105	0.556885	5486.223206	16724.796731	3758.699819	8481.782074
66.536500	0.365853	0.110762	0.382407	0.562264	5480.069087	16565.290049	3757.058021	8415.711570
67.036500	0.364450	0.109568	0.394135	0.567103	5446.408047	16380.259637	3767.623230	8356.968465
67.537000	0.366176	0.109039	0.383654	0.570325	5438.411190	16266.513190	3746.771021	8318.220917
68.037000	0.366263	0.106656	0.382996	0.572534	5427.120223	16128.590641	3742.491695	8291.829560
68.537500	0.365833	0.105396	0.384103	0.574526	5414.293887	16031.784446	3741.174686	8268.129393
69.035500	0.366408	0.104748	0.380630	0.576286	5408.043866	15960.582458	3733.449559	8247.288059
69.535500	0.371193	0.103775	0.386049	0.578125	5423.610345	15877.897092	3738.723789	8225.599537
70.035500	0.370796	0.101288	0.389191	0.578430	5419.891667	15796.354716	3742.935345	8222.010888
70.536000	0.373701	0.102408	0.393649	0.583792	5406.920466	15673.472742	3741.590399	8159.336847
71.036500	0.371809	0.102679	0.392144	0.584978	5390.776255	15647.117596	3737.603638	8145.577546
71.537000	0.373377	0.100175	0.389311	0.585767	5394.852847	15552.738464	3732.277267	8136.448827
72.036500	0.376419	0.101096	0.387973	0.589183	5392.898743	15481.714711	3725.352219	8097.107064
72.537000	0.374294	0.097715	0.387744	0.588344	5386.182306	15409.753653	3726.236904	8106.737048
73.037500	0.377231	0.097907	0.396982	0.591318	5385.986006	15331.483652	3735.389327	8072.669864
73.535000	0.378273	0.098436	0.393857	0.594283	5375.977880	15263.362288	3726.489206	8038.930350
74.035500	0.376565	0.093119	0.389824	0.594724	5364.851195	15103.862015	3720.028861	8033.933146
74.536000	0.378632	0.092595	0.399559	0.596410	5366.817355	15043.204927	3731.698368	8014.872977
75.035500	0.380415	0.092803	0.392819	0.599658	5359.257813	14960.244370	3717.250524	7978.360269
75.536500	0.382963	0.094284	0.400097	0.603772	5351.201517	14888.883298	3721.791086	7932.507555
76.036500	0.380196	0.093987	0.406027	0.606228	5324.540568	14814.722230	3726.816027	7905.339634
76.537000	0.380321	0.089753	0.406025	0.606079	5325.931515	14705.524742	3727.028204	7906.976142
77.036500	0.382554	0.089744	0.403623	0.609349	5320.674061	14618.670621	3718.844760	7871.036440
77.537000	0.387709	0.088751	0.404528	0.612184	5332.458075	14518.026453	3716.083121	7840.084707
78.037500	0.385814	0.089358	0.412277	0.616099	5303.069137	14431.802237	3721.580785	7797.680223
78.535500	0.384897	0.086458	0.407239	0.621345	5272.326853	14222.214110	3706.945415	7741.450808
79.035500	0.387328	0.085732	0.404733	0.619447	5293.876250	14252.113709	3706.090854	7761.714080
79.535500	0.389868	0.084537	0.411625	0.620191	5302.880842	14202.673906	3714.786924	7753.761456
80.036000	0.386038	0.083559	0.410277	0.622214	5273.674369	14126.591335	3710.003613	7732.202070
80.536500	0.387406	0.083310	0.417880	0.631010	5237.170960	13900.398627	3708.320261	7639.618558
81.036500	0.393155	0.081887	0.415850	0.627133	5284.589685	13961.277641	3710.928268	7680.187849
81.536500	0.390401	0.078810	0.418298	0.626994	5271.604007	13888.420843	3714.600447	7681.649348
82.037500	0.392514	0.079241	0.414895	0.629922	5267.572376	13826.858511	3705.650802	7650.962022
82.537500	0.393323	0.077753	0.413455	0.630794	5267.260510	13769.011526	3702.415594	7641.861249
83.035000	0.394435	0.077649	0.413816	0.633269	5260.538243	13706.168252	3699.472883	7616.138583
83.535500	0.396771	0.075980	0.419343	0.632621	5275.287704	13681.367830	3708.110650	7622.854804
84.036000	0.395077	0.075389	0.419034	0.634682	5256.741648	13617.300249	3704.781145	7601.517352
84.535500	0.393252	0.070687	0.422448	0.634061	5250.827753	13519.412168	3710.460570	7607.934032
85.036000	0.398499	0.075134	0.427247	0.640845	5243.302698	13463.773780	3707.658874	7538.285886
85.536500	0.399953	0.072971	0.425820	0.641492	5247.248753	13397.266686	3704.746063	7531.700124
86.037000	0.396385	0.071878	0.422047	0.642927	5222.898489	13337.819860	3697.493058	7517.128858
86.537000	0.400202	0.072231	0.430017	0.645081	5230.965506	13295.672982	3705.600469	7495.354183
87.037000	0.401797	0.068224	0.424786	0.644150	5243.271521	13224.085315	3699.595118	7504.753358
87.534500	0.406103	0.068584	0.421777	0.647933	5245.827272	13145.018011	3690.232325	7466.676876
88.035000	0.404438	0.070129	0.429513	0.651212	5221.779832	13105.212610	3696.359687	7433.941573
88.535500	0.402555	0.067416	0.433080	0.651701	5210.335896	13032.090985	3700.628340	7429.079403
89.035500	0.403690	0.067040	0.437202	0.654073	5204.391911	12969.759312	3703.068048	7405.575270
89.536000	0.406061	0.066159	0.425948	0.655500	5208.922963	12917.746365	3685.604765	7391.499069
90.036000	0.404156	0.064535	0.435577	0.657526	5190.108570	12836.008284	3696.014000	7371.592253
90.536000	0.403203	0.063926	0.430934	0.665501	5148.015929	12646.524495	3678.840201	7294.141494
91.036500	0.409984	0.065136	0.439593	0.663823	5187.878223	12709.826909	3692.872332	7310.312598
91.537500	0.407974	0.059843	0.446751	0.662311	5185.511756	12627.002199	3704.904740	7324.952992
92.035000	0.408071	0.060802	0.441081	0.666015	5168.436886	12567.319110	3691.906881	7289.194042
92.535000	0.410277	0.060467	0.433278	0.666736	5175.449675	12544.453632	3680.328727	7282.272010
93.035000	0.408621	0.059303	0.442683	0.668464	5159.502504	12482.111778	3690.745330	7265.714640
93.535000	0.409829	0.057026	0.437630	0.668267	5166.112416	12437.556935	3684.136069	7267.606381
94.036000	0.410616	0.056697	0.441944	0.671664	5153.856205	12358.223815	3685.377629	7235.242031
94.536000	0.410207	0.055127	0.445282	0.672777	5146.743710	12301.527509	3688.404206	7224.695041
95.036500	0.413446	0.054342	0.440013	0.674456	5154.032495	12249.761427	3679.004282	7208.833887
95.536000	0.411812	0.054340	0.444032	0.676309	5137.776916	12210.987778	3681.918832	7191.406254
96.037000	0.413868	0.052285	0.446045	0.678045	5139.263962	12132.258965	3682.292164	7175.140183
