sample name	sample
index	848
start time	 04-08-2021  10:37:27 AM


Wavelength (nm)	Absorbance
494.344910	-0.077146
494.563924	-0.077146
494.782919	-0.077146
495.001897	-0.104794
495.220856	-0.042152
495.439797	-0.030992
495.658719	-0.016976
495.877624	0.001654
496.096510	0.010899
496.315378	0.026009
496.534227	-0.003843
496.753059	0.013607
496.971872	0.006267
497.190667	0.073544
497.409444	0.093402
497.628203	0.097822
497.846943	0.099512
498.065665	0.102776
498.284369	0.102004
498.503055	0.105595
498.721723	0.105252
498.940372	0.106542
499.159003	0.106793
499.377616	0.105645
499.596210	0.105310
499.814787	0.105987
500.033345	0.104776
500.251885	0.104976
500.470406	0.103820
500.688910	0.103980
500.907395	0.103447
501.125862	0.102643
501.344311	0.102963
501.562742	0.102988
501.781154	0.102783
501.999548	0.102957
502.217924	0.102773
502.436282	0.103958
502.654621	0.103578
502.872942	0.103184
503.091245	0.103042
503.309530	0.103103
503.527797	0.103245
503.746045	0.102642
503.964275	0.103220
504.182487	0.104365
504.400681	0.103524
504.618856	0.103480
504.837013	0.104507
505.055152	0.105659
505.273273	0.106338
505.491376	0.107816
505.709460	0.108295
505.927526	0.108266
506.145574	0.108624
506.363604	0.108463
506.581615	0.109402
506.799608	0.108940
507.017583	0.108462
507.235540	0.108451
507.453478	0.107033
507.671399	0.107237
507.889301	0.107549
508.107185	0.107197
508.325050	0.108256
508.542898	0.107742
508.760727	0.108470
508.978538	0.108721
509.196330	0.109288
509.414105	0.109547
509.631861	0.109496
509.849599	0.109733
510.067319	0.109455
510.285021	0.109412
510.502704	0.109687
510.720369	0.108934
510.938016	0.109910
511.155645	0.108792
511.373255	0.109388
511.590848	0.109907
511.808422	0.109475
512.025977	0.110001
512.243515	0.110267
512.461034	0.110410
512.678536	0.111437
512.896018	0.110634
513.113483	0.111402
513.330930	0.110889
513.548358	0.110516
513.765768	0.110915
513.983160	0.111367
514.200533	0.111164
514.417889	0.111471
514.635226	0.111013
514.852545	0.111911
515.069845	0.112276
515.287128	0.113088
515.504392	0.112643
515.721638	0.112751
515.938866	0.112929
516.156075	0.112198
516.373267	0.112122
516.590440	0.112471
516.807594	0.112611
517.024731	0.113263
517.241850	0.113604
517.458950	0.115160
517.676032	0.115012
517.893095	0.115191
518.110141	0.117020
518.327168	0.116907
518.544177	0.117442
518.761168	0.117433
518.978141	0.117135
519.195095	0.117360
519.412031	0.117176
519.628949	0.118098
519.845849	0.117967
520.062731	0.117408
520.279594	0.118367
520.496439	0.118284
520.713266	0.118600
520.930074	0.119027
521.146865	0.119403
521.363637	0.119495
521.580391	0.119520
521.797127	0.119983
522.013844	0.120604
522.230543	0.120920
522.447224	0.120881
522.663887	0.121089
522.880532	0.120755
523.097158	0.120762
523.313766	0.120708
523.530356	0.120486
523.746928	0.121093
523.963481	0.120658
524.180017	0.120600
524.396534	0.121504
524.613032	0.121621
524.829513	0.122069
525.045975	0.121977
525.262420	0.122759
525.478845	0.123585
525.695253	0.123194
525.911643	0.124415
526.128014	0.124759
526.344367	0.125087
526.560702	0.125347
526.777018	0.126538
526.993316	0.126833
527.209597	0.127064
527.425858	0.127478
527.642102	0.128014
527.858328	0.127581
528.074535	0.128317
528.290724	0.128576
528.506894	0.128833
528.723047	0.128495
528.939181	0.129556
529.155297	0.129731
529.371395	0.129836
529.587475	0.130543
529.803536	0.131375
530.019579	0.131411
530.235604	0.131899
530.451611	0.132659
530.667600	0.133052
530.883570	0.133664
531.099522	0.133861
531.315456	0.134540
531.531372	0.134823
531.747269	0.134710
531.963148	0.135254
532.179009	0.135087
532.394852	0.134752
532.610676	0.135670
532.826482	0.135518
533.042271	0.135766
533.258040	0.135810
533.473792	0.136308
533.689525	0.136666
533.905240	0.136472
534.120937	0.137163
534.336616	0.137975
534.552277	0.137415
534.767919	0.137313
534.983543	0.138004
535.199149	0.137876
535.414736	0.137530
535.630306	0.137502
535.845857	0.137549
536.061390	0.137487
536.276904	0.137593
536.492401	0.138310
536.707879	0.138530
536.923339	0.138727
537.138781	0.139255
537.354204	0.139702
537.569610	0.140295
537.784997	0.140847
538.000366	0.140525
538.215716	0.140488
538.431049	0.140783
538.646363	0.141029
538.861659	0.141488
539.076937	0.142026
539.292196	0.142015
539.507438	0.142192
539.722661	0.142779
539.937866	0.143363
540.153052	0.143767
540.368221	0.143773
540.583371	0.144343
540.798503	0.144442
541.013617	0.144229
541.228712	0.144448
541.443789	0.144756
541.658848	0.144464
541.873889	0.144688
542.088912	0.144971
542.303916	0.144849
542.518902	0.144903
542.733870	0.145077
542.948820	0.145645
543.163752	0.146234
543.378665	0.146555
543.593560	0.146719
543.808437	0.147058
544.023295	0.147496
544.238136	0.147923
544.452958	0.148000
544.667762	0.148924
544.882548	0.148994
545.097315	0.148972
545.312064	0.149247
545.526795	0.149791
545.741508	0.150108
545.956203	0.150340
546.170879	0.150759
546.385537	0.151132
546.600177	0.150837
546.814799	0.151233
547.029402	0.151383
547.243988	0.151994
547.458555	0.152441
547.673103	0.152634
547.887634	0.152774
548.102146	0.153210
548.316640	0.153270
548.531116	0.152897
548.745574	0.153077
548.960013	0.153424
549.174435	0.153255
549.388838	0.153946
549.603222	0.153915
549.817589	0.154133
550.031937	0.154329
550.246267	0.155451
550.460579	0.156487
550.674873	0.156923
550.889148	0.157354
551.103405	0.157682
551.317644	0.157017
551.531865	0.157385
551.746068	0.157843
551.960252	0.157773
552.174418	0.157586
552.388566	0.157666
552.602696	0.157722
552.816807	0.157594
553.030900	0.157440
553.244975	0.157495
553.459032	0.157747
553.673070	0.158233
553.887091	0.158731
554.101093	0.159064
554.315077	0.159043
554.529042	0.159332
554.742990	0.159502
554.956919	0.160097
555.170830	0.160583
555.384722	0.160887
555.598597	0.160536
555.812453	0.160205
556.026291	0.159812
556.240111	0.159923
556.453913	0.159744
556.667696	0.159950
556.881461	0.160260
557.095208	0.160519
557.308937	0.160467
557.522647	0.160807
557.736339	0.161443
557.950013	0.162030
558.163669	0.162539
558.377307	0.163240
558.590926	0.163622
558.804527	0.163229
559.018110	0.163242
559.231675	0.163667
559.445221	0.163660
559.658749	0.163450
559.872259	0.163904
560.085751	0.163462
560.299225	0.163467
560.512680	0.163425
560.726117	0.163897
560.939536	0.164370
561.152937	0.164859
561.366319	0.164934
561.579683	0.165156
561.793029	0.165020
562.006357	0.165246
562.219667	0.165113
562.432958	0.165210
562.646231	0.165301
562.859486	0.165326
563.072723	0.165219
563.285941	0.165460
563.499141	0.166059
563.712323	0.166050
563.925487	0.166713
564.138632	0.166913
564.351760	0.167289
564.564869	0.167501
564.777960	0.167783
564.991032	0.168251
565.204087	0.168468
565.417123	0.168161
565.630141	0.168003
565.843140	0.168075
566.056122	0.168456
566.269085	0.168320
566.482030	0.168389
566.694957	0.168497
566.907866	0.168202
567.120756	0.168673
567.333628	0.168887
567.546482	0.169384
567.759318	0.169325
567.972135	0.169395
568.184935	0.169753
568.397716	0.169942
568.610478	0.170026
568.823223	0.170362
569.035949	0.170389
569.248657	0.170356
569.461347	0.170622
569.674019	0.170663
569.886672	0.170450
570.099308	0.170872
570.311925	0.171049
570.524523	0.171088
570.737104	0.171114
570.949666	0.171257
571.162210	0.171853
571.374736	0.171600
571.587244	0.172082
571.799733	0.172496
572.012205	0.172622
572.224658	0.172894
572.437092	0.173026
572.649509	0.172834
572.861907	0.173030
573.074287	0.173097
573.286649	0.173611
573.498993	0.173469
573.711318	0.173647
573.923625	0.173885
574.135914	0.173660
574.348185	0.174243
574.560438	0.174609
574.772672	0.174121
574.984888	0.173619
575.197086	0.173939
575.409266	0.174228
575.621427	0.174177
575.833570	0.174212
576.045695	0.174612
576.257802	0.174748
576.469890	0.174690
576.681961	0.175223
576.894013	0.176206
577.106046	0.176335
577.318062	0.176640
577.530059	0.176916
577.742039	0.177063
577.954000	0.177163
578.165942	0.176645
578.377867	0.177328
578.589773	0.177484
578.801661	0.176981
579.013531	0.177143
579.225382	0.177305
579.437216	0.177916
579.649031	0.177779
579.860828	0.177922
580.072606	0.178269
580.284367	0.178161
580.496109	0.178398
580.707833	0.178792
580.919539	0.178614
581.131227	0.178844
581.342896	0.178546
581.554547	0.178626
581.766180	0.178840
581.977795	0.179164
582.189391	0.179304
582.400969	0.179280
582.612529	0.179348
582.824071	0.179566
583.035595	0.179322
583.247100	0.179580
583.458587	0.179700
583.670056	0.179783
583.881506	0.179931
584.092939	0.180207
584.304353	0.180365
584.515749	0.180337
584.727127	0.180557
584.938486	0.180652
585.149828	0.180704
585.361151	0.180959
585.572456	0.180998
585.783742	0.181469
585.995011	0.181747
586.206261	0.181944
586.417493	0.182501
586.628706	0.182468
586.839902	0.182712
587.051079	0.182719
587.262238	0.182966
587.473379	0.183042
587.684502	0.182924
587.895606	0.183061
588.106692	0.183118
588.317760	0.183364
588.528810	0.183674
588.739841	0.183998
588.950855	0.184525
589.161850	0.184608
589.372827	0.184769
589.583785	0.184856
589.794726	0.184711
590.005648	0.184851
590.216552	0.184655
590.427437	0.184734
590.638305	0.184542
590.849154	0.184507
591.059985	0.184622
591.270798	0.185141
591.481592	0.185185
591.692369	0.185420
591.903127	0.185535
592.113867	0.185703
592.324588	0.185666
592.535292	0.185658
592.745977	0.185798
592.956644	0.186193
593.167293	0.186080
593.377923	0.186201
593.588536	0.186335
593.799130	0.186713
594.009706	0.186887
594.220263	0.187162
594.430803	0.187657
594.641324	0.187825
594.851827	0.187609
595.062312	0.187774
595.272778	0.187982
595.483227	0.188208
595.693657	0.188353
595.904069	0.188546
596.114462	0.188648
596.324838	0.188744
596.535195	0.189177
596.745534	0.189698
596.955855	0.189791
597.166157	0.190118
597.376441	0.190270
597.586707	0.190292
597.796955	0.190388
598.007185	0.191067
598.217396	0.191423
598.427589	0.191249
598.637764	0.191238
598.847921	0.191754
599.058060	0.191767
599.268180	0.191952
599.478282	0.191990
599.688366	0.192389
599.898431	0.192016
600.108479	0.192092
600.318508	0.192270
600.528519	0.192433
600.738511	0.192808
600.948486	0.193379
601.158442	0.193515
601.368380	0.194005
601.578300	0.194384
601.788202	0.194617
601.998085	0.194822
602.207950	0.195142
602.417797	0.195329
602.627626	0.194991
602.837436	0.194762
603.047228	0.194853
603.257002	0.194718
603.466758	0.194497
603.676496	0.194713
603.886215	0.194828
604.095916	0.194962
604.305599	0.195240
604.515264	0.195507
604.724910	0.195700
604.934538	0.195566
605.144148	0.195722
605.353740	0.196038
605.563314	0.195989
605.772869	0.196151
605.982406	0.196072
606.191925	0.196021
606.401425	0.196225
606.610908	0.196260
606.820372	0.196554
607.029818	0.196726
607.239246	0.196642
607.448655	0.196616
607.658047	0.196370
607.867420	0.196786
608.076775	0.196793
608.286111	0.196638
608.495430	0.196983
608.704730	0.197269
608.914012	0.197197
609.123275	0.197310
609.332521	0.197608
609.541748	0.198149
609.750957	0.197802
609.960148	0.197935
610.169321	0.197851
610.378475	0.197774
610.587611	0.197742
610.796729	0.197914
611.005829	0.197937
611.214910	0.198008
611.423974	0.197898
611.633019	0.198430
611.842045	0.198698
612.051054	0.199175
612.260044	0.199601
612.469017	0.200001
612.677970	0.200320
612.886906	0.200477
613.095824	0.200670
613.304723	0.201223
613.513604	0.201173
613.722467	0.201473
613.931311	0.201651
614.140138	0.201461
614.348946	0.201368
614.557736	0.201394
614.766507	0.202081
614.975261	0.202459
615.183996	0.202407
615.392713	0.202634
615.601412	0.202594
615.810092	0.202840
616.018754	0.202753
616.227399	0.203004
616.436024	0.203445
616.644632	0.203035
616.853222	0.203144
617.061793	0.203418
617.270346	0.203505
617.478880	0.203491
617.687397	0.203291
617.895895	0.203627
618.104375	0.203798
618.312837	0.203455
618.521281	0.203743
618.729706	0.203737
618.938113	0.203748
619.146502	0.203895
619.354873	0.204310
619.563226	0.204611
619.771560	0.204752
619.979876	0.204766
620.188174	0.205432
620.396453	0.205567
620.604715	0.205770
620.812958	0.205796
621.021183	0.206158
621.229390	0.206162
621.437578	0.206327
621.645748	0.206855
621.853900	0.206869
622.062034	0.206892
622.270150	0.206874
622.478247	0.206821
622.686326	0.206934
622.894387	0.206954
623.102430	0.206728
623.310454	0.206674
623.518461	0.206696
623.726449	0.206997
623.934418	0.206821
624.142370	0.207120
624.350303	0.207467
624.558218	0.207664
624.766115	0.207520
624.973994	0.207960
625.181855	0.208044
625.389697	0.207916
625.597521	0.207871
625.805327	0.208006
626.013114	0.208028
626.220883	0.208180
626.428634	0.208015
626.636367	0.208450
626.844082	0.208509
627.051778	0.208616
627.259457	0.208859
627.467117	0.209396
627.674758	0.209655
627.882382	0.209816
628.089987	0.209890
628.297574	0.210129
628.505143	0.209979
628.712694	0.210229
628.920226	0.210517
629.127740	0.210439
629.335236	0.210305
629.542714	0.210402
629.750174	0.210404
629.957615	0.210231
630.165038	0.210652
630.372443	0.210683
630.579829	0.210784
630.787198	0.210931
630.994548	0.210968
631.201880	0.211098
631.409194	0.211197
631.616489	0.211527
631.823766	0.211599
632.031025	0.211501
632.238266	0.211986
632.445489	0.212215
632.652693	0.212301
632.859879	0.212354
633.067047	0.212295
633.274197	0.212517
633.481329	0.212545
633.688442	0.213098
633.895537	0.213146
634.102614	0.213099
634.309672	0.213062
634.516713	0.213273
634.723735	0.213855
634.930739	0.214278
635.137724	0.214325
635.344692	0.214470
635.551641	0.214540
635.758572	0.215051
635.965485	0.215192
636.172379	0.215249
636.379256	0.215208
636.586114	0.215118
636.792954	0.215323
636.999775	0.215612
637.206579	0.215844
637.413364	0.215887
637.620131	0.215863
637.826880	0.215851
638.033610	0.216077
638.240323	0.216404
638.447017	0.216384
638.653692	0.216449
638.860350	0.216236
639.066990	0.216322
639.273611	0.216850
639.480214	0.216977
639.686798	0.217134
639.893365	0.217310
640.099913	0.217377
640.306443	0.217968
640.512955	0.218276
640.719449	0.218583
640.925924	0.218588
641.132381	0.218542
641.338820	0.218616
641.545241	0.219190
641.751644	0.219342
641.958028	0.219502
642.164394	0.219330
642.370742	0.219313
642.577071	0.219613
642.783383	0.220020
642.989676	0.220097
643.195951	0.220243
643.402207	0.220447
643.608446	0.220774
643.814666	0.221125
644.020868	0.221472
644.227052	0.221651
644.433218	0.221913
644.639365	0.221916
644.845494	0.222180
645.051605	0.222568
645.257698	0.222328
645.463772	0.222291
645.669828	0.222394
645.875866	0.222551
646.081886	0.222796
646.287888	0.222764
646.493871	0.222996
646.699836	0.223291
646.905783	0.223550
647.111712	0.223846
647.317622	0.224020
647.523514	0.224151
647.729388	0.224121
647.935244	0.223974
648.141082	0.224347
648.346901	0.224236
648.552702	0.224095
648.758485	0.223932
648.964250	0.224010
649.169996	0.224040
649.375724	0.224318
649.581434	0.224524
649.787126	0.225033
649.992800	0.225020
650.198455	0.225526
650.404092	0.225739
650.609711	0.226108
650.815311	0.226550
651.020894	0.227075
651.226458	0.227175
651.432004	0.227524
651.637532	0.227508
651.843041	0.227677
652.048532	0.227819
652.254006	0.228033
652.459460	0.228106
652.664897	0.228242
652.870315	0.228387
653.075716	0.228581
653.281097	0.228674
653.486461	0.228997
653.691807	0.229455
653.897134	0.229546
654.102443	0.229701
654.307734	0.229938
654.513006	0.229922
654.718261	0.230199
654.923497	0.230417
655.128715	0.230590
655.333915	0.230608
655.539096	0.230542
655.744259	0.230795
655.949404	0.230901
656.154531	0.231106
656.359640	0.231341
656.564730	0.231436
656.769802	0.231473
656.974856	0.231492
657.179892	0.231539
657.384909	0.231512
657.589908	0.231764
657.794889	0.231861
657.999852	0.231764
658.204797	0.231902
658.409723	0.231974
658.614631	0.232067
658.819521	0.232392
659.024393	0.232610
659.229246	0.233090
659.434081	0.233327
659.638898	0.233615
659.843697	0.233834
660.048478	0.234103
660.253240	0.234278
660.457984	0.234586
660.662710	0.234964
660.867417	0.235455
661.072107	0.235479
661.276778	0.235553
661.481431	0.235785
661.686066	0.236048
661.890682	0.236101
662.095281	0.236344
662.299861	0.236332
662.504422	0.236294
662.708966	0.236390
662.913491	0.236691
663.117999	0.236925
663.322488	0.237024
663.526958	0.237141
663.731411	0.237317
663.935845	0.237372
664.140261	0.237819
664.344659	0.237900
664.549038	0.237994
664.753400	0.238249
664.957743	0.238314
665.162068	0.238827
665.366375	0.239169
665.570663	0.239486
665.774933	0.239750
665.979185	0.239899
666.183419	0.240414
666.387635	0.240567
666.591832	0.240745
666.796011	0.240906
667.000172	0.240941
667.204315	0.241130
667.408439	0.241384
667.612545	0.241711
667.816634	0.241952
668.020703	0.242050
668.224755	0.242594
668.428788	0.242562
668.632803	0.243139
668.836800	0.243359
669.040779	0.243621
669.244739	0.243780
669.448681	0.244089
669.652605	0.244294
669.856511	0.244582
670.060399	0.244482
670.264268	0.244823
670.468119	0.244839
670.671952	0.244858
670.875767	0.245119
671.079563	0.245357
671.283341	0.245261
671.487101	0.245466
671.690843	0.245714
671.894567	0.245854
672.098272	0.246204
672.301959	0.246402
672.505628	0.246776
672.709278	0.246796
672.912911	0.246680
673.116525	0.247228
673.320121	0.247522
673.523699	0.247679
673.727258	0.247953
673.930799	0.248063
674.134322	0.248286
674.337827	0.248478
674.541314	0.248993
674.744782	0.249451
674.948232	0.249331
675.151664	0.249457
675.355078	0.249517
675.558474	0.249752
675.761851	0.249791
675.965210	0.249950
676.168551	0.249861
676.371873	0.249720
676.575178	0.249863
676.778464	0.250214
676.981732	0.250364
677.184981	0.250728
677.388213	0.250893
677.591426	0.251498
677.794621	0.251828
677.997798	0.252381
678.200956	0.252590
678.404097	0.252895
678.607219	0.253194
678.810323	0.253396
679.013408	0.253503
679.216476	0.253666
679.419525	0.253500
679.622556	0.253844
679.825569	0.253996
680.028563	0.254161
680.231540	0.254369
680.434498	0.254441
680.637438	0.254723
680.840359	0.254882
681.043263	0.255177
681.246148	0.255482
681.449015	0.255579
681.651864	0.255616
681.854694	0.255892
682.057506	0.255835
682.260301	0.255697
682.463076	0.255766
682.665834	0.255922
682.868573	0.255937
683.071295	0.256118
683.273998	0.256231
683.476682	0.256478
683.679349	0.256790
683.881997	0.257202
684.084627	0.257956
684.287239	0.258114
684.489833	0.258367
684.692408	0.258670
684.894965	0.258731
685.097504	0.258674
685.300025	0.259003
685.502527	0.259004
685.705012	0.259170
685.907478	0.259120
686.109925	0.259149
686.312355	0.259303
686.514766	0.259517
686.717159	0.259884
686.919534	0.260221
687.121891	0.260134
687.324230	0.260535
687.526550	0.260864
687.728852	0.261211
687.931136	0.261549
688.133401	0.261668
688.335649	0.262040
688.537878	0.261896
688.740089	0.261875
688.942281	0.262209
689.144456	0.262329
689.346612	0.262104
689.548750	0.261747
689.750870	0.261971
689.952971	0.261985
690.155055	0.261718
690.357120	0.262019
690.559167	0.262364
690.761195	0.262460
690.963206	0.262536
691.165198	0.262856
691.367172	0.263545
691.569128	0.263651
691.771065	0.263990
691.972984	0.264577
692.174885	0.265031
692.376768	0.265234
692.578633	0.265567
692.780479	0.265733
692.982308	0.266048
693.184118	0.266078
693.385909	0.266309
693.587683	0.266439
693.789438	0.266496
693.991175	0.266449
694.192894	0.266832
694.394595	0.266794
694.596277	0.267074
694.797941	0.267404
694.999587	0.267314
695.201215	0.267409
695.402824	0.267594
695.604416	0.267766
695.805989	0.268049
696.007543	0.267808
696.209080	0.267968
696.410598	0.267938
696.612099	0.267771
696.813580	0.268090
697.015044	0.268343
697.216490	0.268500
697.417917	0.268542
697.619326	0.268663
697.820717	0.268997
698.022089	0.269196
698.223444	0.269320
698.424780	0.269640
698.626098	0.269548
698.827397	0.269729
699.028679	0.269982
699.229942	0.270141
699.431187	0.270294
699.632414	0.270521
699.833622	0.270787
700.034813	0.270919
700.235985	0.270905
700.437139	0.271374
700.638274	0.271538
700.839392	0.271578
701.040491	0.271798
701.241572	0.271921
701.442635	0.271883
701.643679	0.271897
701.844706	0.272083
702.045714	0.272163
702.246704	0.272036
702.447675	0.271844
702.648629	0.271836
702.849564	0.271857
703.050481	0.272079
703.251380	0.271922
703.452260	0.272175
703.653122	0.272228
703.853966	0.272321
704.054792	0.272318
704.255600	0.272331
704.456389	0.272330
704.657160	0.272486
704.857913	0.272275
705.058648	0.272423
705.259365	0.271957
705.460063	0.271792
705.660743	0.271734
705.861405	0.271869
706.062048	0.271840
706.262674	0.271746
706.463281	0.271464
706.663870	0.271470
706.864441	0.271716
707.064993	0.271939
707.265527	0.272118
707.466043	0.272263
707.666541	0.272229
707.867021	0.272628
708.067482	0.272929
708.267925	0.273321
708.468350	0.273688
708.668757	0.273592
708.869145	0.273878
709.069516	0.273953
709.269868	0.273980
709.470201	0.274015
709.670517	0.273947
709.870814	0.274115
710.071093	0.273681
710.271354	0.273302
710.471597	0.273418
710.671821	0.273297
710.872028	0.273118
711.072216	0.273092
711.272385	0.273337
711.472537	0.273372
711.672670	0.273173
711.872785	0.273245
712.072882	0.273373
712.272961	0.273221
712.473021	0.273268
712.673063	0.273443
712.873087	0.273637
713.073093	0.273481
713.273081	0.273327
713.473050	0.273331
713.673001	0.273247
713.872934	0.273302
714.072849	0.273412
714.272745	0.273560
714.472623	0.273438
714.672483	0.273238
714.872325	0.273334
715.072148	0.273494
715.271954	0.273491
715.471741	0.273437
715.671509	0.273107
715.871260	0.273175
716.070992	0.272716
716.270707	0.272638
716.470403	0.272550
716.670080	0.272297
716.869740	0.271910
717.069381	0.271684
717.269004	0.271716
717.468609	0.271836
717.668195	0.271588
717.867764	0.271420
718.067314	0.271222
718.266846	0.271066
718.466360	0.270833
718.665855	0.270911
718.865332	0.270960
719.064791	0.270781
719.264232	0.270741
719.463655	0.270631
719.663059	0.270802
719.862445	0.270629
720.061813	0.270769
720.261163	0.270922
720.460494	0.270923
720.659807	0.270832
720.859102	0.270911
721.058379	0.270831
721.257638	0.270742
721.456878	0.270676
721.656100	0.270940
721.855304	0.270666
722.054490	0.270594
722.253657	0.270451
722.452806	0.270540
722.651937	0.270560
722.851050	0.270379
723.050145	0.270247
723.249221	0.270172
723.448279	0.270073
723.647319	0.269896
723.846340	0.269920
724.045344	0.269568
724.244329	0.269255
724.443296	0.269025
724.642245	0.268872
724.841175	0.268684
725.040088	0.268561
725.238982	0.268387
725.437857	0.268424
725.636715	0.268288
725.835554	0.268187
726.034376	0.268122
726.233179	0.268266
726.431963	0.268030
726.630730	0.268094
726.829478	0.267994
727.028208	0.268041
727.226920	0.267797
727.425614	0.267538
727.624289	0.267464
727.822946	0.267245
728.021585	0.266768
728.220206	0.266874
728.418808	0.266673
728.617392	0.266707
728.815958	0.266333
729.014506	0.266309
729.213036	0.266396
729.411547	0.266188
729.610040	0.266103
729.808515	0.266197
730.006972	0.266080
730.205410	0.265935
730.403831	0.265365
730.602233	0.265326
730.800616	0.265147
730.998982	0.264771
731.197329	0.264808
731.395658	0.264791
731.593969	0.264620
731.792262	0.264203
731.990536	0.264137
732.188793	0.264260
732.387031	0.264123
732.585250	0.263945
732.783452	0.263828
732.981635	0.263990
733.179800	0.263773
733.377947	0.263607
733.576076	0.263652
733.774186	0.263352
733.972278	0.263083
734.170352	0.262826
734.368408	0.262632
734.566446	0.262456
734.764465	0.261964
734.962466	0.261854
735.160449	0.261679
735.358413	0.261397
735.556360	0.261402
735.754288	0.260969
735.952198	0.260689
736.150090	0.260603
736.347963	0.260522
736.545818	0.260426
736.743655	0.260168
736.941474	0.260080
737.139275	0.260020
737.337057	0.259796
737.534821	0.259962
737.732567	0.259802
737.930295	0.259743
738.128005	0.259353
738.325696	0.259115
738.523369	0.258768
738.721024	0.258476
738.918660	0.258358
739.116279	0.258031
739.313879	0.257771
739.511461	0.257836
739.709024	0.257526
739.906570	0.257421
740.104097	0.257087
740.301606	0.256998
740.499097	0.256656
740.696569	0.256316
740.894024	0.256280
741.091460	0.256067
741.288878	0.255673
741.486277	0.255355
741.683659	0.255264
741.881022	0.255228
742.078367	0.255080
742.275694	0.255050
742.473002	0.254651
742.670293	0.254431
742.867565	0.254173
743.064819	0.253958
743.262054	0.253636
743.459272	0.253370
743.656471	0.253378
743.853652	0.253088
744.050815	0.252944
744.247959	0.253103
744.445085	0.252926
744.642194	0.252745
744.839283	0.252750
745.036355	0.252773
745.233408	0.252483
745.430444	0.252116
745.627461	0.251966
745.824459	0.251644
746.021440	0.251391
746.218402	0.251287
746.415346	0.251154
746.612272	0.250942
746.809180	0.250662
747.006069	0.250514
747.202940	0.250255
747.399793	0.250010
747.596628	0.249706
747.793444	0.249452
747.990243	0.249017
748.187023	0.248881
748.383784	0.248631
748.580528	0.248680
748.777253	0.248664
748.973960	0.248492
749.170649	0.248412
749.367320	0.248473
749.563973	0.248397
749.760607	0.248296
749.957223	0.248120
750.153821	0.248058
750.350400	0.247678
750.546962	0.247346
750.743505	0.247276
750.940030	0.247319
751.136536	0.246941
751.333025	0.246681
751.529495	0.246500
751.725947	0.246008
751.922381	0.245767
752.118796	0.245606
752.315194	0.245331
752.511573	0.245179
752.707934	0.244821
752.904276	0.244663
753.100601	0.244465
753.296907	0.244372
753.493195	0.244608
753.689465	0.244598
753.885716	0.244588
754.081949	0.244576
754.278164	0.244247
754.474361	0.243983
754.670540	0.243816
754.866700	0.243670
755.062843	0.243525
755.258967	0.243326
755.455072	0.242931
755.651160	0.242822
755.847229	0.242652
756.043280	0.242624
756.239313	0.242486
756.435328	0.242587
756.631324	0.242446
756.827302	0.242089
757.023262	0.242253
757.219204	0.242227
757.415127	0.242169
757.611033	0.242040
757.806920	0.242093
758.002788	0.242098
758.198639	0.241857
758.394471	0.241597
758.590286	0.241586
758.786081	0.241001
758.981859	0.240768
759.177619	0.240205
759.373360	0.239941
759.569083	0.239398
759.764788	0.239022
759.960474	0.238822
760.156143	0.238706
760.351793	0.238527
760.547425	0.238266
760.743038	0.238175
760.938634	0.238306
761.134211	0.238092
761.329770	0.238317
761.525311	0.238289
761.720833	0.238229
761.916338	0.237940
762.111824	0.237927
762.307292	0.237983
762.502741	0.237801
762.698173	0.237630
762.893586	0.237804
763.088981	0.237365
763.284358	0.237054
763.479716	0.236776
763.675057	0.236813
763.870379	0.236484
764.065683	0.236293
764.260968	0.236207
764.456236	0.236067
764.651485	0.235897
764.846716	0.235765
765.041929	0.235916
765.237123	0.235796
765.432299	0.235767
765.627457	0.235832
765.822597	0.235854
766.017719	0.235755
766.212822	0.235938
766.407907	0.235714
766.602974	0.235729
766.798023	0.235744
766.993054	0.235477
767.188066	0.235278
767.383060	0.235112
767.578036	0.235035
767.772993	0.234991
767.967933	0.234424
768.162854	0.234271
768.357757	0.234096
768.552642	0.233567
768.747508	0.233869
768.942356	0.233810
769.137186	0.233682
769.331998	0.233587
769.526792	0.233278
769.721567	0.233363
769.916324	0.233361
770.111063	0.233363
770.305784	0.233502
770.500486	0.233293
770.695171	0.233464
770.889837	0.233491
771.084484	0.233373
771.279114	0.233221
771.473725	0.233220
771.668318	0.233134
771.862893	0.232999
772.057450	0.232805
772.251988	0.232662
772.446509	0.232455
772.641011	0.232170
772.835494	0.232268
773.029960	0.232596
773.224407	0.232658
773.418836	0.232638
773.613247	0.232681
773.807640	0.232767
774.002014	0.232744
774.196370	0.232807
774.390708	0.232847
774.585028	0.232565
774.779330	0.232524
774.973613	0.232228
775.167878	0.232078
775.362125	0.232027
775.556354	0.232015
775.750564	0.232267
775.944756	0.232417
776.138930	0.232306
776.333086	0.232332
776.527223	0.232223
776.721343	0.232284
776.915444	0.232262
777.109526	0.232387
777.303591	0.232416
777.497637	0.232091
777.691666	0.231534
777.885676	0.231689
778.079667	0.231797
778.273641	0.231509
778.467596	0.231809
778.661533	0.232030
778.855452	0.232198
779.049352	0.232369
779.243235	0.232460
779.437099	0.232919
779.630945	0.233017
779.824773	0.233025
780.018582	0.233259
780.212373	0.233236
780.406146	0.233501
780.599901	0.233145
780.793638	0.233121
780.987356	0.233176
781.181056	0.233183
781.374738	0.233286
781.568402	0.233271
781.762047	0.233491
781.955674	0.233291
782.149283	0.233017
782.342874	0.233250
782.536447	0.233373
782.730001	0.233483
782.923537	0.233699
783.117055	0.233651
783.310555	0.233826
783.504036	0.233821
783.697499	0.234023
783.890944	0.234096
784.084371	0.234089
784.277780	0.234050
784.471170	0.233986
784.664542	0.233752
784.857896	0.233879
785.051231	0.233830
785.244549	0.233921
785.437848	0.233765
785.631129	0.233820
785.824392	0.233929
786.017636	0.234016
786.210863	0.234063
786.404071	0.234303
786.597260	0.234268
786.790432	0.234299
786.983585	0.234235
787.176721	0.234546
787.369838	0.234851
787.562936	0.234801
787.756017	0.235000
787.949079	0.234976
788.142123	0.234833
788.335149	0.234889
788.528156	0.234966
788.721146	0.235237
788.914117	0.235291
789.107070	0.235096
789.300005	0.235420
789.492921	0.235325
789.685819	0.236014
789.878699	0.236412
790.071561	0.236822
790.264405	0.237188
790.457230	0.237207
790.650037	0.237426
790.842826	0.237662
791.035597	0.237728
791.228349	0.237936
791.421084	0.237806
791.613800	0.238021
791.806497	0.237774
791.999177	0.237612
792.191838	0.237966
792.384481	0.237836
792.577106	0.237955
792.769713	0.238170
792.962301	0.238266
793.154871	0.238412
793.347423	0.238122
793.539957	0.238383
793.732473	0.238642
793.924970	0.238526
794.117449	0.238854
794.309910	0.238926
794.502353	0.238842
794.694777	0.238896
794.887183	0.239108
795.079571	0.239549
795.271941	0.239754
795.464293	0.239865
795.656626	0.240194
795.848941	0.240298
796.041238	0.240630
796.233516	0.240878
796.425777	0.241239
796.618019	0.241158
796.810243	0.241365
797.002449	0.241667
797.194636	0.241832
797.386805	0.241983
797.578956	0.242087
797.771089	0.242541
797.963204	0.242737
798.155300	0.242892
798.347378	0.243025
798.539438	0.243135
798.731480	0.243251
798.923503	0.243536
799.115509	0.243735
799.307496	0.243903
799.499465	0.243618
799.691415	0.243587
799.883348	0.243674
800.075262	0.243959
800.267158	0.244050
800.459035	0.244131
800.650895	0.244401
800.842736	0.244557
801.034559	0.244893
801.226364	0.245608
801.418150	0.246101
801.609919	0.246234
801.801669	0.246377
801.993401	0.246501
802.185114	0.246831
802.376810	0.246966
802.568487	0.247172
802.760146	0.247299
802.951787	0.247322
803.143409	0.247288
803.335014	0.247500
803.526600	0.247919
803.718168	0.248258
803.909717	0.248385
804.101249	0.248629
804.292762	0.248710
804.484257	0.248995
804.675734	0.249175
804.867192	0.249686
805.058632	0.250243
805.250054	0.250247
805.441458	0.250579
805.632844	0.251027
805.824211	0.251255
806.015561	0.251739
806.206891	0.252003
806.398204	0.252301
806.589499	0.252388
806.780775	0.252346
806.972033	0.253083
807.163273	0.253173
807.354495	0.253402
807.545698	0.253591
807.736883	0.253772
807.928050	0.254059
808.119199	0.253935
808.310329	0.254473
808.501441	0.254768
808.692535	0.254591
808.883611	0.254917
809.074669	0.254980
809.265708	0.255374
809.456729	0.255391
809.647732	0.255547
809.838717	0.255890
810.029683	0.256151
810.220632	0.256374
810.411562	0.256915
810.602474	0.257254
810.793367	0.257819
810.984242	0.257857
811.175100	0.258295
811.365938	0.258722
811.556759	0.259139
811.747562	0.259313
811.938346	0.259858
812.129112	0.260257
812.319860	0.260565
812.510589	0.260611
812.701300	0.261083
812.891994	0.261541
813.082668	0.261755
813.273325	0.262186
813.463964	0.262509
813.654584	0.262696
813.845186	0.262775
814.035769	0.262981
814.226335	0.263472
814.416882	0.263675
814.607411	0.263921
814.797922	0.264570
814.988415	0.264818
815.178889	0.265060
815.369345	0.265590
815.559783	0.265957
815.750203	0.266217
815.940605	0.266372
816.130988	0.266876
816.321353	0.267126
816.511700	0.267020
816.702028	0.267192
816.892339	0.267478
817.082631	0.267708
817.272905	0.267965
817.463161	0.268695
817.653398	0.269123
817.843617	0.269499
818.033819	0.269882
818.224001	0.270151
818.414166	0.270573
818.604312	0.271081
818.794440	0.271308
818.984550	0.271885
819.174642	0.272232
819.364716	0.272586
819.554771	0.272667
819.744808	0.273237
819.934827	0.273610
820.124827	0.273677
820.314810	0.274208
820.504774	0.274662
820.694720	0.275013
820.884647	0.275322
821.074557	0.275623
821.264448	0.276426
821.454321	0.276498
821.644176	0.276957
821.834012	0.277452
822.023831	0.277594
822.213631	0.277892
822.403413	0.278283
822.593176	0.278384
822.782922	0.278750
822.972649	0.278752
823.162358	0.279365
823.352049	0.279833
823.541721	0.280213
823.731376	0.280693
823.921012	0.281240
824.110629	0.281385
824.300229	0.281995
824.489811	0.282493
824.679374	0.283030
824.868919	0.283385
825.058445	0.284139
825.247954	0.284960
825.437444	0.285139
825.626916	0.285492
825.816370	0.285887
826.005806	0.286066
826.195223	0.286252
826.384622	0.286911
826.574003	0.287366
826.763366	0.287325
826.952711	0.287568
827.142037	0.288286
827.331345	0.288619
827.520635	0.289328
827.709906	0.289870
827.899160	0.290259
828.088395	0.290569
828.277612	0.290779
828.466810	0.291294
828.655991	0.292111
828.845153	0.292310
829.034297	0.293029
829.223423	0.293193
829.412531	0.293686
829.601620	0.294388
829.790691	0.294504
829.979744	0.295068
830.168779	0.295586
830.357795	0.295571
830.546793	0.296160
830.735773	0.296335
830.924735	0.296951
831.113679	0.297295
831.302604	0.297806
831.491511	0.298512
831.680400	0.298769
831.869271	0.299119
832.058123	0.299594
832.246957	0.299988
832.435773	0.300213
832.624571	0.300443
832.813351	0.300595
833.002112	0.300796
833.190855	0.301152
833.379580	0.301578
833.568287	0.302010
833.756975	0.302353
833.945645	0.302578
834.134297	0.303397
834.322931	0.303875
834.511547	0.304425
834.700144	0.304909
834.888723	0.305186
835.077284	0.305633
835.265826	0.306158
835.454351	0.306673
835.642857	0.307051
835.831345	0.307241
836.019815	0.307700
836.208266	0.308584
836.396699	0.309260
836.585114	0.310076
836.773511	0.310753
836.961890	0.311413
837.150250	0.312270
837.338592	0.312792
837.526916	0.313240
837.715222	0.313989
837.903510	0.314106
838.091779	0.314514
838.280030	0.314931
838.468263	0.315563
838.656477	0.315588
838.844674	0.315406
839.032852	0.316073
839.221012	0.316624
839.409153	0.316890
839.597277	0.317417
839.785382	0.317933
839.973469	0.317963
840.161538	0.318361
840.349589	0.319059
840.537621	0.319955
840.725635	0.320553
840.913631	0.321143
841.101609	0.321493
841.289568	0.321940
841.477509	0.322215
841.665432	0.322868
841.853337	0.322839
842.041224	0.323266
842.229092	0.323475
842.416942	0.323834
842.604774	0.324184
842.792588	0.324796
842.980383	0.325504
843.168160	0.326004
843.355919	0.326850
843.543660	0.327667
843.731382	0.327980
843.919087	0.328457
844.106773	0.328701
844.294441	0.329337
844.482090	0.329521
844.669722	0.330003
844.857335	0.330480
845.044930	0.330742
845.232507	0.331199
845.420065	0.331699
845.607605	0.332181
845.795127	0.332781
845.982631	0.333005
846.170117	0.333778
846.357584	0.333960
846.545033	0.334823
846.732464	0.335485
846.919877	0.335678
847.107272	0.336205
847.294648	0.336921
847.482006	0.337441
847.669346	0.337717
847.856667	0.338006
848.043971	0.338376
848.231256	0.338123
848.418523	0.338087
848.605771	0.338993
848.793002	0.339400
848.980214	0.339864
849.167408	0.340101
849.354584	0.340848
849.541742	0.341302
849.728881	0.342044
849.916002	0.342838
850.103105	0.343321
850.290190	0.343602
850.477256	0.344280
850.664304	0.344247
850.851334	0.344896
851.038346	0.345060
851.225340	0.345728
851.412315	0.345852
851.599272	0.346161
851.786211	0.346702
851.973132	0.347213
852.160034	0.347530
852.346918	0.348494
852.533784	0.348797
852.720632	0.349495
852.907462	0.349911
853.094273	0.350633
853.281066	0.351296
853.467841	0.352008
853.654598	0.352682
853.841336	0.353257
854.028056	0.353542
854.214758	0.353912
854.401442	0.354197
854.588107	0.354625
854.774755	0.355022
854.961384	0.355116
855.147995	0.355409
855.334587	0.355657
855.521162	0.356096
855.707718	0.356679
855.894256	0.357584
856.080775	0.358369
856.267277	0.358995
856.453760	0.359606
856.640225	0.360297
856.826672	0.360234
857.013101	0.360964
857.199511	0.361369
857.385903	0.361704
857.572277	0.362185
857.758633	0.362528
857.944970	0.362768
858.131290	0.362979
858.317591	0.363278
858.503873	0.364440
858.690138	0.364556
858.876384	0.364768
859.062612	0.365171
859.248822	0.365582
859.435014	0.365946
859.621188	0.366207
859.807343	0.366630
859.993480	0.367592
860.179599	0.367665
860.365699	0.368338
860.551781	0.369353
860.737846	0.370030
860.923891	0.370352
861.109919	0.370559
861.295929	0.371403
861.481920	0.371587
861.667893	0.371772
861.853848	0.372447
862.039784	0.372526
862.225702	0.372715
862.411603	0.372725
862.597484	0.372888
862.783348	0.373573
862.969193	0.373959
863.155021	0.374581
863.340830	0.374925
863.526620	0.375471
863.712393	0.375954
863.898147	0.375967
864.083883	0.376549
864.269601	0.377197
864.455301	0.377528
864.640982	0.377659
864.826645	0.378207
865.012290	0.378686
865.197917	0.379370
865.383526	0.379663
865.569116	0.380760
865.754688	0.381270
865.940242	0.381699
866.125777	0.382118
866.311295	0.382610
866.496794	0.383484
866.682275	0.383772
866.867737	0.383906
867.053182	0.384452
867.238608	0.384577
867.424016	0.384773
867.609406	0.384969
867.794778	0.384900
867.980131	0.385303
868.165466	0.385629
868.350783	0.386159
868.536082	0.386282
868.721362	0.386484
868.906625	0.386890
869.091869	0.387250
869.277094	0.387885
869.462302	0.388675
869.647491	0.389214
869.832662	0.388903
870.017815	0.389140
870.202950	0.389524
870.388066	0.389912
870.573165	0.390016
870.758245	0.390134
870.943306	0.389693
871.128350	0.389985
871.313375	0.389748
871.498382	0.390025
871.683371	0.390066
871.868342	0.389859
872.053294	0.390096
872.238229	0.390020
872.423144	0.390447
872.608042	0.391345
872.792922	0.391348
872.977783	0.391513
873.162626	0.392130
873.347451	0.392496
873.532258	0.393056
873.717046	0.393575
873.901816	0.393980
874.086568	0.394611
874.271302	0.394658
874.456017	0.395261
874.640715	0.395898
874.825394	0.396407
875.010055	0.396529
875.194697	0.396758
875.379322	0.397348
875.563928	0.398037
875.748516	0.398028
875.933085	0.398727
876.117637	0.398932
876.302170	0.398673
876.486685	0.398516
876.671182	0.398712
876.855661	0.399406
877.040121	0.398617
877.224563	0.398584
877.408987	0.398712
877.593393	0.398316
877.777780	0.398549
877.962150	0.399777
878.146501	0.400231
878.330833	0.400635
878.515148	0.400699
878.699444	0.401164
878.883722	0.401695
879.067982	0.402351
879.252224	0.403062
879.436447	0.403645
879.620653	0.403212
879.804840	0.403134
879.989008	0.403283
880.173159	0.403193
880.357291	0.402868
880.541405	0.402854
880.725501	0.402433
880.909579	0.402635
881.093638	0.402543
881.277680	0.402762
881.461703	0.402713
881.645707	0.402907
881.829694	0.402852
882.013662	0.403790
882.197612	0.403686
882.381544	0.404387
882.565458	0.404003
882.749353	0.404096
882.933230	0.404266
883.117089	0.405042
883.300930	0.405600
883.484753	0.405529
883.668557	0.405596
883.852343	0.405650
884.036111	0.405158
884.219861	0.405303
884.403592	0.405124
884.587305	0.405167
884.771000	0.404485
884.954677	0.404111
885.138335	0.404518
885.321976	0.404535
885.505598	0.405329
885.689201	0.405686
885.872787	0.405871
886.056354	0.406304
886.239904	0.406085
886.423434	0.406547
886.606947	0.407076
886.790442	0.407348
886.973918	0.407655
887.157376	0.407142
887.340816	0.407246
887.524237	0.406970
887.707641	0.406898
887.891026	0.407547
888.074393	0.407529
888.257741	0.407165
888.441072	0.407589
888.624384	0.407098
888.807678	0.407376
888.990954	0.407508
889.174211	0.407748
889.357451	0.407669
889.540672	0.407711
889.723875	0.407853
889.907059	0.407871
890.090226	0.407561
890.273374	0.407766
890.456504	0.407391
890.639616	0.407254
890.822709	0.407623
891.005785	0.407938
891.188842	0.407604
891.371881	0.407300
891.554901	0.407571
891.737904	0.407552
891.920888	0.407725
892.103854	0.407623
892.286802	0.407904
892.469731	0.407695
892.652643	0.407342
892.835536	0.407359
893.018410	0.407416
893.201267	0.406735
893.384106	0.406687
893.566926	0.406698
893.749728	0.406522
893.932511	0.406086
894.115277	0.405730
894.298024	0.405704
894.480753	0.405326
894.663464	0.405303
894.846157	0.405062
895.028831	0.405092
895.211487	0.404848
895.394125	0.404788
895.576745	0.404673
895.759346	0.404692
895.941930	0.404435
896.124495	0.404221
896.307041	0.403943
896.489570	0.404234
896.672080	0.403964
896.854573	0.403928
897.037046	0.404120
897.219502	0.404021
897.401940	0.404197
897.584359	0.403924
897.766760	0.403670
897.949143	0.403836
898.131507	0.403709
898.313854	0.403297
898.496182	0.403081
898.678492	0.402894
898.860783	0.402517
899.043057	0.402211
899.225312	0.402517
899.407549	0.402834
899.589768	0.402254
899.771968	0.402235
899.954151	0.401812
900.136315	0.401407
900.318461	0.401452
900.500588	0.401194
900.682698	0.400876
900.864789	0.400091
901.046862	0.399285
901.228917	0.398985
901.410953	0.398374
901.592971	0.398461
901.774972	0.398363
901.956953	0.397543
902.138917	0.397372
902.320862	0.396751
902.502790	0.396312
902.684699	0.396699
902.866589	0.396862
903.048462	0.396819
903.230316	0.395830
903.412152	0.395785
903.593970	0.396013
903.775770	0.395448
903.957551	0.395145
904.139314	0.395079
904.321059	0.394370
904.502786	0.393966
904.684494	0.393961
904.866185	0.394621
905.047857	0.393809
905.229510	0.392687
905.411146	0.392077
905.592763	0.391279
905.774363	0.391270
905.955943	0.390893
906.137506	0.390266
906.319051	0.389696
906.500577	0.388970
906.682085	0.388148
906.863575	0.388125
907.045046	0.388287
907.226500	0.388413
907.407935	0.387344
907.589352	0.386218
907.770750	0.385306
907.952131	0.384314
908.133493	0.383359
908.314837	0.383876
908.496163	0.383216
908.677470	0.383264
908.858760	0.383028
909.040031	0.382614
909.221284	0.382439
909.402518	0.382540
909.583735	0.381798
909.764933	0.381715
909.946113	0.380539
910.127275	0.380138
910.308418	0.379387
910.489544	0.378626
910.670651	0.378246
910.851740	0.378265
911.032810	0.377473
911.213863	0.377827
911.394897	0.377300
911.575913	0.376945
911.756911	0.376763
911.937890	0.375990
912.118851	0.375288
912.299794	0.375128
912.480719	0.374585
912.661626	0.374176
912.842514	0.373228
913.023384	0.372466
913.204236	0.371853
913.385070	0.370631
913.565886	0.370176
913.746683	0.369192
913.927462	0.368433
914.108223	0.367560
914.288965	0.367301
914.469690	0.366316
914.650396	0.366297
914.831084	0.365418
915.011754	0.365471
915.192405	0.364583
915.373038	0.364543
915.553653	0.364005
915.734250	0.363270
915.914829	0.362235
916.095389	0.361953
916.275931	0.361405
916.456455	0.361008
916.636961	0.360196
916.817448	0.359468
916.997917	0.358903
917.178368	0.358175
917.358801	0.357006
917.539216	0.356462
917.719612	0.355248
917.899990	0.353705
918.080350	0.353000
918.260692	0.352058
918.441015	0.351569
918.621320	0.350719
918.801607	0.349960
918.981876	0.349449
919.162127	0.348324
919.342359	0.348380
919.522573	0.347647
919.702769	0.347098
919.882947	0.346054
920.063106	0.345313
920.243247	0.344783
920.423370	0.344170
920.603475	0.343546
920.783562	0.343558
920.963630	0.342029
921.143680	0.341513
921.323712	0.340847
921.503725	0.340637
921.683721	0.339892
921.863698	0.338905
922.043657	0.337720
922.223598	0.337782
922.403520	0.336128
922.583424	0.335605
922.763311	0.334159
922.943178	0.333091
923.123028	0.331831
923.302859	0.330336
923.482673	0.329472
923.662467	0.328893
923.842244	0.328144
924.022003	0.328072
924.201743	0.327179
924.381465	0.327130
924.561169	0.326389
924.740854	0.326052
924.920522	0.325622
925.100171	0.324982
925.279802	0.324695
925.459414	0.323222
925.639009	0.322579
925.818585	0.322090
925.998143	0.320895
926.177683	0.320434
926.357205	0.319686
926.536708	0.319122
926.716193	0.317847
926.895660	0.315938
927.075109	0.315892
927.254539	0.313989
927.433951	0.313206
927.613345	0.312454
927.792721	0.310457
927.972079	0.309129
928.151418	0.307870
928.330739	0.307445
928.510042	0.306668
928.689327	0.304980
928.868593	0.304934
929.047841	0.303433
929.227071	0.301960
929.406283	0.301632
929.585476	0.300778
929.764652	0.299901
929.943809	0.298789
930.122948	0.297967
930.302068	0.296474
930.481171	0.295894
930.660255	0.295662
930.839321	0.295581
931.018369	0.294856
931.197398	0.294498
931.376409	0.293317
931.555402	0.292433
931.734377	0.291461
931.913334	0.291222
932.092272	0.289069
932.271192	0.287763
932.450094	0.286666
932.628978	0.285775
932.807844	0.283537
932.986691	0.283510
933.165520	0.282523
933.344331	0.281197
933.523123	0.280223
933.701898	0.279661
933.880654	0.279697
934.059392	0.278568
934.238111	0.277050
934.416813	0.275704
934.595496	0.273892
934.774161	0.272662
934.952808	0.272730
935.131437	0.271125
935.310047	0.270104
935.488639	0.266781
935.667213	0.266172
935.845769	0.264930
936.024306	0.265356
936.202825	0.264204
936.381326	0.262869
936.559809	0.260706
936.738274	0.259777
936.916720	0.258265
937.095148	0.258069
937.273558	0.256745
937.451950	0.255951
937.630323	0.253781
937.808678	0.253000
937.987015	0.252756
938.165334	0.251957
938.343635	0.250178
938.521917	0.249734
938.700181	0.249109
938.878427	0.247334
939.056655	0.246321
939.234864	0.245641
939.413055	0.243978
939.591228	0.242009
939.769383	0.240673
939.947519	0.240106
940.125638	0.239013
940.303738	0.237046
940.481820	0.236032
940.659883	0.234199
940.837929	0.233484
941.015956	0.232926
941.193965	0.231792
941.371955	0.231120
941.549928	0.230369
941.727882	0.227366
941.905818	0.226723
942.083736	0.225450
942.261636	0.224486
942.439517	0.222908
942.617380	0.221227
942.795225	0.220068
942.973052	0.218319
943.150860	0.216657
943.328651	0.216856
943.506423	0.215019
943.684176	0.214411
943.861912	0.213337
944.039629	0.211644
944.217328	0.210809
944.395009	0.210528
944.572672	0.208662
944.750317	0.208120
944.927943	0.206996
945.105551	0.206305
945.283141	0.205245
945.460712	0.204261
945.638265	0.203830
945.815801	0.202444
945.993317	0.200041
946.170816	0.200295
946.348297	0.198492
946.525759	0.197634
946.703203	0.196241
946.880629	0.193926
947.058036	0.192793
947.235425	0.190411
947.412797	0.189341
947.590149	0.188499
947.767484	0.185069
947.944800	0.184594
948.122099	0.183575
948.299379	0.183320
948.476640	0.183296
948.653884	0.181730
948.831109	0.181761
949.008316	0.179824
949.185505	0.177559
949.362676	0.177996
949.539828	0.174405
949.716962	0.170518
949.894078	0.168350
950.071176	0.166605
950.248256	0.165231
950.425317	0.163013
950.602360	0.161647
950.779385	0.161668
950.956391	0.159406
951.133380	0.159593
951.310350	0.160112
951.487302	0.160697
951.664235	0.159922
951.841151	0.159981
952.018048	0.159118
952.194927	0.158782
952.371788	0.157822
952.548631	0.157341
952.725455	0.156874
952.902261	0.154989
953.079049	0.152169
953.255819	0.148767
953.432570	0.145781
953.609303	0.143750
953.786018	0.142796
953.962715	0.140865
954.139394	0.138805
954.316054	0.136242
954.492696	0.134473
954.669320	0.132835
954.845926	0.133757
955.022513	0.135060
955.199083	0.133634
955.375634	0.131479
955.552166	0.133436
955.728681	0.134273
955.905177	0.135268
956.081655	0.135992
956.258115	0.136132
956.434557	0.135679
956.610980	0.133263
956.787385	0.133883
956.963772	0.134092
957.140141	0.129929
957.316492	0.128004
957.492824	0.125523
957.669138	0.125989
957.845434	0.126239
958.021712	0.122702
958.197971	0.121538
958.374212	0.120631
958.550435	0.120762
958.726640	0.121561
958.902826	0.121453
959.078995	0.122011
959.255145	0.121051
959.431277	0.117993
959.607390	0.118916
959.783486	0.119972
959.959563	0.120859
960.135622	0.118510
960.311662	0.118240
960.487685	0.117818
960.663689	0.117386
960.839675	0.115107
961.015643	0.117318
961.191593	0.116810
961.367524	0.115265
961.543437	0.114152
961.719332	0.114930
961.895209	0.113588
962.071067	0.113326
962.246907	0.112133
962.422730	0.113320
962.598533	0.111714
962.774319	0.112621
962.950086	0.111441
963.125835	0.111766
963.301566	0.110965
963.477279	0.112014
963.652973	0.111331
963.828650	0.111445
964.004308	0.108016
964.179947	0.107217
964.355569	0.107048
964.531172	0.109090
964.706757	0.107084
964.882324	0.105526
965.057873	0.105153
965.233403	0.105821
965.408916	0.107095
965.584410	0.108231
965.759885	0.108919
965.935343	0.106801
966.110782	0.104104
966.286203	0.103590
966.461606	0.102167
966.636991	0.101596
966.812357	0.101297
966.987705	0.098263
967.163035	0.099821
967.338347	0.100075
967.513641	0.099120
967.688916	0.100313
967.864173	0.100073
968.039412	0.102133
968.214632	0.100772
968.389835	0.100598
968.565019	0.101311
968.740185	0.099959
968.915333	0.099408
969.090462	0.099591
969.265573	0.097309
969.440667	0.098405
969.615741	0.098021
969.790798	0.100324
969.965836	0.098990
970.140856	0.100605
970.315858	0.101670
970.490842	0.101535
970.665808	0.102310
970.840755	0.104046
971.015684	0.103796
971.190595	0.103873
971.365487	0.101235
971.540362	0.100543
971.715218	0.099117
971.890056	0.097378
972.064875	0.097361
972.239677	0.096361
972.414460	0.096315
972.589225	0.096225
972.763972	0.097377
972.938700	0.096986
973.113411	0.098417
973.288103	0.097413
973.462777	0.097316
973.637432	0.098587
973.812070	0.098781
973.986689	0.099328
974.161290	0.098348
974.335873	0.096940
974.510437	0.097114
974.684984	0.096880
974.859512	0.098578
975.034022	0.099586
975.208513	0.099031
975.382987	0.100808
975.557442	0.101395
975.731879	0.101640
975.906298	0.103074
976.080698	0.103235
976.255080	0.102034
976.429445	0.101238
976.603790	0.103280
976.778118	0.101907
976.952427	0.100243
977.126719	0.097848
977.300992	0.096977
977.475246	0.094834
977.649483	0.095005
977.823701	0.097297
977.997901	0.097777
978.172083	0.094098
978.346247	0.094170
978.520392	0.095699
978.694519	0.095985
978.868628	0.097273
979.042719	0.098779
979.216791	0.098041
979.390845	0.098343
979.564882	0.097657
979.738899	0.099131
979.912899	0.099071
980.086880	0.097962
980.260843	0.100075
980.434788	0.100116
980.608715	0.099966
980.782623	0.100030
980.956514	0.098967
981.130386	0.099420
981.304240	0.098908
981.478075	0.097928
981.651892	0.098368
981.825692	0.097726
981.999472	0.098526
982.173235	0.098244
982.346980	0.099823
982.520706	0.097815
982.694414	0.099400
982.868104	0.101575
983.041775	0.102648
983.215428	0.102429
983.389064	0.102429
983.562680	0.103070
983.736279	0.103033
983.909860	0.103075
984.083422	0.105076
984.256966	0.103617
984.430491	0.103167
984.603999	0.103944
984.777488	0.102937
984.950959	0.103043
985.124412	0.102686
985.297847	0.100772
985.471263	0.101471
985.644661	0.099111
985.818041	0.099582
985.991403	0.099439
986.164747	0.099633
986.338072	0.100979
986.511379	0.099811
986.684668	0.100244
986.857938	0.101467
987.031191	0.101688
987.204425	0.102761
987.377641	0.102573
987.550839	0.101768
987.724018	0.101061
987.897179	0.100698
988.070322	0.101764
988.243447	0.101885
988.416554	0.103658
988.589642	0.101882
988.762712	0.102721
988.935764	0.101928
989.108798	0.103517
989.281813	0.103006
989.454811	0.104212
989.627790	0.103123
989.800751	0.100111
989.973693	0.099487
990.146617	0.100701
990.319524	0.100244
990.492412	0.100977
990.665281	0.098988
990.838133	0.099553
991.010966	0.098267
991.183781	0.098099
991.356578	0.100650
991.529356	0.101141
991.702117	0.100692
991.874859	0.103420
992.047583	0.101942
992.220288	0.101459
992.392976	0.100890
992.565645	0.101461
992.738296	0.101660
992.910929	0.099615
993.083543	0.098830
993.256139	0.097008
993.428718	0.093228
993.601277	0.093614
993.773819	0.095590
993.946342	0.095661
994.118848	0.095739
994.291335	0.096303
994.463803	0.096769
994.636254	0.097274
994.808686	0.098916
994.981100	0.101992
995.153496	0.103271
995.325874	0.101619
995.498233	0.102276
995.670574	0.105099
995.842897	0.103799
996.015202	0.104396
996.187488	0.102665
996.359757	0.103125
996.532007	0.102390
996.704239	0.101417
996.876452	0.101276
997.048648	0.101617
997.220825	0.099678
997.392984	0.101265
997.565124	0.101491
997.737247	0.102998
997.909351	0.101289
998.081437	0.101121
998.253505	0.099919
998.425554	0.101856
998.597586	0.101150
998.769599	0.100663
998.941594	0.099058
999.113571	0.099432
999.285529	0.098437
999.457469	0.097755
999.629391	0.096483
999.801295	0.098576
999.973181	0.095702
1000.145048	0.096036
1000.316897	0.095471
1000.488728	0.097253
1000.660541	0.095311
1000.832335	0.096092
1001.004111	0.097222
1001.175869	0.097294
1001.347609	0.095249
1001.519331	0.096574
1001.691034	0.095750
1001.862719	0.097239
1002.034386	0.096558
1002.206035	0.097577
1002.377665	0.097490
1002.549277	0.099427
1002.720871	0.100705
1002.892447	0.103084
1003.064004	0.103163
1003.235544	0.104643
1003.407065	0.103414
1003.578568	0.102363
1003.750052	0.103052
1003.921519	0.101987
1004.092967	0.100144
1004.264397	0.098881
1004.435809	0.098473
1004.607202	0.098312
1004.778577	0.096646
1004.949934	0.095139
1005.121273	0.095559
1005.292594	0.095725
1005.463896	0.097727
1005.635180	0.099837
1005.806446	0.098801
1005.977694	0.098186
1006.148923	0.098749
1006.320135	0.097470
1006.491328	0.097948
1006.662503	0.098068
1006.833659	0.097912
1007.004798	0.095876
1007.175918	0.094142
1007.347020	0.095710
1007.518103	0.096656
1007.689169	0.098080
1007.860216	0.100790
1008.031245	0.100732
1008.202256	0.100138
1008.373248	0.100148
1008.544223	0.101272
1008.715179	0.101376
1008.886117	0.102133
1009.057036	0.102623
1009.227938	0.100347
1009.398821	0.100674
1009.569686	0.101838
1009.740533	0.101228
1009.911361	0.101972
1010.082172	0.101245
1010.252964	0.099870
1010.423738	0.097776
1010.594493	0.096054
1010.765231	0.096754
1010.935950	0.094678
1011.106651	0.093517
1011.277334	0.094911
1011.447998	0.093724
1011.618645	0.094418
1011.789273	0.095559
1011.959882	0.097579
1012.130474	0.096036
1012.301048	0.095632
1012.471603	0.096733
1012.642140	0.098271
1012.812658	0.098679
1012.983159	0.098979
1013.153641	0.099498
1013.324105	0.099746
1013.494551	0.099089
1013.664979	0.101867
1013.835388	0.102701
1014.005779	0.103301
1014.176152	0.103168
1014.346507	0.105089
1014.516843	0.103737
1014.687162	0.103545
1014.857462	0.102601
1015.027744	0.102127
1015.198007	0.103359
1015.368252	0.103137
1015.538480	0.102549
1015.708689	0.102967
1015.878879	0.099944
1016.049052	0.101161
1016.219206	0.100670
1016.389342	0.101408
1016.559460	0.103195
1016.729559	0.100673
1016.899641	0.100366
1017.069704	0.100221
1017.239749	0.100557
1017.409775	0.102109
1017.579784	0.102711
1017.749774	0.104112
1017.919746	0.103838
1018.089700	0.101861
1018.259635	0.103266
1018.429553	0.102303
1018.599452	0.101251
1018.769333	0.101607
1018.939195	0.101982
1019.109040	0.100749
1019.278866	0.099940
1019.448674	0.099626
1019.618464	0.099799
1019.788235	0.098393
1019.957989	0.098306
1020.127724	0.099432
1020.297441	0.097506
1020.467139	0.097563
1020.636820	0.097330
1020.806482	0.096521
1020.976126	0.097284
1021.145752	0.098671
1021.315359	0.098921
1021.484948	0.099754
1021.654519	0.100781
1021.824072	0.100999
1021.993607	0.100346
1022.163123	0.102130
1022.332621	0.103225
1022.502101	0.102395
1022.671563	0.103792
1022.841007	0.103162
1023.010432	0.103964
1023.179839	0.103153
1023.349228	0.100599
1023.518598	0.099113
1023.687951	0.096049
1023.857285	0.093837
1024.026601	0.093422
1024.195899	0.090807
1024.365178	0.090615
1024.534439	0.089102
1024.703682	0.088635
1024.872907	0.089800
1025.042114	0.089075
1025.211302	0.090916
1025.380472	0.091352
1025.549624	0.091545
1025.718758	0.092700
1025.887873	0.093734
1026.056970	0.093964
1026.226049	0.095817
1026.395110	0.097067
1026.564153	0.098239
1026.733177	0.097380
1026.902183	0.098775
1027.071171	0.098488
1027.240141	0.096201
1027.409092	0.095722
1027.578026	0.095907
1027.746940	0.094287
1027.915837	0.094954
1028.084716	0.096440
1028.253576	0.096660
1028.422418	0.095659
1028.591242	0.097528
1028.760048	0.098878
1028.928835	0.098252
1029.097604	0.098585
1029.266355	0.098320
1029.435088	0.097477
1029.603803	0.097523
1029.772499	0.097335
1029.941177	0.096825
1030.109837	0.095402
1030.278478	0.096246
1030.447102	0.098118
1030.615707	0.097176
1030.784294	0.097339
1030.952863	0.096795
1031.121413	0.097080
1031.289945	0.098931
1031.458460	0.098473
1031.626955	0.099913
1031.795433	0.099004
1031.963892	0.097043
1032.132334	0.097700
1032.300756	0.097608
1032.469161	0.099617
1032.637548	0.098569
1032.805916	0.097682
1032.974266	0.099464
1033.142598	0.098659
1033.310911	0.100057
1033.479207	0.100077
1033.647484	0.100856
1033.815743	0.098695
1033.983983	0.098163
1034.152206	0.098092
1034.320410	0.096134
1034.488596	0.095429
1034.656764	0.095891
1034.824914	0.095260
1034.993045	0.096719
1035.161158	0.096456
1035.329253	0.098193
1035.497330	0.096048
1035.665388	0.095776
1035.833428	0.095438
1036.001450	0.095650
1036.169454	0.095278
1036.337440	0.093347
1036.505407	0.093285
1036.673356	0.094052
1036.841287	0.095413
1037.009200	0.096624
1037.177094	0.096406
1037.344970	0.098922
1037.512828	0.097446
1037.680668	0.096357
1037.848489	0.098170
1038.016293	0.096623
1038.184078	0.096787
1038.351845	0.096136
1038.519593	0.095722
1038.687324	0.095478
1038.855036	0.096476
1039.022730	0.097373
1039.190406	0.098412
1039.358063	0.096437
1039.525702	0.095034
1039.693323	0.094324
1039.860926	0.091867
1040.028511	0.092529
1040.196077	0.092770
1040.363625	0.091158
1040.531155	0.091186
1040.698667	0.090785
1040.866161	0.091401
1041.033636	0.093216
1041.201093	0.092363
1041.368532	0.094784
1041.535952	0.094687
1041.703355	0.096108
1041.870739	0.097160
1042.038105	0.097454
1042.205452	0.097714
1042.372782	0.098169
1042.540093	0.099818
1042.707386	0.099646
1042.874661	0.098211
1043.041918	0.096953
1043.209156	0.095368
1043.376376	0.093746
1043.543578	0.094635
1043.710762	0.093688
1043.877927	0.094508
1044.045074	0.093052
1044.212203	0.092673
1044.379314	0.095032
1044.546407	0.096038
1044.713481	0.096923
1044.880537	0.099040
1045.047575	0.098711
1045.214595	0.098953
1045.381596	0.097635
1045.548579	0.098226
1045.715544	0.099484
1045.882491	0.096776
1046.049420	0.097867
1046.216330	0.097525
1046.383222	0.097826
1046.550096	0.096917
1046.716951	0.096527
1046.883789	0.098078
1047.050608	0.095458
1047.217409	0.095220
1047.384192	0.096869
1047.550956	0.095650
1047.717703	0.095145
1047.884431	0.092854
1048.051140	0.093992
1048.217832	0.096330
1048.384505	0.095758
1048.551161	0.098797
1048.717798	0.096920
1048.884416	0.097134
1049.051017	0.096106
1049.217599	0.096259
1049.384163	0.097331
1049.550709	0.096475
1049.717237	0.092817
1049.883746	0.091326
1050.050237	0.089278
1050.216710	0.088771
1050.383165	0.088729
1050.549601	0.089807
1050.716019	0.090682
1050.882420	0.089428
1051.048801	0.089492
1051.215165	0.092006
1051.381510	0.093893
1051.547837	0.094229
1051.714146	0.095392
1051.880437	0.095490
1052.046709	0.096771
1052.212964	0.096802
1052.379200	0.096147
1052.545417	0.096921
1052.711617	0.097998
1052.877798	0.096344
1053.043961	0.097417
1053.210106	0.097940
1053.376233	0.098553
1053.542341	0.096823
1053.708432	0.097184
1053.874504	0.098692
1054.040557	0.099993
1054.206593	0.097490
1054.372610	0.098445
1054.538609	0.097706
1054.704590	0.097645
1054.870553	0.096740
1055.036497	0.096879
1055.202424	0.093856
1055.368331	0.092451
1055.534221	0.090238
1055.700093	0.091333
1055.865946	0.090659
1056.031781	0.090391
1056.197598	0.091422
1056.363397	0.089516
1056.529177	0.089411
1056.694939	0.090022
1056.860683	0.092592
1057.026409	0.093494
1057.192116	0.092542
1057.357806	0.093526
1057.523477	0.095741
1057.689130	0.094913
1057.854764	0.094600
1058.020381	0.096049
1058.185979	0.097833
1058.351559	0.097619
1058.517120	0.097803
1058.682664	0.098446
1058.848189	0.097575
1059.013696	0.096528
1059.179185	0.096578
1059.344656	0.097917
1059.510108	0.097374
1059.675542	0.095428
1059.840958	0.093704
1060.006356	0.093538
1060.171735	0.094745
1060.337096	0.096241
1060.502439	0.094265
1060.667764	0.092033
1060.833071	0.091771
1060.998359	0.092375
1061.163629	0.094234
1061.328881	0.095970
1061.494115	0.094618
1061.659330	0.093064
1061.824527	0.093646
1061.989706	0.096189
1062.154867	0.097370
1062.320010	0.098851
1062.485134	0.098637
1062.650240	0.098417
1062.815328	0.097516
1062.980398	0.096761
1063.145449	0.097062
1063.310482	0.095465
1063.475497	0.094220
1063.640494	0.095643
1063.805473	0.094640
1063.970433	0.093224
1064.135375	0.093383
1064.300299	0.092923
1064.465204	0.093986
1064.630092	0.093666
1064.794961	0.093699
1064.959812	0.094684
1065.124645	0.095331
1065.289459	0.094501
1065.454256	0.094643
1065.619034	0.095769
1065.783793	0.095655
1065.948535	0.097615
1066.113258	0.098877
1066.277964	0.100287
1066.442651	0.098391
1066.607319	0.098720
1066.771970	0.099039
1066.936602	0.100441
1067.101216	0.100345
1067.265812	0.101327
1067.430389	0.098614
1067.594949	0.098465
1067.759490	0.096982
1067.924013	0.098749
1068.088518	0.097195
1068.253004	0.097236
1068.417472	0.095686
1068.581922	0.093861
1068.746354	0.094343
1068.910768	0.097949
1069.075163	0.099147
1069.239540	0.100806
1069.403899	0.100630
1069.568240	0.103070
1069.732562	0.103050
1069.896866	0.106175
1070.061152	0.109532
1070.225420	0.107543
1070.389670	0.106029
1070.553901	0.105733
1070.718114	0.104789
1070.882309	0.105740
1071.046486	0.104294
1071.210644	0.105318
1071.374784	0.104000
1071.538906	0.102004
1071.703010	0.102477
1071.867096	0.100758
1072.031163	0.100376
1072.195212	0.100103
1072.359243	0.099608
1072.523256	0.100653
1072.687250	0.101664
1072.851226	0.102570
1073.015184	0.103029
1073.179124	0.105569
1073.343045	0.107063
1073.506949	0.108500
1073.670834	0.106436
1073.834701	0.107028
1073.998549	0.105134
1074.162380	0.102844
1074.326192	0.102433
1074.489986	0.101984
1074.653761	0.102057
1074.817519	0.101229
1074.981258	0.101291
1075.144979	0.104183
1075.308682	0.101862
1075.472367	0.103665
1075.636033	0.106758
1075.799681	0.106728
1075.963311	0.106556
1076.126923	0.104631
1076.290516	0.107211
1076.454092	0.104963
1076.617649	0.104670
1076.781187	0.107974
1076.944708	0.107948
1077.108210	0.107309
1077.271695	0.104601
1077.435160	0.104816
1077.598608	0.104448
1077.762038	0.102578
1077.925449	0.103875
1078.088842	0.104710
1078.252217	0.102600
1078.415573	0.101253
1078.578912	0.100997
1078.742232	0.102246
1078.905534	0.102070
1079.068817	0.103215
1079.232083	0.105986
1079.395330	0.104096
1079.558559	0.103166
1079.721770	0.103327
1079.884962	0.102828
1080.048136	0.101378
1080.211293	0.102066
1080.374430	0.103197
1080.537550	0.103754
1080.700651	0.100800
1080.863735	0.104007
1081.026800	0.104965
1081.189846	0.105154
1081.352875	0.108092
1081.515885	0.109962
1081.678877	0.110807
1081.841851	0.108934
1082.004807	0.106103
1082.167744	0.107151
1082.330663	0.105975
1082.493564	0.105807
1082.656447	0.106243
1082.819312	0.104062
1082.982158	0.104630
1083.144986	0.105066
1083.307796	0.104837
1083.470587	0.108165
1083.633361	0.109101
1083.796116	0.108885
1083.958853	0.110007
1084.121571	0.109108
1084.284272	0.110950
1084.446954	0.109040
1084.609618	0.109276
1084.772264	0.110518
1084.934892	0.111057
1085.097501	0.111558
1085.260092	0.111831
1085.422665	0.112055
1085.585220	0.113371
1085.747756	0.111073
1085.910274	0.114600
1086.072774	0.113051
1086.235256	0.114411
1086.397720	0.114342
1086.560165	0.109789
1086.722592	0.109231
1086.885001	0.107839
1087.047392	0.107930
1087.209764	0.109012
1087.372119	0.105263
1087.534455	0.104152
1087.696772	0.103230
1087.859072	0.102274
1088.021353	0.104517
1088.183616	0.104733
1088.345861	0.105057
1088.508088	0.106686
1088.670296	0.108448
1088.832486	0.111113
1088.994658	0.112391
1089.156812	0.112439
1089.318948	0.112949
1089.481065	0.114225
1089.643164	0.115004
1089.805245	0.113961
1089.967308	0.110458
1090.129352	0.110626
1090.291378	0.110115
1090.453386	0.110636
1090.615376	0.112807
1090.777347	0.111699
1090.939301	0.111310
1091.101236	0.110808
1091.263153	0.110305
1091.425051	0.114087
1091.586932	0.110747
1091.748794	0.108283
1091.910638	0.110164
1092.072463	0.109134
1092.234271	0.110209
1092.396060	0.109393
1092.557831	0.107611
1092.719584	0.109288
1092.881319	0.106338
1093.043035	0.110247
1093.204733	0.111372
1093.366413	0.110938
1093.528075	0.109396
1093.689718	0.108883
1093.851343	0.107630
1094.012950	0.110588
1094.174539	0.109821
1094.336110	0.113158
1094.497662	0.111045
1094.659196	0.113061
1094.820712	0.109528
1094.982210	0.109265
1095.143689	0.109332
1095.305151	0.112825
1095.466594	0.111448
1095.628018	0.111118
1095.789425	0.106950
1095.950813	0.108887
1096.112183	0.106581
1096.273535	0.107253
1096.434869	0.107157
1096.596184	0.108757
1096.757482	0.105931
1096.918761	0.107626
1097.080021	0.109103
1097.241264	0.109991
1097.402488	0.106382
1097.563694	0.107578
1097.724882	0.106134
1097.886052	0.105554
1098.047203	0.103563
1098.208336	0.107959
1098.369451	0.104757
1098.530548	0.104706
1098.691627	0.106930
1098.852687	0.110709
1099.013729	0.113720
1099.174753	0.116852
1099.335758	0.117127
1099.496746	0.118065
1099.657715	0.113497
1099.818666	0.113479
1099.979599	0.112519
1100.140513	0.110686
1100.301409	0.105576
1100.462287	0.101898
1100.623147	0.102139
1100.783989	0.102967
1100.944812	0.102956
1101.105617	0.106593
1101.266404	0.108647
1101.427173	0.109840
1101.587923	0.110097
1101.748656	0.115294
1101.909370	0.112193
1102.070066	0.113922
1102.230743	0.114953
1102.391403	0.115433
1102.552044	0.113034
1102.712667	0.111635
1102.873271	0.111164
1103.033858	0.110069
1103.194426	0.108144
1103.354976	0.112312
1103.515508	0.111824
1103.676021	0.113114
1103.836517	0.112627
1103.996994	0.113070
1104.157453	0.116656
1104.317893	0.118115
1104.478316	0.121313
1104.638720	0.120186
1104.799106	0.117915
1104.959474	0.115102
1105.119823	0.114743
1105.280155	0.116135
1105.440468	0.116516
1105.600763	0.113667
1105.761039	0.111367
1105.921298	0.112608
1106.081538	0.113765
1106.241760	0.117332
1106.401964	0.117618
1106.562149	0.118244
1106.722316	0.115388
1106.882465	0.116940
1107.042596	0.116764
1107.202709	0.117277
1107.362803	0.115492
1107.522879	0.116496
1107.682937	0.114409
1107.842977	0.115618
1108.002999	0.110700
1108.163002	0.110590
1108.322987	0.108229
1108.482954	0.108178
1108.642902	0.107111
1108.802833	0.107245
1108.962745	0.108047
1109.122639	0.108656
1109.282515	0.110130
1109.442372	0.111608
1109.602211	0.112722
1109.762032	0.113173
1109.921835	0.113650
1110.081620	0.115990
1110.241386	0.116380
1110.401134	0.118207
1110.560864	0.113460
1110.720576	0.114940
1110.880269	0.116343
1111.039945	0.118154
1111.199602	0.117880
1111.359240	0.116807
1111.518861	0.117680
1111.678463	0.115213
1111.838047	0.112297
1111.997613	0.119258
1112.157161	0.115503
1112.316690	0.114763
1112.476202	0.111173
1112.635695	0.113528
1112.795169	0.117087
1112.954626	0.117652
1113.114064	0.120887
1113.273484	0.117222
1113.432886	0.113888
1113.592270	0.116611
1113.751635	0.120912
1113.910983	0.125664
1114.070312	0.123558
1114.229622	0.122613
1114.388915	0.120618
1114.548189	0.117106
1114.707445	0.122122
1114.866683	0.123369
1115.025903	0.121445
1115.185104	0.115827
1115.344287	0.113618
1115.503452	0.117361
1115.662599	0.119714
1115.821727	0.120136
1115.980838	0.124596
1116.139930	0.121240
1116.299004	0.118051
1116.458059	0.118928
1116.617097	0.119098
1116.776116	0.117410
1116.935117	0.115526
1117.094099	0.113251
1117.253064	0.115491
1117.412010	0.114042
1117.570938	0.118702
1117.729848	0.121008
1117.888740	0.118840
1118.047613	0.119654
1118.206468	0.124399
1118.365305	0.124187
1118.524124	0.122581
1118.682924	0.118634
1118.841707	0.116804
1119.000471	0.115689
1119.159216	0.116396
1119.317944	0.120473
1119.476653	0.122187
1119.635344	0.118322
1119.794017	0.117007
1119.952672	0.120508
1120.111308	0.123340
1120.269927	0.123750
1120.428527	0.121605
1120.587108	0.125370
1120.745672	0.121596
1120.904217	0.120992
1121.062744	0.119024
1121.221253	0.119620
1121.379744	0.118842
1121.538216	0.114875
1121.696671	0.115592
1121.855107	0.116646
1122.013524	0.111612
1122.171924	0.112330
1122.330305	0.114376
1122.488668	0.118552
1122.647013	0.119970
1122.805340	0.115470
1122.963648	0.115889
1123.121938	0.114323
1123.280210	0.113684
1123.438464	0.116014
1123.596700	0.114480
1123.754917	0.114147
1123.913116	0.115746
1124.071297	0.116738
1124.229459	0.118761
1124.387604	0.118160
1124.545730	0.118040
1124.703838	0.120757
1124.861928	0.123596
1125.019999	0.122586
1125.178052	0.122939
1125.336088	0.118878
1125.494104	0.118636
1125.652103	0.119957
1125.810083	0.122358
1125.968045	0.124559
1126.125989	0.122526
1126.283915	0.120831
1126.441823	0.119128
1126.599712	0.114268
1126.757583	0.117229
1126.915436	0.109684
1127.073270	0.111130
1127.231087	0.112248
1127.388885	0.111423
1127.546665	0.107831
1127.704426	0.111054
1127.862170	0.118096
1128.019895	0.118312
1128.177602	0.118397
1128.335291	0.121331
1128.492961	0.118183
1128.650614	0.113764
1128.808248	0.115455
1128.965864	0.117066
1129.123461	0.115793
1129.281041	0.114957
1129.438602	0.121872
1129.596145	0.123700
1129.753670	0.126143
1129.911176	0.128616
1130.068665	0.135586
1130.226135	0.134501
1130.383587	0.136853
1130.541020	0.135367
1130.698436	0.130287
1130.855833	0.128475
1131.013212	0.129498
1131.170573	0.126478
1131.327915	0.121899
1131.485239	0.117776
1131.642545	0.116260
1131.799833	0.117087
1131.957103	0.119360
1132.114354	0.120499
1132.271588	0.118764
1132.428803	0.115255
1132.585999	0.117967
1132.743178	0.116950
1132.900338	0.116332
1133.057480	0.116555
1133.214604	0.114495
1133.371710	0.112360
1133.528797	0.112406
1133.685866	0.109904
1133.842917	0.105655
1133.999950	0.105216
1134.156964	0.109178
1134.313960	0.110444
1134.470938	0.116653
1134.627898	0.114712
1134.784840	0.110648
1134.941763	0.115104
1135.098668	0.119570
1135.255555	0.123192
1135.412424	0.122777
1135.569274	0.120108
1135.726107	0.120281
1135.882921	0.113875
1136.039716	0.114397
1136.196494	0.117971
1136.353253	0.111990
1136.509995	0.105806
1136.666717	0.107611
1136.823422	0.110982
1136.980109	0.116149
1137.136777	0.114493
1137.293427	0.115003
1137.450059	0.117466
1137.606672	0.113335
1137.763267	0.118566
1137.919844	0.117625
1138.076403	0.115596
1138.232944	0.115275
1138.389466	0.109409
1138.545971	0.114966
1138.702457	0.109353
1138.858924	0.106170
1139.015374	0.108941
1139.171805	0.111547
1139.328218	0.115992
1139.484613	0.114890
1139.640990	0.113124
1139.797348	0.114828
1139.953688	0.111805
1140.110010	0.115763
1140.266314	0.118460
1140.422600	0.115656
1140.578867	0.109448
1140.735116	0.113071
1140.891347	0.112238
1141.047559	0.111759
1141.203754	0.113113
1141.359930	0.110029
1141.516088	0.111096
1141.672228	0.111057
1141.828349	0.109126
1141.984452	0.110421
1142.140537	0.104488
1142.296604	0.106408
1142.452653	0.105061
1142.608683	0.107014
1142.764695	0.101856
1142.920689	0.102285
1143.076665	0.099084
1143.232622	0.101416
1143.388562	0.100714
1143.544483	0.102395
1143.700385	0.096464
1143.856270	0.096880
1144.012136	0.100164
1144.167985	0.104696
1144.323814	0.104879
1144.479626	0.108931
1144.635420	0.109460
1144.791195	0.113343
1144.946952	0.111600
1145.102691	0.117773
1145.258411	0.122527
1145.414113	0.121837
1145.569798	0.123143
1145.725463	0.121728
1145.881111	0.116930
1146.036741	0.117697
1146.192352	0.116774
1146.347945	0.116192
1146.503519	0.114992
1146.659076	0.112147
1146.814614	0.107409
1146.970134	0.109574
1147.125636	0.107151
1147.281120	0.107818
1147.436585	0.106938
1147.592032	0.101197
1147.747461	0.103696
1147.902872	0.108043
1148.058265	0.104237
1148.213639	0.102303
1148.368995	0.103877
1148.524333	0.107357
1148.679653	0.107783
1148.834954	0.106997
1148.990237	0.113164
1149.145502	0.113524
1149.300749	0.109826
1149.455977	0.111971
1149.611188	0.117791
1149.766380	0.117472
1149.921553	0.117844
1150.076709	0.121615
1150.231846	0.124082
1150.386966	0.122960
1150.542066	0.117891
1150.697149	0.110800
1150.852214	0.113433
1151.007260	0.109076
1151.162288	0.110003
1151.317298	0.108367
1151.472289	0.105122
1151.627263	0.097952
1151.782218	0.096179
1151.937155	0.103122
1152.092073	0.108885
1152.246974	0.107167
1152.401856	0.106804
1152.556720	0.105012
1152.711566	0.104988
1152.866393	0.111308
1153.021203	0.115655
1153.175994	0.115397
1153.330767	0.117318
1153.485521	0.115439
1153.640258	0.112711
1153.794976	0.113473
1153.949676	0.109349
1154.104358	0.112103
1154.259021	0.105019
1154.413667	0.112416
1154.568294	0.113591
1154.722903	0.115147
1154.877493	0.118151
1155.032066	0.120381
1155.186620	0.116408
1155.341156	0.114210
1155.495674	0.110230
1155.650173	0.113719
1155.804654	0.110771
1155.959118	0.113900
1156.113562	0.113112
1156.267989	0.114423
1156.422397	0.112813
1156.576788	0.113845
1156.731160	0.115895
1156.885513	0.116657
1157.039849	0.111734
1157.194166	0.114807
1157.348465	0.118894
1157.502746	0.114828
1157.657009	0.112523
1157.811253	0.107973
1157.965479	0.111006
1158.119687	0.113137
1158.273877	0.113700
1158.428048	0.117900
1158.582201	0.109422
1158.736337	0.107332
1158.890453	0.104877
1159.044552	0.101572
1159.198632	0.104774
1159.352694	0.102640
1159.506738	0.101344
1159.660764	0.103896
1159.814771	0.105671
1159.968761	0.107138
1160.122732	0.103386
1160.276685	0.103057
1160.430619	0.108905
1160.584535	0.108115
1160.738434	0.111600
1160.892313	0.112562
1161.046175	0.111732
1161.200019	0.104199
1161.353844	0.104810
1161.507651	0.103193
1161.661440	0.098270
1161.815210	0.092361
1161.968962	0.093475
1162.122697	0.090645
1162.276412	0.090262
1162.430110	0.090905
1162.583789	0.099399
1162.737451	0.097404
1162.891094	0.095856
1163.044718	0.098806
1163.198325	0.102999
1163.351913	0.106515
1163.505483	0.107095
1163.659035	0.116712
1163.812569	0.114715
1163.966084	0.108071
1164.119581	0.110381
1164.273060	0.108608
1164.426521	0.118023
1164.579964	0.112567
1164.733388	0.107209
1164.886794	0.097606
1165.040182	0.090308
1165.193551	0.093989
1165.346903	0.096963
1165.500236	0.095049
1165.653551	0.100773
1165.806848	0.087968
1165.960126	0.086122
1166.113386	0.088221
1166.266628	0.093481
1166.419852	0.083680
1166.573058	0.076571
1166.726245	0.072526
1166.879414	0.071897
1167.032565	0.073578
1167.185698	0.081898
1167.338812	0.085231
1167.491909	0.091469
1167.644987	0.096536
1167.798046	0.103126
1167.951088	0.112178
1168.104111	0.114176
1168.257117	0.109750
1168.410103	0.101999
1168.563072	0.094433
1168.716023	0.090742
1168.868955	0.080463
1169.021869	0.082889
1169.174765	0.081847
1169.327642	0.076775
1169.480501	0.084667
1169.633343	0.091277
1169.786165	0.096388
1169.938970	0.107472
1170.091757	0.118439
1170.244525	0.119537
1170.397275	0.112190
1170.550007	0.116459
1170.702720	0.126572
1170.855415	0.122230
1171.008092	0.116673
1171.160751	0.108541
1171.313392	0.097375
1171.466014	0.129612
1171.618619	0.061831
1171.771205	0.061831
1171.923772	0.061831
