sample name	sample
index	748
start time	 03-25-2021  04:06:19 PM
880	0.454975
Peak Time (s)	91.535
Peak Height 	0.455
calc peak height	90,93
Baseline Time (s)	11.036
Baseline Value 	-0.005602
subtract baseline	10,4
Abs	0.332575
Peak Time (s)	91.535
Peak Height 	0.3326
calc peak height	90,93
Baseline Time (s)	9.537
Baseline Value 	0.002021
subtract baseline	10,3
PK_550	0.167151
Peak Time (s)	90.537
Peak Height 	0.1672
calc peak height	90,93
Baseline Time (s)	9.034
Baseline Value 	4.1635E-4
subtract baseline	10,2
PK_880	0.316588
Peak Time (s)	92.535
Peak Height 	0.3166
calc peak height	90,93
Baseline Time (s)	10.536
Baseline Value 	0.002481
subtract baseline	10,1


Time (s)	A880-A510	A880-A775	A880-A975	A880	I510	I775	I975	I880	
0.037500	-0.000310	-0.000485	-0.001829	0.003276	7176.651670	43980.138156	3965.450085	23470.430823
0.535000	-0.001310	0.000239	-0.000132	0.005349	7146.476051	43852.823313	3964.498164	23372.410965
1.035500	-0.000947	-0.000499	-0.005342	0.004378	7159.548836	43874.745572	3953.852704	23418.257180
1.535000	-0.005641	-0.001312	-0.002435	0.007338	7085.083826	43520.632340	3953.721294	23278.838914
2.035500	-0.000814	-0.000425	-0.001174	0.001936	7184.901251	44112.704154	3970.498402	23534.005601
2.536500	-0.000888	-0.000685	-0.000313	0.001737	7186.126136	44106.840122	3973.191376	23543.464693
3.036500	0.000227	-0.000468	0.001595	-0.000480	7219.166606	44338.304914	3983.733760	23649.158332
3.537000	-0.000884	0.000552	-0.000138	0.001900	7184.566064	44208.846275	3973.222481	23535.721639
4.037000	-0.002224	-0.000334	0.000184	0.000274	7187.387584	44279.243839	3978.190323	23613.172697
4.537500	0.000305	0.000497	-0.000569	0.001092	7204.323813	44280.459869	3974.181322	23574.164292
5.035000	-0.000796	0.000590	0.000476	0.000779	7196.512534	44319.140848	3977.643132	23589.058683
5.535000	-0.000663	-0.000290	0.003303	-0.000008	7205.626565	44310.262641	3986.911112	23626.610919
6.035500	-0.000306	0.000561	0.000723	0.000715	7202.003641	44322.512320	3978.438787	23592.125735
6.535500	-0.000844	-0.000367	0.002331	-0.000016	7203.912734	44303.669863	3984.432191	23626.994145
7.036000	0.000524	0.000018	0.005966	0.000545	7211.934098	44287.055083	3992.361077	23600.254001
7.536500	-0.000009	-0.000189	0.000521	0.000300	7209.069149	44290.586151	3978.983121	23611.913434
8.039000	-0.000359	0.000078	0.000925	0.000518	7203.434658	44295.232559	3979.459907	23601.525689
8.572500	0.000279	0.000342	0.002494	0.000949	7205.490840	44279.350462	3982.375283	23580.994008
9.034000	0.000299	0.000000	0.002062	0.000099	7214.126993	44327.753623	3983.445842	23621.514358
9.537500	-0.001235	-0.000201	0.000000	-0.000014	7200.024487	44319.345891	3978.454933	23626.920510
10.035000	0.001407	0.000224	-0.001373	0.000165	7224.504497	44342.877493	3974.494923	23618.384227
10.535500	0.000000	-0.000163	-0.000545	-0.000226	7214.384559	44343.167918	3977.602559	23637.038066
11.035500	-0.000546	0.000572	0.000195	0.000000	7206.714737	44391.792694	3978.916934	23626.243450
11.535500	-0.000859	-0.000309	-0.001477	-0.000274	7206.320902	44333.853460	3975.347607	23639.313546
12.036500	-0.000105	-0.000376	0.005348	-0.000358	7214.651316	44335.462804	3993.098721	23643.349706
12.536500	-0.000808	-0.000399	-0.001720	-0.000137	7205.474585	44312.183339	3974.380124	23632.785868
13.036500	0.001300	-0.000077	0.005189	-0.001699	7242.038766	44492.157423	3996.161138	23707.514453
13.537500	-0.002043	-0.000258	-0.003053	0.001010	7181.903048	44216.402634	3968.081692	23578.060272
14.053500	0.000152	0.000253	-0.001090	0.001200	7201.737824	44247.012852	3972.581905	23569.018515
14.535000	-0.001307	-0.000321	-0.000224	0.002698	7172.527843	44050.320954	3970.977599	23497.838457
15.035000	-0.000319	0.000253	0.007095	0.001619	7192.924739	44207.096122	3992.501352	23549.075092
15.547000	-0.003445	0.000147	0.001380	0.002009	7158.275531	44160.046999	3976.812688	23530.529271
16.035500	0.001034	-0.000284	0.001208	0.000757	7214.893565	44238.053016	3979.573364	23590.141707
16.536000	-0.001613	-0.000484	-0.002977	0.000560	7190.596514	44237.754808	3969.416345	23599.511791
17.036500	0.000936	-0.000220	-0.000456	0.000039	7221.057863	44312.499748	3977.153641	23624.364768
17.537000	0.001345	0.000126	-0.000133	-0.000832	7233.829305	44428.631106	3980.207553	23666.021955
18.036500	0.001302	0.000856	0.000222	-0.001408	7239.151979	44553.591562	3982.590765	23693.561340
18.537000	0.000071	-0.000257	0.003556	0.001630	7196.673606	44157.663498	3983.352010	23548.553793
19.037500	-0.001321	0.000423	0.004819	0.001801	7181.232476	44206.013192	3986.159490	23540.446645
19.535000	-0.000272	0.000344	-0.000990	0.001679	7192.799934	44210.160835	3971.620430	23546.248358
20.035500	0.000356	0.000115	-0.001744	0.001649	7199.308361	44191.174053	3969.779985	23547.657723
20.535500	-0.000608	0.000317	-0.000758	0.001527	7190.982048	44222.040199	3972.594523	23553.481059
21.036000	-0.000727	0.000054	0.001080	0.001379	7191.266987	44211.057729	3977.655457	23560.517579
21.536000	-0.000860	0.000760	-0.000272	0.001862	7185.180903	44232.312105	3972.978528	23537.540824
22.036500	-0.002152	-0.000352	-0.000639	0.000901	7181.907840	44217.846138	3974.489070	23583.253937
22.536500	-0.001181	0.000236	0.001567	0.002134	7179.322049	44156.632112	3976.971898	23524.607235
23.037000	-0.000402	0.000097	-0.000860	0.001748	7190.824534	44180.128082	3971.774080	23542.962557
23.537000	-0.000218	0.000458	-0.000625	0.001817	7191.971700	44207.898752	3972.196093	23539.691016
24.037500	0.000017	-0.000585	-0.002395	0.001193	7200.467187	44167.978782	3969.286587	23569.356533
24.535000	-0.000262	0.000102	-0.001088	0.001345	7196.196814	44218.806607	3972.217059	23562.103823
25.035500	0.000605	0.000140	-0.002005	0.001562	7202.639133	44201.819333	3969.339709	23551.806202
25.536000	-0.000739	-0.000118	-0.001057	0.001473	7190.217453	44185.768192	3971.971453	23556.028438
26.036000	0.000856	0.000246	-0.001392	0.001867	7202.102260	44182.884626	3970.121231	23537.277921
26.536000	-0.001863	-0.000533	-0.001844	0.001095	7182.843735	44182.195870	3970.931019	23574.008263
27.036500	-0.002056	0.000547	0.002994	0.001908	7172.929485	44207.573042	3981.198326	23535.334862
27.536500	-0.000211	0.000373	0.001778	0.002147	7188.772700	44168.342926	3977.474678	23523.980872
28.034000	-0.001067	0.000265	0.001793	-0.001683	7218.268508	44523.329980	3987.338771	23706.761230
28.537000	-0.001124	0.000232	-0.001676	0.000681	7194.240832	44294.405795	3972.411730	23593.751802
29.038500	-0.004857	-0.000493	0.000814	0.003003	7134.736257	44005.137652	3972.836600	23483.337519
29.535500	0.000933	0.001250	0.006702	0.001736	7204.156812	44290.843471	3991.181125	23543.499796
30.035500	0.001057	0.000357	0.004998	0.001174	7210.976018	44259.360639	3988.232544	23570.243790
30.536000	-0.000046	-0.000080	0.000951	0.000798	7203.764262	44253.614254	3978.810690	23588.190285
31.035500	-0.002111	-0.000208	0.003097	0.003077	7160.894673	44025.132895	3978.468997	23479.845189
31.536500	-0.000019	0.000208	0.003460	0.001648	7195.613201	44200.180545	3983.060563	23547.727691
32.037000	-0.000892	0.000018	0.003890	0.003062	7173.031958	44048.025216	3980.537007	23480.567907
32.538000	-0.000655	0.000689	0.002687	0.001688	7188.919196	44242.032823	3980.972860	23545.792964
33.037500	-0.002526	-0.000103	-0.000961	0.003637	7151.335224	43982.158483	3966.729671	23453.316600
33.537500	-0.000639	0.000551	0.000955	0.003115	7174.997673	44093.405999	3972.911652	23478.035238
34.037500	0.000226	-0.000227	-0.000990	0.001075	7203.710703	44213.272845	3973.153660	23574.978243
34.535500	0.001263	0.000461	0.006700	-0.000918	7233.871105	44468.944408	3998.061090	23670.133590
35.036000	-0.001429	0.000269	-0.006591	0.003770	7160.783701	44004.736776	3952.252976	23447.031616
35.535500	0.000863	0.000913	0.003268	0.003694	7184.095202	44072.851804	3977.330358	23450.599177
36.036000	-0.000864	0.000609	0.000558	0.003125	7172.690002	44098.013332	3971.879032	23477.590675
36.536500	-0.000202	0.000816	0.001258	0.003355	7176.936560	44095.859428	3973.072962	23466.685878
37.036500	-0.001114	0.001262	-0.000066	0.004475	7156.956325	44031.982114	3966.874077	23413.666812
37.537500	-0.000785	0.000894	0.003772	0.003376	7170.985756	44101.250568	3979.430231	23465.675045
38.037500	0.000058	0.000815	0.003989	0.003008	7182.919627	44128.576436	3980.928225	23483.107252
38.535000	-0.001507	0.000421	-0.001291	0.002971	7167.868923	44094.706624	3967.578447	23484.856859
39.035500	-0.001079	0.000889	-0.002241	0.002881	7172.961699	44147.715050	3965.406431	23489.135444
39.535500	-0.000331	0.000389	0.000677	0.003038	7178.795800	44085.408407	3972.402486	23481.718670
40.035500	-0.000744	0.000075	-0.001567	0.002567	7179.363799	44100.353382	3967.904597	23504.063013
40.538500	-0.000966	0.000155	-0.000288	0.002282	7179.979527	44134.860184	3971.868515	23517.556609
41.036500	-0.000850	-0.000104	0.001391	0.002338	7180.571194	44104.974246	3976.001111	23514.907923
41.536500	-0.001621	0.000554	-0.003985	0.002681	7169.607211	44134.883274	3961.513451	23498.649283
42.037000	-0.003067	0.000653	0.001994	0.002848	7153.763847	44128.475233	3976.237851	23490.708025
42.537000	-0.000941	-0.000233	0.002737	0.002104	7181.987783	44114.911286	3980.036707	23526.021541
43.035000	-0.000905	0.000668	0.003174	0.003052	7172.993518	44110.529889	3978.730147	23481.036293
43.535500	0.000397	0.000843	0.000415	0.002879	7187.550088	44143.543291	3972.139752	23489.244121
44.035000	0.000433	0.000956	-0.001783	0.003039	7186.320163	44139.069223	3966.164973	23481.670873
44.535500	-0.001233	-0.000096	0.006370	0.001994	7180.191144	44138.425402	3989.659238	23531.260560
45.036000	0.004449	0.000501	0.002018	-0.001787	7274.551504	44555.937965	3988.186032	23711.732145
45.536500	0.000458	0.000718	0.001152	0.002436	7192.526013	44173.744704	3975.142866	23510.268765
46.065000	0.001186	0.000521	0.000396	0.001543	7208.590134	44239.821479	3975.489982	23552.680795
46.536000	-0.000015	0.000830	-0.004429	0.000940	7202.653807	44326.708065	3964.779764	23581.387461
47.037000	0.001698	0.000623	0.001782	0.001457	7214.533229	44257.682685	3979.248643	23556.771671
47.537000	0.000136	0.000698	-0.000894	0.002370	7189.993583	44178.087888	3970.107408	23513.398414
48.034500	-0.001081	0.000914	-0.001612	0.001921	7182.410127	44241.237206	3969.425881	23534.716344
48.534500	-0.000022	0.000292	0.000646	0.003070	7181.521268	44073.144153	3972.239747	23480.157753
49.041500	-0.003222	0.000697	-0.002700	0.005716	7124.239333	43861.397032	3957.119017	23355.132832
49.535500	-0.000953	0.000055	0.002369	0.002331	7179.635793	44120.830506	3978.515870	23515.267564
50.036000	-0.001356	0.000474	0.004327	0.001717	7181.718112	44218.873752	3985.109880	23544.443456
50.536500	-0.000744	0.000833	0.007688	0.001267	7192.198633	44295.810627	3994.949322	23565.835806
51.036500	-0.001546	0.000161	0.000875	0.004923	7148.333661	43885.581172	3968.120681	23392.509608
51.536500	0.000302	0.001566	0.003066	0.000912	7206.081716	44399.618568	3983.937967	23582.756041
52.037500	0.001685	-0.000035	0.004363	-0.000584	7234.748450	44389.576700	3991.134682	23654.153793
52.537500	-0.003578	-0.002780	0.005799	0.009177	7087.231513	43212.659510	3969.818303	23192.656263
53.035000	-0.058602	-0.010696	-0.006010	0.279585	4877.458012	24151.054952	3443.545631	13783.051446
53.535500	-0.041236	-0.008467	0.014241	0.008174	6748.062253	42780.476596	3994.032104	23239.608454
54.035500	-0.037486	-0.028258	0.020189	-0.169085	8739.562553	60197.870454	4584.681366	33496.477673
54.535500	-0.009133	-0.027228	0.058115	-0.175823	9231.252888	61231.421439	4770.566203	33975.009474
55.036000	0.020188	0.001046	0.076442	-0.107475	8686.849960	56092.300695	4563.644022	29448.557759
55.536500	0.060346	0.025839	0.098935	-0.034624	8266.974168	50522.984714	4378.052284	25347.106867
56.037000	0.100887	0.047815	0.119672	0.039093	7872.007894	45177.247464	4204.694527	21841.252740
56.537000	0.138103	0.064420	0.148953	0.063551	8020.332116	44420.076833	4219.613753	20803.461216
57.037000	0.160374	0.079906	0.163363	0.128411	7541.725979	39961.111841	4071.435936	18318.392142
57.537500	0.160939	0.083657	0.189577	0.181731	7010.402951	35966.535280	3998.652607	16535.881577
58.035000	0.211098	0.106548	0.200790	0.179605	7536.702968	37925.599763	4033.900985	16602.841293
58.535500	0.229195	0.116417	0.218695	0.194481	7571.243774	37524.434973	4042.059244	16141.095174
59.035500	0.233660	0.125239	0.234408	0.271760	6849.677553	32479.016818	3886.950596	13981.101942
59.536000	0.244585	0.132964	0.250592	0.310246	6606.610153	30458.237347	3835.970967	13040.540720
60.036500	0.258798	0.139938	0.261321	0.328418	6572.941208	29757.451612	3819.531507	12624.579929
60.536500	0.266650	0.145870	0.275600	0.347463	6479.402510	28959.517621	3809.154273	12206.942059
61.036500	0.274086	0.149730	0.282156	0.361392	6426.234520	28362.895292	3793.318052	11912.867313
61.537000	0.278848	0.153879	0.295347	0.377880	6332.212261	27650.324146	3786.323357	11576.736693
62.037500	0.281851	0.157055	0.296144	0.381866	6324.440905	27604.259532	3779.608833	11497.369316
62.535000	0.283676	0.159509	0.300123	0.381224	6343.973795	27780.829020	3789.354960	11510.112102
63.035500	0.297273	0.163770	0.303047	0.399060	6310.486525	27015.946425	3758.274483	11163.268657
63.536000	0.285184	0.160428	0.301826	0.397462	6229.003885	26919.432634	3759.044972	11193.761842
64.055000	0.302264	0.169352	0.301577	0.380677	6499.259669	28382.579912	3793.607759	11520.975090
64.535500	0.295551	0.167017	0.306988	0.384230	6415.093408	28039.797018	3797.574088	11450.655366
65.039000	0.297597	0.167079	0.308660	0.388111	6400.258866	27819.940830	3792.861611	11374.495879
65.542500	0.305283	0.169987	0.308239	0.386331	6477.462586	28090.135234	3795.757157	11409.338451
66.040000	0.308223	0.170730	0.307959	0.387483	6492.231613	28066.414390	3792.703537	11386.763481
66.537000	0.309237	0.170472	0.310728	0.389716	6482.157624	27922.613675	3793.845705	11343.191241
67.037000	0.308137	0.169981	0.306266	0.395281	6427.549773	27576.516291	3772.726166	11235.571026
67.538000	0.312900	0.171807	0.310659	0.395601	6463.863207	27662.146032	3781.247705	11229.423840
68.037000	0.315152	0.173185	0.314577	0.397046	6470.489868	27658.283743	3786.458743	11201.717536
68.536000	0.316808	0.173277	0.317517	0.398318	6473.655319	27591.247195	3789.991405	11177.421862
69.036000	0.315057	0.174018	0.311628	0.406013	6396.698197	27199.446816	3761.614729	11031.874098
69.536000	0.314107	0.173426	0.318331	0.402992	6413.424440	27335.554703	3781.838017	11088.707383
70.036500	0.316269	0.173776	0.316548	0.403152	6429.677103	27346.274726	3777.760729	11085.693183
70.536500	0.314973	0.172378	0.315641	0.403280	6418.108411	27260.605489	3775.596528	11083.272986
71.037000	0.314390	0.172677	0.311304	0.411005	6351.386150	26848.076030	3750.749811	10938.822864
71.537500	0.315865	0.173721	0.315429	0.410559	6366.701584	26930.296817	3760.085785	10947.103249
72.035000	0.318768	0.173667	0.317057	0.410744	6388.477915	26917.046148	3763.051494	10943.657814
72.535000	0.316867	0.173314	0.321408	0.412218	6361.456136	26816.371456	3768.997784	10916.376879
73.035000	0.312141	0.172429	0.316177	0.419233	6269.039949	26385.738047	3743.959857	10787.775127
73.535500	0.312452	0.170986	0.314843	0.416682	6291.337835	26445.690522	3746.418345	10834.309469
74.039000	0.314575	0.170727	0.322764	0.416584	6308.743000	26436.952154	3762.777106	10836.093551
74.536000	0.314619	0.171433	0.318569	0.418925	6290.747009	26348.607488	3749.421321	10793.383119
75.036500	0.313167	0.171012	0.315682	0.424365	6237.307074	26034.636409	3732.691999	10695.007585
75.537000	0.313143	0.169480	0.320769	0.420892	6263.940700	26138.160096	3749.894269	10757.667727
76.037000	0.315614	0.170691	0.316286	0.423859	6260.093017	26044.497717	3734.901420	10704.096115
76.537500	0.314237	0.170341	0.321416	0.425375	6237.764003	25945.344899	3742.142703	10676.867010
77.034500	0.311125	0.169751	0.324992	0.432106	6162.893004	25560.615389	3735.819018	10557.121175
77.535000	0.314129	0.169690	0.321700	0.427952	6217.174859	25774.919083	3737.542409	10630.812066
78.035500	0.311190	0.169328	0.316829	0.429637	6182.006960	25667.488758	3724.521259	10600.829862
78.536000	0.311152	0.169155	0.325287	0.430474	6175.394578	25614.660382	3739.675573	10585.989706
79.036000	0.310914	0.169835	0.317362	0.438110	6116.484683	25254.147605	3709.014114	10451.851220
79.536500	0.314263	0.168391	0.324514	0.434913	6165.380621	25344.439117	3729.283827	10507.721804
80.036500	0.312842	0.169156	0.328258	0.434539	6157.509756	25403.312178	3737.482832	10514.280224
80.536500	0.314080	0.169893	0.333018	0.436618	6151.206769	25333.996940	3742.865698	10477.876528
81.034500	0.309924	0.168866	0.321136	0.442080	6079.921786	25001.704288	3708.633948	10383.046329
81.535000	0.309452	0.167177	0.324736	0.438579	6102.198822	25094.002503	3722.484268	10443.696031
82.035000	0.309615	0.167225	0.320324	0.437932	6108.184409	25129.488342	3715.112402	10454.948020
82.535000	0.311006	0.167689	0.320703	0.439566	6106.389696	25069.725272	3712.669613	10426.544087
83.035500	0.312150	0.168734	0.328263	0.445330	6072.427364	24830.485822	3716.168467	10327.187110
83.536000	0.310721	0.167170	0.327130	0.441947	6086.746625	24922.403688	3720.572059	10385.343973
84.036000	0.312389	0.168765	0.321515	0.444245	6082.117201	24886.799709	3705.185806	10345.781963
84.536500	0.313193	0.167694	0.322746	0.444450	6086.521817	24822.404550	3707.165631	10342.272937
85.036500	0.310126	0.167714	0.327370	0.449742	6025.709054	24558.207205	3705.877180	10252.024195
85.537000	0.311002	0.167034	0.325037	0.444772	6068.111980	24772.945650	3710.975451	10336.740779
86.037500	0.313142	0.167474	0.323346	0.446994	6067.512409	24683.465723	3703.419742	10298.738359
86.535000	0.311491	0.166501	0.325710	0.446343	6060.218190	24667.355585	3709.235982	10309.858025
87.035500	0.312305	0.166370	0.322212	0.447635	6056.737068	24596.250954	3700.014738	10287.814910
87.536000	0.313008	0.167988	0.327282	0.448866	6052.896598	24615.535046	3707.397706	10266.876716
88.035500	0.310815	0.166126	0.323954	0.449069	6035.535654	24512.671533	3700.604671	10263.426920
88.535500	0.313064	0.167596	0.327160	0.450581	6040.872557	24510.636338	3703.858658	10237.816214
89.036000	0.317601	0.168062	0.329603	0.452960	6056.535531	24415.754082	3703.980309	10197.676471
89.536500	0.314995	0.167292	0.331092	0.451955	6044.903249	24427.378891	3708.793674	10214.607566
90.037000	0.312947	0.166696	0.327582	0.452343	6027.296300	24378.714766	3701.285149	10208.064063
90.537000	0.314966	0.167151	0.322267	0.453722	6031.908975	24333.083603	3688.546047	10184.855056
91.037500	0.313557	0.165774	0.324161	0.452878	6027.839794	24306.865294	3693.733726	10199.056423
91.534500	0.313818	0.165683	0.332575	0.454975	6014.622934	24199.445186	3705.822784	10163.846023
92.035500	0.312663	0.165711	0.321726	0.452991	6020.582779	24298.199307	3688.904283	10197.145098
92.535500	0.316588	0.164942	0.323708	0.453571	6044.738620	24231.916299	3691.557889	10187.400510
93.036000	0.316227	0.165557	0.332384	0.458239	6008.494705	24034.005313	3699.188649	10109.384475
93.536000	0.319788	0.166513	0.328706	0.455979	6050.486207	24190.904774	3696.481543	10147.056010
94.037000	0.316945	0.164720	0.322290	0.454556	6040.186620	24172.801134	3687.016121	10170.863052
94.536500	0.319962	0.164737	0.330368	0.455738	6053.499875	24115.902331	3700.116764	10151.079172
95.037000	0.316787	0.165548	0.327596	0.458392	6011.410396	24026.145290	3689.791670	10106.836767
95.559000	0.317654	0.165743	0.328676	0.461221	5997.364808	23898.563605	3686.489741	10059.975419
96.062500	0.321965	0.167089	0.334373	0.458581	6047.396795	24091.933140	3702.343692	10103.696227
96.537500	0.323308	0.165426	0.331083	0.457131	6067.726446	24081.571787	3698.820877	10127.830999
97.035500	0.323294	0.166771	0.335502	0.459999	6046.748507	24007.469185	3701.788996	10080.183043
97.536000	0.321889	0.166612	0.332122	0.461171	6028.111836	23942.987637	3693.101413	10060.807150
98.036000	0.323592	0.165963	0.331427	0.458066	6062.972711	24062.166294	3697.690655	10112.256606
98.536500	0.325103	0.165578	0.333957	0.457635	6077.164597	24064.405013	3703.361594	10119.423974
