sample name	sample
index	836
start time	 04-05-2021  10:50:27 AM


Wavelength (nm)	Absorbance
494.344910	-0.041697
494.563924	-0.041697
494.782919	-0.041697
495.001897	-0.039805
495.220856	-0.005077
495.439797	0.007481
495.658719	0.011579
495.877624	-0.001630
496.096510	0.002936
496.315378	-0.005786
496.534227	0.002313
496.753059	0.001516
496.971872	0.008492
497.190667	0.061939
497.409444	0.080880
497.628203	0.089776
497.846943	0.093785
498.065665	0.095975
498.284369	0.097065
498.503055	0.097299
498.721723	0.098383
498.940372	0.098265
499.159003	0.098922
499.377616	0.099325
499.596210	0.098813
499.814787	0.098922
500.033345	0.099916
500.251885	0.100185
500.470406	0.100847
500.688910	0.100984
500.907395	0.101217
501.125862	0.100629
501.344311	0.100558
501.562742	0.101002
501.781154	0.101652
501.999548	0.100873
502.217924	0.100274
502.436282	0.099734
502.654621	0.099226
502.872942	0.098787
503.091245	0.098905
503.309530	0.099138
503.527797	0.099047
503.746045	0.099812
503.964275	0.099149
504.182487	0.098817
504.400681	0.098971
504.618856	0.098255
504.837013	0.098992
505.055152	0.099394
505.273273	0.099088
505.491376	0.099834
505.709460	0.098416
505.927526	0.099156
506.145574	0.100016
506.363604	0.101579
506.581615	0.102318
506.799608	0.102097
507.017583	0.102195
507.235540	0.102226
507.453478	0.101040
507.671399	0.101930
507.889301	0.102272
508.107185	0.102537
508.325050	0.100896
508.542898	0.100760
508.760727	0.101279
508.978538	0.101277
509.196330	0.102279
509.414105	0.102916
509.631861	0.102960
509.849599	0.102553
510.067319	0.102137
510.285021	0.103456
510.502704	0.104495
510.720369	0.105535
510.938016	0.106071
511.155645	0.105021
511.373255	0.104926
511.590848	0.105246
511.808422	0.105025
512.025977	0.104736
512.243515	0.104194
512.461034	0.104405
512.678536	0.102908
512.896018	0.102946
513.113483	0.103515
513.330930	0.103766
513.548358	0.104241
513.765768	0.104983
513.983160	0.106970
514.200533	0.107295
514.417889	0.107164
514.635226	0.107916
514.852545	0.107987
515.069845	0.108514
515.287128	0.109339
515.504392	0.108816
515.721638	0.109320
515.938866	0.108594
516.156075	0.108458
516.373267	0.107938
516.590440	0.107765
516.807594	0.107665
517.024731	0.107881
517.241850	0.108002
517.458950	0.108639
517.676032	0.108400
517.893095	0.108949
518.110141	0.109225
518.327168	0.110596
518.544177	0.111625
518.761168	0.112335
518.978141	0.111727
519.195095	0.111594
519.412031	0.112157
519.628949	0.111576
519.845849	0.111025
520.062731	0.111078
520.279594	0.110814
520.496439	0.110301
520.713266	0.111143
520.930074	0.111753
521.146865	0.112136
521.363637	0.111645
521.580391	0.112866
521.797127	0.113966
522.013844	0.114306
522.230543	0.114093
522.447224	0.114480
522.663887	0.113422
522.880532	0.113803
523.097158	0.114290
523.313766	0.114509
523.530356	0.114377
523.746928	0.113682
523.963481	0.113676
524.180017	0.114470
524.396534	0.114999
524.613032	0.115674
524.829513	0.116368
525.045975	0.116142
525.262420	0.116421
525.478845	0.116872
525.695253	0.117532
525.911643	0.117601
526.128014	0.117673
526.344367	0.117628
526.560702	0.117722
526.777018	0.117475
526.993316	0.117659
527.209597	0.117828
527.425858	0.118265
527.642102	0.118900
527.858328	0.119388
528.074535	0.119554
528.290724	0.120366
528.506894	0.120846
528.723047	0.121055
528.939181	0.121402
529.155297	0.121807
529.371395	0.121859
529.587475	0.121571
529.803536	0.121652
530.019579	0.122569
530.235604	0.122850
530.451611	0.122697
530.667600	0.123031
530.883570	0.123797
531.099522	0.124391
531.315456	0.124765
531.531372	0.125276
531.747269	0.126408
531.963148	0.126003
532.179009	0.126052
532.394852	0.126381
532.610676	0.126785
532.826482	0.126565
533.042271	0.126083
533.258040	0.126791
533.473792	0.127550
533.689525	0.127226
533.905240	0.127967
534.120937	0.127896
534.336616	0.128405
534.552277	0.129262
534.767919	0.129327
534.983543	0.130291
535.199149	0.129910
535.414736	0.129543
535.630306	0.130687
535.845857	0.130522
536.061390	0.131461
536.276904	0.132171
536.492401	0.131762
536.707879	0.132208
536.923339	0.132378
537.138781	0.133233
537.354204	0.133581
537.569610	0.133227
537.784997	0.133780
538.000366	0.133674
538.215716	0.133618
538.431049	0.133575
538.646363	0.134268
538.861659	0.134253
539.076937	0.134067
539.292196	0.134622
539.507438	0.135211
539.722661	0.135443
539.937866	0.135388
540.153052	0.135255
540.368221	0.136183
540.583371	0.135601
540.798503	0.136232
541.013617	0.136803
541.228712	0.137002
541.443789	0.136911
541.658848	0.137137
541.873889	0.137684
542.088912	0.138068
542.303916	0.138113
542.518902	0.139178
542.733870	0.139342
542.948820	0.139630
543.163752	0.140112
543.378665	0.140310
543.593560	0.140665
543.808437	0.140443
544.023295	0.140620
544.238136	0.140624
544.452958	0.140475
544.667762	0.140856
544.882548	0.140696
545.097315	0.140620
545.312064	0.141007
545.526795	0.141035
545.741508	0.142005
545.956203	0.142329
546.170879	0.142262
546.385537	0.142718
546.600177	0.142908
546.814799	0.143150
547.029402	0.143963
547.243988	0.144158
547.458555	0.144707
547.673103	0.144622
547.887634	0.144809
548.102146	0.145547
548.316640	0.145755
548.531116	0.145770
548.745574	0.145756
548.960013	0.145270
549.174435	0.145627
549.388838	0.145517
549.603222	0.145761
549.817589	0.146343
550.031937	0.146520
550.246267	0.146709
550.460579	0.147224
550.674873	0.148322
550.889148	0.148929
551.103405	0.149340
551.317644	0.149497
551.531865	0.149576
551.746068	0.149625
551.960252	0.149652
552.174418	0.149860
552.388566	0.149932
552.602696	0.149838
552.816807	0.149630
553.030900	0.149540
553.244975	0.149241
553.459032	0.149591
553.673070	0.149740
553.887091	0.150014
554.101093	0.150217
554.315077	0.150640
554.529042	0.150563
554.742990	0.151096
554.956919	0.151379
555.170830	0.151824
555.384722	0.152323
555.598597	0.152476
555.812453	0.152597
556.026291	0.152558
556.240111	0.152478
556.453913	0.152867
556.667696	0.152903
556.881461	0.152571
557.095208	0.152791
557.308937	0.152708
557.522647	0.152877
557.736339	0.153123
557.950013	0.153506
558.163669	0.153319
558.377307	0.152976
558.590926	0.152710
558.804527	0.153358
559.018110	0.154032
559.231675	0.154213
559.445221	0.154447
559.658749	0.154636
559.872259	0.154770
560.085751	0.155363
560.299225	0.155786
560.512680	0.156367
560.726117	0.156420
560.939536	0.156467
561.152937	0.156371
561.366319	0.156682
561.579683	0.156644
561.793029	0.157172
562.006357	0.157486
562.219667	0.157597
562.432958	0.157764
562.646231	0.157969
562.859486	0.158285
563.072723	0.158589
563.285941	0.157979
563.499141	0.158001
563.712323	0.157763
563.925487	0.157144
564.138632	0.157123
564.351760	0.156801
564.564869	0.157311
564.777960	0.157414
564.991032	0.157515
565.204087	0.158183
565.417123	0.159014
565.630141	0.159066
565.843140	0.159986
566.056122	0.160610
566.269085	0.161343
566.482030	0.161552
566.694957	0.161242
566.907866	0.161651
567.120756	0.161976
567.333628	0.161791
567.546482	0.161918
567.759318	0.161977
567.972135	0.161971
568.184935	0.162155
568.397716	0.162011
568.610478	0.162463
568.823223	0.162575
569.035949	0.162561
569.248657	0.162766
569.461347	0.163394
569.674019	0.163067
569.886672	0.163350
570.099308	0.163245
570.311925	0.163217
570.524523	0.163387
570.737104	0.163607
570.949666	0.163930
571.162210	0.164123
571.374736	0.163723
571.587244	0.164132
571.799733	0.163920
572.012205	0.164200
572.224658	0.164425
572.437092	0.164695
572.649509	0.164240
572.861907	0.164339
573.074287	0.164194
573.286649	0.164725
573.498993	0.164925
573.711318	0.165313
573.923625	0.165262
574.135914	0.165406
574.348185	0.165127
574.560438	0.165860
574.772672	0.165884
574.984888	0.165956
575.197086	0.165777
575.409266	0.165612
575.621427	0.165933
575.833570	0.166279
576.045695	0.166215
576.257802	0.166685
576.469890	0.166847
576.681961	0.167161
576.894013	0.167968
577.106046	0.168114
577.318062	0.168621
577.530059	0.168630
577.742039	0.169102
577.954000	0.169500
578.165942	0.169944
578.377867	0.169981
578.589773	0.169955
578.801661	0.169738
579.013531	0.170118
579.225382	0.169940
579.437216	0.170115
579.649031	0.170038
579.860828	0.170024
580.072606	0.169888
580.284367	0.170193
580.496109	0.170179
580.707833	0.170369
580.919539	0.170388
581.131227	0.171139
581.342896	0.171278
581.554547	0.170911
581.766180	0.171009
581.977795	0.171358
582.189391	0.171103
582.400969	0.171543
582.612529	0.171857
582.824071	0.171961
583.035595	0.171752
583.247100	0.171726
583.458587	0.172422
583.670056	0.172387
583.881506	0.171957
584.092939	0.172149
584.304353	0.171810
584.515749	0.171638
584.727127	0.171977
584.938486	0.171857
585.149828	0.172128
585.361151	0.171904
585.572456	0.172301
585.783742	0.172645
585.995011	0.173037
586.206261	0.173198
586.417493	0.173396
586.628706	0.173285
586.839902	0.173755
587.051079	0.173809
587.262238	0.173866
587.473379	0.174013
587.684502	0.174395
587.895606	0.174214
588.106692	0.174692
588.317760	0.174354
588.528810	0.174995
588.739841	0.175035
588.950855	0.175384
589.161850	0.175670
589.372827	0.176140
589.583785	0.176125
589.794726	0.176213
590.005648	0.176359
590.216552	0.176672
590.427437	0.176622
590.638305	0.176747
590.849154	0.176690
591.059985	0.176883
591.270798	0.176834
591.481592	0.176572
591.692369	0.177137
591.903127	0.177397
592.113867	0.177786
592.324588	0.177808
592.535292	0.178306
592.745977	0.178370
592.956644	0.178468
593.167293	0.178481
593.377923	0.178740
593.588536	0.178581
593.799130	0.178485
594.009706	0.178863
594.220263	0.179152
594.430803	0.178801
594.641324	0.178894
594.851827	0.178849
595.062312	0.178569
595.272778	0.179223
595.483227	0.179260
595.693657	0.179505
595.904069	0.179421
596.114462	0.179294
596.324838	0.179746
596.535195	0.180042
596.745534	0.180462
596.955855	0.181068
597.166157	0.180888
597.376441	0.181106
597.586707	0.181168
597.796955	0.181361
598.007185	0.181477
598.217396	0.181436
598.427589	0.181630
598.637764	0.181382
598.847921	0.181657
599.058060	0.181917
599.268180	0.182331
599.478282	0.182552
599.688366	0.182549
599.898431	0.182980
600.108479	0.183421
600.318508	0.183734
600.528519	0.184204
600.738511	0.184310
600.948486	0.184514
601.158442	0.184583
601.368380	0.184967
601.578300	0.185177
601.788202	0.185381
601.998085	0.185090
602.207950	0.184914
602.417797	0.185155
602.627626	0.185217
602.837436	0.185206
603.047228	0.185264
603.257002	0.185215
603.466758	0.185206
603.676496	0.185026
603.886215	0.185126
604.095916	0.185151
604.305599	0.185223
604.515264	0.185228
604.724910	0.185717
604.934538	0.186000
605.144148	0.186291
605.353740	0.186787
605.563314	0.187067
605.772869	0.187527
605.982406	0.187891
606.191925	0.188115
606.401425	0.188459
606.610908	0.188275
606.820372	0.188291
607.029818	0.188143
607.239246	0.188008
607.448655	0.188346
607.658047	0.188365
607.867420	0.188474
608.076775	0.188544
608.286111	0.188501
608.495430	0.188718
608.704730	0.188968
608.914012	0.189073
609.123275	0.189102
609.332521	0.188904
609.541748	0.188801
609.750957	0.188979
609.960148	0.189273
610.169321	0.189287
610.378475	0.189166
610.587611	0.189070
610.796729	0.189431
611.005829	0.189620
611.214910	0.189699
611.423974	0.189920
611.633019	0.190165
611.842045	0.190067
612.051054	0.190425
612.260044	0.190918
612.469017	0.190958
612.677970	0.190997
612.886906	0.191099
613.095824	0.191509
613.304723	0.191680
613.513604	0.191744
613.722467	0.191931
613.931311	0.192104
614.140138	0.192231
614.348946	0.192654
614.557736	0.192684
614.766507	0.193014
614.975261	0.193085
615.183996	0.193367
615.392713	0.193499
615.601412	0.193796
615.810092	0.194045
616.018754	0.193941
616.227399	0.193969
616.436024	0.194108
616.644632	0.194266
616.853222	0.194178
617.061793	0.194223
617.270346	0.194185
617.478880	0.194161
617.687397	0.193878
617.895895	0.194032
618.104375	0.194094
618.312837	0.194222
618.521281	0.194360
618.729706	0.194737
618.938113	0.195164
619.146502	0.195485
619.354873	0.195534
619.563226	0.195834
619.771560	0.196079
619.979876	0.196026
620.188174	0.196068
620.396453	0.196292
620.604715	0.196382
620.812958	0.196277
621.021183	0.196115
621.229390	0.196436
621.437578	0.196376
621.645748	0.196375
621.853900	0.196635
622.062034	0.197143
622.270150	0.197014
622.478247	0.196979
622.686326	0.197064
622.894387	0.197211
623.102430	0.197223
623.310454	0.197407
623.518461	0.197357
623.726449	0.197606
623.934418	0.197304
624.142370	0.197642
624.350303	0.197615
624.558218	0.197721
624.766115	0.198031
624.973994	0.198286
625.181855	0.198678
625.389697	0.199082
625.597521	0.199265
625.805327	0.199772
626.013114	0.200010
626.220883	0.200445
626.428634	0.200622
626.636367	0.200764
626.844082	0.200585
627.051778	0.200518
627.259457	0.200482
627.467117	0.200492
627.674758	0.200465
627.882382	0.200399
628.089987	0.200184
628.297574	0.200183
628.505143	0.200294
628.712694	0.200711
628.920226	0.200922
629.127740	0.201252
629.335236	0.201455
629.542714	0.201645
629.750174	0.201372
629.957615	0.201768
630.165038	0.202090
630.372443	0.202304
630.579829	0.202235
630.787198	0.202469
630.994548	0.202319
631.201880	0.202232
631.409194	0.202425
631.616489	0.202924
631.823766	0.203170
632.031025	0.203268
632.238266	0.203314
632.445489	0.203742
632.652693	0.203637
632.859879	0.204070
633.067047	0.204185
633.274197	0.204437
633.481329	0.204504
633.688442	0.204596
633.895537	0.204960
634.102614	0.205035
634.309672	0.204977
634.516713	0.205168
634.723735	0.205283
634.930739	0.205542
635.137724	0.205440
635.344692	0.205849
635.551641	0.205895
635.758572	0.205625
635.965485	0.205878
636.172379	0.205945
636.379256	0.206291
636.586114	0.206603
636.792954	0.207212
636.999775	0.207535
637.206579	0.207550
637.413364	0.207624
637.620131	0.208014
637.826880	0.208032
638.033610	0.208301
638.240323	0.208279
638.447017	0.208193
638.653692	0.207957
638.860350	0.207959
639.066990	0.208079
639.273611	0.208412
639.480214	0.208562
639.686798	0.208971
639.893365	0.209330
640.099913	0.209621
640.306443	0.209840
640.512955	0.209820
640.719449	0.210022
640.925924	0.209989
641.132381	0.209898
641.338820	0.210088
641.545241	0.209835
641.751644	0.209632
641.958028	0.209576
642.164394	0.209739
642.370742	0.210159
642.577071	0.210416
642.783383	0.210724
642.989676	0.210850
643.195951	0.211068
643.402207	0.211658
643.608446	0.211962
643.814666	0.212413
644.020868	0.212356
644.227052	0.212391
644.433218	0.212457
644.639365	0.212530
644.845494	0.213010
645.051605	0.212977
645.257698	0.212889
645.463772	0.212868
645.669828	0.212911
645.875866	0.213367
646.081886	0.213706
646.287888	0.213863
646.493871	0.214404
646.699836	0.214419
646.905783	0.214653
647.111712	0.215051
647.317622	0.215352
647.523514	0.215628
647.729388	0.215819
647.935244	0.215935
648.141082	0.216421
648.346901	0.216558
648.552702	0.216660
648.758485	0.216700
648.964250	0.216689
649.169996	0.216540
649.375724	0.216655
649.581434	0.216726
649.787126	0.216752
649.992800	0.216702
650.198455	0.216662
650.404092	0.217085
650.609711	0.217414
650.815311	0.217420
651.020894	0.218025
651.226458	0.218005
651.432004	0.218205
651.637532	0.218621
651.843041	0.218603
652.048532	0.218829
652.254006	0.219043
652.459460	0.219192
652.664897	0.219661
652.870315	0.219791
653.075716	0.220096
653.281097	0.220245
653.486461	0.220318
653.691807	0.220570
653.897134	0.220535
654.102443	0.220604
654.307734	0.220663
654.513006	0.220700
654.718261	0.220827
654.923497	0.221006
655.128715	0.220941
655.333915	0.221063
655.539096	0.221178
655.744259	0.221616
655.949404	0.221896
656.154531	0.222046
656.359640	0.222125
656.564730	0.222413
656.769802	0.222501
656.974856	0.222633
657.179892	0.222860
657.384909	0.223043
657.589908	0.223266
657.794889	0.223267
657.999852	0.223692
658.204797	0.224108
658.409723	0.224364
658.614631	0.224688
658.819521	0.225246
659.024393	0.225438
659.229246	0.225667
659.434081	0.225530
659.638898	0.225845
659.843697	0.225879
660.048478	0.226180
660.253240	0.226011
660.457984	0.225888
660.662710	0.225759
660.867417	0.225822
661.072107	0.226042
661.276778	0.226645
661.481431	0.226743
661.686066	0.227013
661.890682	0.227032
662.095281	0.227313
662.299861	0.227713
662.504422	0.228045
662.708966	0.228406
662.913491	0.228495
663.117999	0.228217
663.322488	0.228402
663.526958	0.228702
663.731411	0.228858
663.935845	0.229288
664.140261	0.229681
664.344659	0.229830
664.549038	0.229830
664.753400	0.230367
664.957743	0.230929
665.162068	0.231310
665.366375	0.231514
665.570663	0.231690
665.774933	0.231790
665.979185	0.231967
666.183419	0.232460
666.387635	0.232953
666.591832	0.232807
666.796011	0.233126
667.000172	0.233270
667.204315	0.233357
667.408439	0.233747
667.612545	0.233922
667.816634	0.233978
668.020703	0.234076
668.224755	0.234229
668.428788	0.234256
668.632803	0.234184
668.836800	0.234241
669.040779	0.234407
669.244739	0.234738
669.448681	0.235118
669.652605	0.235217
669.856511	0.235428
670.060399	0.235585
670.264268	0.236167
670.468119	0.236455
670.671952	0.236715
670.875767	0.236718
671.079563	0.236716
671.283341	0.236650
671.487101	0.237050
671.690843	0.237137
671.894567	0.237351
672.098272	0.237449
672.301959	0.237891
672.505628	0.238181
672.709278	0.238596
672.912911	0.238648
673.116525	0.239138
673.320121	0.239411
673.523699	0.239731
673.727258	0.239781
673.930799	0.240094
674.134322	0.239960
674.337827	0.240172
674.541314	0.240519
674.744782	0.240787
674.948232	0.240938
675.151664	0.241191
675.355078	0.241355
675.558474	0.241584
675.761851	0.241469
675.965210	0.241575
676.168551	0.241688
676.371873	0.241800
676.575178	0.241840
676.778464	0.242078
676.981732	0.242238
677.184981	0.242263
677.388213	0.242419
677.591426	0.242829
677.794621	0.243124
677.997798	0.243457
678.200956	0.243760
678.404097	0.244128
678.607219	0.244274
678.810323	0.244312
679.013408	0.244765
679.216476	0.245144
679.419525	0.245559
679.622556	0.245857
679.825569	0.245694
680.028563	0.245709
680.231540	0.245873
680.434498	0.245952
680.637438	0.246163
680.840359	0.246286
681.043263	0.246655
681.246148	0.246705
681.449015	0.246907
681.651864	0.247160
681.854694	0.247092
682.057506	0.247534
682.260301	0.247973
682.463076	0.248131
682.665834	0.248406
682.868573	0.248477
683.071295	0.248647
683.273998	0.248752
683.476682	0.249071
683.679349	0.249554
683.881997	0.249329
684.084627	0.249281
684.287239	0.249611
684.489833	0.249996
684.692408	0.249963
684.894965	0.249983
685.097504	0.250126
685.300025	0.250285
685.502527	0.250442
685.705012	0.250740
685.907478	0.250890
686.109925	0.251161
686.312355	0.251244
686.514766	0.251492
686.717159	0.251876
686.919534	0.252088
687.121891	0.252405
687.324230	0.252448
687.526550	0.252807
687.728852	0.253127
687.931136	0.253348
688.133401	0.253224
688.335649	0.253365
688.537878	0.253261
688.740089	0.253550
688.942281	0.253841
689.144456	0.254165
689.346612	0.254195
689.548750	0.254117
689.750870	0.254448
689.952971	0.254737
690.155055	0.255047
690.357120	0.255226
690.559167	0.255399
690.761195	0.255257
690.963206	0.255488
691.165198	0.255950
691.367172	0.256390
691.569128	0.256221
691.771065	0.256414
691.972984	0.256689
692.174885	0.257016
692.376768	0.257201
692.578633	0.257534
692.780479	0.257714
692.982308	0.257708
693.184118	0.257814
693.385909	0.257883
693.587683	0.257631
693.789438	0.257548
693.991175	0.257639
694.192894	0.257884
694.394595	0.257928
694.596277	0.258058
694.797941	0.258217
694.999587	0.258358
695.201215	0.258703
695.402824	0.259118
695.604416	0.259367
695.805989	0.259657
696.007543	0.259539
696.209080	0.259789
696.410598	0.259823
696.612099	0.259927
696.813580	0.260044
697.015044	0.259768
697.216490	0.260096
697.417917	0.260105
697.619326	0.260168
697.820717	0.260329
698.022089	0.260322
698.223444	0.260618
698.424780	0.260720
698.626098	0.261041
698.827397	0.261516
699.028679	0.261569
699.229942	0.262026
699.431187	0.262231
699.632414	0.262267
699.833622	0.262508
700.034813	0.262303
700.235985	0.262464
700.437139	0.262545
700.638274	0.262720
700.839392	0.262996
701.040491	0.262838
701.241572	0.262742
701.442635	0.262589
701.643679	0.262681
701.844706	0.262970
702.045714	0.263032
702.246704	0.263194
702.447675	0.263084
702.648629	0.262940
702.849564	0.263145
703.050481	0.263281
703.251380	0.263693
703.452260	0.263776
703.653122	0.263890
703.853966	0.263836
704.054792	0.263608
704.255600	0.263799
704.456389	0.263681
704.657160	0.263558
704.857913	0.263658
705.058648	0.263411
705.259365	0.263312
705.460063	0.263201
705.660743	0.263167
705.861405	0.263046
706.062048	0.262968
706.262674	0.263244
706.463281	0.263218
706.663870	0.262859
706.864441	0.263147
707.064993	0.263141
707.265527	0.263243
707.466043	0.263370
707.666541	0.263670
707.867021	0.263819
708.067482	0.263789
708.267925	0.263932
708.468350	0.264261
708.668757	0.264531
708.869145	0.264835
709.069516	0.265089
709.269868	0.265126
709.470201	0.265002
709.670517	0.264875
709.870814	0.264711
710.071093	0.264776
710.271354	0.264827
710.471597	0.264488
710.671821	0.264035
710.872028	0.263690
711.072216	0.263619
711.272385	0.263765
711.472537	0.263630
711.672670	0.263813
711.872785	0.263733
712.072882	0.263579
712.272961	0.263654
712.473021	0.263996
712.673063	0.264224
712.873087	0.264327
713.073093	0.264294
713.273081	0.264513
713.473050	0.264199
713.673001	0.263950
713.872934	0.263919
714.072849	0.263979
714.272745	0.263992
714.472623	0.263750
714.672483	0.263633
714.872325	0.263461
715.072148	0.263133
715.271954	0.263225
715.471741	0.263384
715.671509	0.263239
715.871260	0.263131
716.070992	0.262880
716.270707	0.262801
716.470403	0.262821
716.670080	0.262484
716.869740	0.262616
717.069381	0.262618
717.269004	0.262459
717.468609	0.262777
717.668195	0.262498
717.867764	0.262508
718.067314	0.262295
718.266846	0.262192
718.466360	0.262113
718.665855	0.261682
718.865332	0.261473
719.064791	0.261349
719.264232	0.261077
719.463655	0.261237
719.663059	0.261048
719.862445	0.261240
720.061813	0.261003
720.261163	0.261112
720.460494	0.261126
720.659807	0.260973
720.859102	0.261297
721.058379	0.261245
721.257638	0.261043
721.456878	0.261032
721.656100	0.261075
721.855304	0.261079
722.054490	0.260954
722.253657	0.260958
722.452806	0.260976
722.651937	0.260428
722.851050	0.260305
723.050145	0.260189
723.249221	0.259847
723.448279	0.259625
723.647319	0.259455
723.846340	0.259527
724.045344	0.259377
724.244329	0.259329
724.443296	0.259380
724.642245	0.259261
724.841175	0.259247
725.040088	0.259233
725.238982	0.259031
725.437857	0.258791
725.636715	0.258278
725.835554	0.258270
726.034376	0.258108
726.233179	0.257775
726.431963	0.257903
726.630730	0.257866
726.829478	0.257876
727.028208	0.257656
727.226920	0.257851
727.425614	0.257935
727.624289	0.257677
727.822946	0.257362
728.021585	0.257279
728.220206	0.256966
728.418808	0.256783
728.617392	0.256590
728.815958	0.256623
729.014506	0.256209
729.213036	0.256097
729.411547	0.255903
729.610040	0.255827
729.808515	0.255824
730.006972	0.255457
730.205410	0.254952
730.403831	0.254832
730.602233	0.254432
730.800616	0.254257
730.998982	0.254245
731.197329	0.254096
731.395658	0.253917
731.593969	0.253673
731.792262	0.253694
731.990536	0.253853
732.188793	0.253566
732.387031	0.253430
732.585250	0.253387
732.783452	0.252877
732.981635	0.252763
733.179800	0.252634
733.377947	0.252480
733.576076	0.252347
733.774186	0.252149
733.972278	0.252182
734.170352	0.252171
734.368408	0.252010
734.566446	0.252219
734.764465	0.252352
734.962466	0.252301
735.160449	0.252254
735.358413	0.252016
735.556360	0.251578
735.754288	0.251202
735.952198	0.250947
736.150090	0.250891
736.347963	0.250552
736.545818	0.250112
736.743655	0.249922
736.941474	0.249494
737.139275	0.249247
737.337057	0.249166
737.534821	0.248982
737.732567	0.248768
737.930295	0.248416
738.128005	0.248182
738.325696	0.248006
738.523369	0.247868
738.721024	0.247496
738.918660	0.247219
739.116279	0.247403
739.313879	0.247344
739.511461	0.247104
739.709024	0.246897
739.906570	0.246703
740.104097	0.246661
740.301606	0.246459
740.499097	0.246570
740.696569	0.246600
740.894024	0.246216
741.091460	0.246053
741.288878	0.245980
741.486277	0.245730
741.683659	0.245528
741.881022	0.245335
742.078367	0.244858
742.275694	0.244855
742.473002	0.244472
742.670293	0.244296
742.867565	0.243680
743.064819	0.243319
743.262054	0.243212
743.459272	0.243000
743.656471	0.242755
743.853652	0.242765
744.050815	0.242244
744.247959	0.242222
744.445085	0.241785
744.642194	0.241834
744.839283	0.241984
745.036355	0.241937
745.233408	0.241896
745.430444	0.241584
745.627461	0.241208
745.824459	0.241099
746.021440	0.240837
746.218402	0.240595
746.415346	0.240735
746.612272	0.240360
746.809180	0.240050
747.006069	0.239713
747.202940	0.239592
747.399793	0.239710
747.596628	0.239321
747.793444	0.239321
747.990243	0.239277
748.187023	0.239049
748.383784	0.238841
748.580528	0.238720
748.777253	0.238600
748.973960	0.238493
749.170649	0.238284
749.367320	0.238487
749.563973	0.237936
749.760607	0.237850
749.957223	0.237340
750.153821	0.237061
750.350400	0.237172
750.546962	0.237040
750.743505	0.236674
750.940030	0.236239
751.136536	0.236030
751.333025	0.235952
751.529495	0.235687
751.725947	0.235483
751.922381	0.235237
752.118796	0.234818
752.315194	0.234588
752.511573	0.234551
752.707934	0.234532
752.904276	0.234135
753.100601	0.233994
753.296907	0.233781
753.493195	0.233784
753.689465	0.233656
753.885716	0.233330
754.081949	0.233226
754.278164	0.233010
754.474361	0.232718
754.670540	0.232891
754.866700	0.232761
755.062843	0.232741
755.258967	0.232562
755.455072	0.232594
755.651160	0.232343
755.847229	0.232193
756.043280	0.231778
756.239313	0.231934
756.435328	0.231643
756.631324	0.231453
756.827302	0.231265
757.023262	0.230977
757.219204	0.230729
757.415127	0.230724
757.611033	0.230444
757.806920	0.230702
758.002788	0.230434
758.198639	0.230444
758.394471	0.230641
758.590286	0.230435
758.786081	0.230453
758.981859	0.230318
759.177619	0.230236
759.373360	0.230028
759.569083	0.229669
759.764788	0.229639
759.960474	0.229555
760.156143	0.229341
760.351793	0.229690
760.547425	0.229605
760.743038	0.229744
760.938634	0.229725
761.134211	0.229690
761.329770	0.229631
761.525311	0.229698
761.720833	0.229406
761.916338	0.229049
762.111824	0.228611
762.307292	0.228422
762.502741	0.228127
762.698173	0.228036
762.893586	0.228187
763.088981	0.228385
763.284358	0.228029
763.479716	0.228001
763.675057	0.228011
763.870379	0.227842
764.065683	0.227969
764.260968	0.227940
764.456236	0.227751
764.651485	0.227227
764.846716	0.226680
765.041929	0.226405
765.237123	0.226227
765.432299	0.226033
765.627457	0.225932
765.822597	0.225428
766.017719	0.225000
766.212822	0.224974
766.407907	0.225068
766.602974	0.225043
766.798023	0.225127
766.993054	0.224993
767.188066	0.224991
767.383060	0.225035
767.578036	0.225227
767.772993	0.225394
767.967933	0.224979
768.162854	0.225045
768.357757	0.225067
768.552642	0.224980
768.747508	0.224981
768.942356	0.224886
769.137186	0.224668
769.331998	0.224708
769.526792	0.224700
769.721567	0.224926
769.916324	0.224650
770.111063	0.224539
770.305784	0.224509
770.500486	0.224279
770.695171	0.224176
770.889837	0.224271
771.084484	0.224130
771.279114	0.224197
771.473725	0.223943
771.668318	0.223975
771.862893	0.224173
772.057450	0.224149
772.251988	0.224007
772.446509	0.223981
772.641011	0.223657
772.835494	0.223366
773.029960	0.223181
773.224407	0.223091
773.418836	0.222848
773.613247	0.222442
773.807640	0.222253
774.002014	0.222535
774.196370	0.222444
774.390708	0.222392
774.585028	0.222529
774.779330	0.222419
774.973613	0.222594
775.167878	0.222718
775.362125	0.223073
775.556354	0.222978
775.750564	0.222753
775.944756	0.222629
776.138930	0.222603
776.333086	0.222494
776.527223	0.222440
776.721343	0.222400
776.915444	0.222227
777.109526	0.222014
777.303591	0.221691
777.497637	0.221422
777.691666	0.221524
777.885676	0.221923
778.079667	0.221842
778.273641	0.221865
778.467596	0.222032
778.661533	0.222108
778.855452	0.221929
779.049352	0.222383
779.243235	0.222731
779.437099	0.222813
779.630945	0.222280
779.824773	0.222365
780.018582	0.222314
780.212373	0.221936
780.406146	0.222035
780.599901	0.222358
780.793638	0.222266
780.987356	0.222170
781.181056	0.222077
781.374738	0.222407
781.568402	0.222604
781.762047	0.222775
781.955674	0.222924
782.149283	0.222842
782.342874	0.222826
782.536447	0.222787
782.730001	0.222912
782.923537	0.223038
783.117055	0.223081
783.310555	0.222846
783.504036	0.222986
783.697499	0.223101
783.890944	0.223008
784.084371	0.222832
784.277780	0.223163
784.471170	0.223081
784.664542	0.223072
784.857896	0.223141
785.051231	0.223392
785.244549	0.223157
785.437848	0.223124
785.631129	0.223687
785.824392	0.223830
786.017636	0.223733
786.210863	0.223815
786.404071	0.223844
786.597260	0.223950
786.790432	0.224018
786.983585	0.224254
787.176721	0.224545
787.369838	0.224382
787.562936	0.224517
787.756017	0.224522
787.949079	0.224815
788.142123	0.225016
788.335149	0.225216
788.528156	0.225345
788.721146	0.225612
788.914117	0.225677
789.107070	0.225843
789.300005	0.226232
789.492921	0.226441
789.685819	0.226325
789.878699	0.226503
790.071561	0.226285
790.264405	0.226448
790.457230	0.226385
790.650037	0.226484
790.842826	0.226437
791.035597	0.226446
791.228349	0.226737
791.421084	0.226941
791.613800	0.227076
791.806497	0.227137
791.999177	0.227049
792.191838	0.227220
792.384481	0.227365
792.577106	0.227805
792.769713	0.227877
792.962301	0.228013
793.154871	0.228067
793.347423	0.228204
793.539957	0.228620
793.732473	0.228838
793.924970	0.228968
794.117449	0.228973
794.309910	0.229184
794.502353	0.229253
794.694777	0.229111
794.887183	0.229483
795.079571	0.229572
795.271941	0.229689
795.464293	0.229818
795.656626	0.229966
795.848941	0.230188
796.041238	0.230267
796.233516	0.230517
796.425777	0.230765
796.618019	0.230922
796.810243	0.231124
797.002449	0.231261
797.194636	0.231528
797.386805	0.231737
797.578956	0.232036
797.771089	0.231810
797.963204	0.231858
798.155300	0.231934
798.347378	0.232070
798.539438	0.232297
798.731480	0.232240
798.923503	0.232274
799.115509	0.232442
799.307496	0.232809
799.499465	0.233155
799.691415	0.233330
799.883348	0.233800
800.075262	0.233931
800.267158	0.233843
800.459035	0.234216
800.650895	0.234459
800.842736	0.234567
801.034559	0.234289
801.226364	0.234713
801.418150	0.234740
801.609919	0.235021
801.801669	0.235160
801.993401	0.235407
802.185114	0.235657
802.376810	0.235719
802.568487	0.235912
802.760146	0.236388
802.951787	0.236558
803.143409	0.236869
803.335014	0.236854
803.526600	0.236914
803.718168	0.236946
803.909717	0.237083
804.101249	0.237532
804.292762	0.237750
804.484257	0.237806
804.675734	0.237855
804.867192	0.238155
805.058632	0.238148
805.250054	0.238569
805.441458	0.239074
805.632844	0.239606
805.824211	0.239908
806.015561	0.240259
806.206891	0.240591
806.398204	0.240706
806.589499	0.241023
806.780775	0.241467
806.972033	0.241708
807.163273	0.241997
807.354495	0.242033
807.545698	0.242422
807.736883	0.242466
807.928050	0.242671
808.119199	0.242934
808.310329	0.243137
808.501441	0.243459
808.692535	0.243699
808.883611	0.244102
809.074669	0.244226
809.265708	0.244357
809.456729	0.244943
809.647732	0.245213
809.838717	0.245911
810.029683	0.246339
810.220632	0.246638
810.411562	0.246916
810.602474	0.247300
810.793367	0.247606
810.984242	0.247959
811.175100	0.248264
811.365938	0.248918
811.556759	0.249075
811.747562	0.249462
811.938346	0.249780
812.129112	0.249954
812.319860	0.250295
812.510589	0.250836
812.701300	0.251075
812.891994	0.251366
813.082668	0.251413
813.273325	0.251672
813.463964	0.251675
813.654584	0.251859
813.845186	0.252570
814.035769	0.252506
814.226335	0.252805
814.416882	0.253118
814.607411	0.253023
814.797922	0.253241
814.988415	0.253503
815.178889	0.253822
815.369345	0.254209
815.559783	0.254271
815.750203	0.254564
815.940605	0.254857
816.130988	0.254986
816.321353	0.255636
816.511700	0.255843
816.702028	0.256131
816.892339	0.256338
817.082631	0.256580
817.272905	0.256824
817.463161	0.257326
817.653398	0.257531
817.843617	0.257850
818.033819	0.258062
818.224001	0.258367
818.414166	0.258616
818.604312	0.259162
818.794440	0.259673
818.984550	0.260055
819.174642	0.260087
819.364716	0.260620
819.554771	0.260850
819.744808	0.261291
819.934827	0.261713
820.124827	0.262302
820.314810	0.262462
820.504774	0.262663
820.694720	0.263098
820.884647	0.263650
821.074557	0.263844
821.264448	0.264410
821.454321	0.264862
821.644176	0.265230
821.834012	0.265391
822.023831	0.266168
822.213631	0.266583
822.403413	0.266925
822.593176	0.267143
822.782922	0.267596
822.972649	0.268044
823.162358	0.268152
823.352049	0.268620
823.541721	0.268761
823.731376	0.268899
823.921012	0.269037
824.110629	0.269563
824.300229	0.270231
824.489811	0.270497
824.679374	0.270575
824.868919	0.270813
825.058445	0.271198
825.247954	0.272106
825.437444	0.272548
825.626916	0.273213
825.816370	0.273413
826.005806	0.273683
826.195223	0.273941
826.384622	0.274427
826.574003	0.275095
826.763366	0.275359
826.952711	0.275598
827.142037	0.276020
827.331345	0.276572
827.520635	0.277167
827.709906	0.277525
827.899160	0.277936
828.088395	0.278456
828.277612	0.278731
828.466810	0.279000
828.655991	0.279403
828.845153	0.279490
829.034297	0.279541
829.223423	0.279642
829.412531	0.279980
829.601620	0.280561
829.790691	0.281167
829.979744	0.281810
830.168779	0.282181
830.357795	0.282371
830.546793	0.282971
830.735773	0.283318
830.924735	0.283523
831.113679	0.283777
831.302604	0.283825
831.491511	0.283848
831.680400	0.284188
831.869271	0.284763
832.058123	0.285244
832.246957	0.285679
832.435773	0.286295
832.624571	0.287006
832.813351	0.287688
833.002112	0.288520
833.190855	0.288999
833.379580	0.288973
833.568287	0.289368
833.756975	0.289710
833.945645	0.290122
834.134297	0.290545
834.322931	0.291018
834.511547	0.291134
834.700144	0.291399
834.888723	0.291537
835.077284	0.292228
835.265826	0.292726
835.454351	0.293183
835.642857	0.293647
835.831345	0.294133
836.019815	0.294544
836.208266	0.295268
836.396699	0.295523
836.585114	0.296379
836.773511	0.296838
836.961890	0.297231
837.150250	0.297736
837.338592	0.298103
837.526916	0.298474
837.715222	0.298840
837.903510	0.299229
838.091779	0.299903
838.280030	0.300077
838.468263	0.300460
838.656477	0.300716
838.844674	0.301282
839.032852	0.301686
839.221012	0.302069
839.409153	0.302525
839.597277	0.302816
839.785382	0.303239
839.973469	0.303955
840.161538	0.304397
840.349589	0.305117
840.537621	0.305249
840.725635	0.305584
840.913631	0.306121
841.101609	0.306514
841.289568	0.307320
841.477509	0.307741
841.665432	0.308298
841.853337	0.308520
842.041224	0.308746
842.229092	0.309343
842.416942	0.310037
842.604774	0.310538
842.792588	0.311296
842.980383	0.311800
843.168160	0.312402
843.355919	0.312654
843.543660	0.313616
843.731382	0.314429
843.919087	0.315153
844.106773	0.315710
844.294441	0.316318
844.482090	0.316559
844.669722	0.316757
844.857335	0.317133
845.044930	0.317670
845.232507	0.317677
845.420065	0.318148
845.607605	0.318481
845.795127	0.318575
845.982631	0.318259
846.170117	0.318617
846.357584	0.319102
846.545033	0.319488
846.732464	0.319934
846.919877	0.320716
847.107272	0.320860
847.294648	0.321158
847.482006	0.321827
847.669346	0.322652
847.856667	0.323499
848.043971	0.323916
848.231256	0.324127
848.418523	0.324447
848.605771	0.324714
848.793002	0.325292
848.980214	0.325561
849.167408	0.325896
849.354584	0.326348
849.541742	0.326205
849.728881	0.326781
849.916002	0.327648
850.103105	0.328060
850.290190	0.328328
850.477256	0.328815
850.664304	0.329372
850.851334	0.329752
851.038346	0.330085
851.225340	0.330457
851.412315	0.330741
851.599272	0.330969
851.786211	0.331404
851.973132	0.332070
852.160034	0.332016
852.346918	0.332471
852.533784	0.333329
852.720632	0.333986
852.907462	0.334798
853.094273	0.335303
853.281066	0.335804
853.467841	0.336341
853.654598	0.336970
853.841336	0.337871
854.028056	0.338240
854.214758	0.338142
854.401442	0.338879
854.588107	0.339217
854.774755	0.339759
854.961384	0.340062
855.147995	0.340300
855.334587	0.340830
855.521162	0.341173
855.707718	0.341908
855.894256	0.342448
856.080775	0.342728
856.267277	0.343272
856.453760	0.343590
856.640225	0.344196
856.826672	0.344810
857.013101	0.345045
857.199511	0.345402
857.385903	0.345853
857.572277	0.346283
857.758633	0.346456
857.944970	0.346795
858.131290	0.347379
858.317591	0.347872
858.503873	0.348514
858.690138	0.348909
858.876384	0.349336
859.062612	0.349580
859.248822	0.350292
859.435014	0.350467
859.621188	0.351160
859.807343	0.351447
859.993480	0.351750
860.179599	0.351795
860.365699	0.352551
860.551781	0.353284
860.737846	0.353724
860.923891	0.353761
861.109919	0.354496
861.295929	0.354651
861.481920	0.355062
861.667893	0.355574
861.853848	0.356411
862.039784	0.356588
862.225702	0.356582
862.411603	0.357036
862.597484	0.357451
862.783348	0.357950
862.969193	0.358558
863.155021	0.359002
863.340830	0.359325
863.526620	0.359064
863.712393	0.358941
863.898147	0.359611
864.083883	0.360381
864.269601	0.360925
864.455301	0.361059
864.640982	0.361296
864.826645	0.361618
865.012290	0.361963
865.197917	0.362710
865.383526	0.363591
865.569116	0.364045
865.754688	0.363677
865.940242	0.363676
866.125777	0.364270
866.311295	0.364534
866.496794	0.364985
866.682275	0.365205
866.867737	0.365409
867.053182	0.365383
867.238608	0.365621
867.424016	0.366087
867.609406	0.366502
867.794778	0.366357
867.980131	0.366774
868.165466	0.366900
868.350783	0.367205
868.536082	0.367510
868.721362	0.368016
868.906625	0.368044
869.091869	0.368739
869.277094	0.368937
869.462302	0.369600
869.647491	0.369781
869.832662	0.370326
870.017815	0.370676
870.202950	0.371705
870.388066	0.372347
870.573165	0.372904
870.758245	0.373188
870.943306	0.373662
871.128350	0.373980
871.313375	0.374415
871.498382	0.374552
871.683371	0.375056
871.868342	0.375095
872.053294	0.375174
872.238229	0.375159
872.423144	0.375175
872.608042	0.375689
872.792922	0.375891
872.977783	0.376164
873.162626	0.376340
873.347451	0.376411
873.532258	0.376563
873.717046	0.376540
873.901816	0.376987
874.086568	0.377320
874.271302	0.377772
874.456017	0.378267
874.640715	0.378349
874.825394	0.378701
875.010055	0.379543
875.194697	0.379827
875.379322	0.380350
875.563928	0.380580
875.748516	0.380579
875.933085	0.380590
876.117637	0.380216
876.302170	0.380491
876.486685	0.380685
876.671182	0.380573
876.855661	0.380492
877.040121	0.380904
877.224563	0.381274
877.408987	0.381643
877.593393	0.381761
877.777780	0.382266
877.962150	0.382546
878.146501	0.382562
878.330833	0.382513
878.515148	0.382759
878.699444	0.382904
878.883722	0.383065
879.067982	0.383981
879.252224	0.383811
879.436447	0.384025
879.620653	0.384767
879.804840	0.385237
879.989008	0.385351
880.173159	0.385203
880.357291	0.384702
880.541405	0.384310
880.725501	0.384115
880.909579	0.384690
881.093638	0.384948
881.277680	0.384792
881.461703	0.384711
881.645707	0.384713
881.829694	0.385106
882.013662	0.386126
882.197612	0.386887
882.381544	0.386836
882.565458	0.386940
882.749353	0.387341
882.933230	0.387132
883.117089	0.387796
883.300930	0.387909
883.484753	0.388008
883.668557	0.387755
883.852343	0.388063
884.036111	0.388202
884.219861	0.388479
884.403592	0.388263
884.587305	0.388643
884.771000	0.388336
884.954677	0.388950
885.138335	0.389300
885.321976	0.389227
885.505598	0.388656
885.689201	0.388347
885.872787	0.388399
886.056354	0.388595
886.239904	0.387619
886.423434	0.387398
886.606947	0.387026
886.790442	0.387105
886.973918	0.387183
887.157376	0.387940
887.340816	0.388223
887.524237	0.388371
887.707641	0.388430
887.891026	0.389262
888.074393	0.389238
888.257741	0.389476
888.441072	0.389383
888.624384	0.389173
888.807678	0.388728
888.990954	0.388832
889.174211	0.388442
889.357451	0.388474
889.540672	0.388832
889.723875	0.389045
889.907059	0.388924
890.090226	0.388995
890.273374	0.388956
890.456504	0.389178
890.639616	0.388564
890.822709	0.388681
891.005785	0.389150
891.188842	0.388922
891.371881	0.389345
891.554901	0.389283
891.737904	0.388950
891.920888	0.389500
892.103854	0.389443
892.286802	0.389698
892.469731	0.389951
892.652643	0.389476
892.835536	0.388791
893.018410	0.388845
893.201267	0.388692
893.384106	0.388814
893.566926	0.388551
893.749728	0.388514
893.932511	0.388500
894.115277	0.387814
894.298024	0.388025
894.480753	0.388760
894.663464	0.388106
894.846157	0.388058
895.028831	0.387594
895.211487	0.387396
895.394125	0.386852
895.576745	0.386776
895.759346	0.387297
895.941930	0.386493
896.124495	0.385693
896.307041	0.385845
896.489570	0.385519
896.672080	0.385473
896.854573	0.385477
897.037046	0.385532
897.219502	0.385668
897.401940	0.385011
897.584359	0.384943
897.766760	0.384616
897.949143	0.384086
898.131507	0.384124
898.313854	0.383997
898.496182	0.383469
898.678492	0.383609
898.860783	0.383155
899.043057	0.383123
899.225312	0.382845
899.407549	0.382675
899.589768	0.382284
899.771968	0.382046
899.954151	0.381464
900.136315	0.381057
900.318461	0.380796
900.500588	0.380520
900.682698	0.380373
900.864789	0.379910
901.046862	0.379653
901.228917	0.379293
901.410953	0.378911
901.592971	0.378888
901.774972	0.378131
901.956953	0.377440
902.138917	0.376969
902.320862	0.376484
902.502790	0.376037
902.684699	0.375989
902.866589	0.376146
903.048462	0.375886
903.230316	0.375825
903.412152	0.376229
903.593970	0.375954
903.775770	0.375114
903.957551	0.374485
904.139314	0.374559
904.321059	0.373963
904.502786	0.373043
904.684494	0.372893
904.866185	0.372206
905.047857	0.371649
905.229510	0.370768
905.411146	0.370992
905.592763	0.370898
905.774363	0.370886
905.955943	0.370695
906.137506	0.370674
906.319051	0.370575
906.500577	0.370685
906.682085	0.371067
906.863575	0.371270
907.045046	0.370513
907.226500	0.369979
907.407935	0.369865
907.589352	0.369611
907.770750	0.369514
907.952131	0.368790
908.133493	0.368519
908.314837	0.367822
908.496163	0.367067
908.677470	0.366629
908.858760	0.366405
909.040031	0.365319
909.221284	0.364711
909.402518	0.364343
909.583735	0.364125
909.764933	0.363420
909.946113	0.362465
910.127275	0.362218
910.308418	0.362674
910.489544	0.361737
910.670651	0.361880
910.851740	0.361592
911.032810	0.360760
911.213863	0.359723
911.394897	0.358891
911.575913	0.358962
911.756911	0.358155
911.937890	0.356957
912.118851	0.356854
912.299794	0.355403
912.480719	0.354614
912.661626	0.353690
912.842514	0.353170
913.023384	0.353283
913.204236	0.352629
913.385070	0.352103
913.565886	0.351320
913.746683	0.350619
913.927462	0.350775
914.108223	0.350153
914.288965	0.349961
914.469690	0.349532
914.650396	0.348032
914.831084	0.347302
915.011754	0.347135
915.192405	0.347627
915.373038	0.347235
915.553653	0.346420
915.734250	0.346145
915.914829	0.345306
916.095389	0.344719
916.275931	0.344130
916.456455	0.343398
916.636961	0.342664
916.817448	0.341202
916.997917	0.340751
917.178368	0.339657
917.358801	0.338579
917.539216	0.338140
917.719612	0.337389
917.899990	0.337029
918.080350	0.336140
918.260692	0.335134
918.441015	0.334496
918.621320	0.333291
918.801607	0.332677
918.981876	0.332320
919.162127	0.331093
919.342359	0.330442
919.522573	0.329859
919.702769	0.329031
919.882947	0.328397
920.063106	0.327754
920.243247	0.327200
920.423370	0.326539
920.603475	0.325682
920.783562	0.325696
920.963630	0.325478
921.143680	0.324493
921.323712	0.324020
921.503725	0.323533
921.683721	0.322817
921.863698	0.322028
922.043657	0.321210
922.223598	0.320581
922.403520	0.318581
922.583424	0.317342
922.763311	0.316338
922.943178	0.315196
923.123028	0.314386
923.302859	0.313953
923.482673	0.313282
923.662467	0.313162
923.842244	0.312569
924.022003	0.313768
924.201743	0.313372
924.381465	0.313412
924.561169	0.312849
924.740854	0.311930
924.920522	0.310330
925.100171	0.310026
925.279802	0.309101
925.459414	0.308235
925.639009	0.306659
925.818585	0.305543
925.998143	0.304094
926.177683	0.303772
926.357205	0.303056
926.536708	0.302992
926.716193	0.301765
926.895660	0.301332
927.075109	0.300426
927.254539	0.298872
927.433951	0.297437
927.613345	0.296972
927.792721	0.296117
927.972079	0.294914
928.151418	0.294047
928.330739	0.293217
928.510042	0.291886
928.689327	0.290943
928.868593	0.290720
929.047841	0.290647
929.227071	0.289350
929.406283	0.288065
929.585476	0.287669
929.764652	0.286469
929.943809	0.285248
930.122948	0.283740
930.302068	0.283213
930.481171	0.282172
930.660255	0.281057
930.839321	0.280301
931.018369	0.279691
931.197398	0.278250
931.376409	0.276768
931.555402	0.276244
931.734377	0.275309
931.913334	0.273835
932.092272	0.272310
932.271192	0.270801
932.450094	0.269659
932.628978	0.268945
932.807844	0.268810
932.986691	0.268559
933.165520	0.267398
933.344331	0.266697
933.523123	0.266183
933.701898	0.265033
933.880654	0.265159
934.059392	0.264369
934.238111	0.263470
934.416813	0.262115
934.595496	0.260288
934.774161	0.259113
934.952808	0.257873
935.131437	0.255572
935.310047	0.256030
935.488639	0.254192
935.667213	0.252866
935.845769	0.250635
936.024306	0.249658
936.202825	0.249539
936.381326	0.248982
936.559809	0.248253
936.738274	0.247759
936.916720	0.244985
937.095148	0.244525
937.273558	0.243609
937.451950	0.242426
937.630323	0.240509
937.808678	0.239573
937.987015	0.238489
938.165334	0.236807
938.343635	0.235656
938.521917	0.235484
938.700181	0.232842
938.878427	0.231888
939.056655	0.230595
939.234864	0.230533
939.413055	0.228078
939.591228	0.227693
939.769383	0.227181
939.947519	0.226350
940.125638	0.224569
940.303738	0.224107
940.481820	0.223976
940.659883	0.223374
940.837929	0.221587
941.015956	0.221393
941.193965	0.218958
941.371955	0.218173
941.549928	0.217031
941.727882	0.215619
941.905818	0.213957
942.083736	0.210561
942.261636	0.208894
942.439517	0.207871
942.617380	0.206592
942.795225	0.205442
942.973052	0.203443
943.150860	0.202800
943.328651	0.201507
943.506423	0.201394
943.684176	0.202347
943.861912	0.200686
944.039629	0.199935
944.217328	0.197625
944.395009	0.196403
944.572672	0.195687
944.750317	0.194132
944.927943	0.194663
945.105551	0.193730
945.283141	0.191831
945.460712	0.191915
945.638265	0.189968
945.815801	0.189100
945.993317	0.187191
946.170816	0.186700
946.348297	0.185804
946.525759	0.185073
946.703203	0.183772
946.880629	0.183871
947.058036	0.181883
947.235425	0.181095
947.412797	0.180544
947.590149	0.179849
947.767484	0.177728
947.944800	0.175102
948.122099	0.173316
948.299379	0.171982
948.476640	0.169000
948.653884	0.168920
948.831109	0.167735
949.008316	0.165909
949.185505	0.165440
949.362676	0.164777
949.539828	0.163542
949.716962	0.162115
949.894078	0.160493
950.071176	0.159449
950.248256	0.158594
950.425317	0.157032
950.602360	0.157495
950.779385	0.155484
950.956391	0.153768
951.133380	0.153022
951.310350	0.149701
951.487302	0.148564
951.664235	0.146150
951.841151	0.144726
952.018048	0.143746
952.194927	0.142002
952.371788	0.140414
952.548631	0.139492
952.725455	0.137782
952.902261	0.139236
953.079049	0.139241
953.255819	0.139680
953.432570	0.138614
953.609303	0.137614
953.786018	0.136541
953.962715	0.136471
954.139394	0.134315
954.316054	0.133515
954.492696	0.130922
954.669320	0.128839
954.845926	0.127818
955.022513	0.125356
955.199083	0.124637
955.375634	0.124153
955.552166	0.124551
955.728681	0.124711
955.905177	0.126090
956.081655	0.125594
956.258115	0.124101
956.434557	0.122741
956.610980	0.122972
956.787385	0.120051
956.963772	0.119026
957.140141	0.116846
957.316492	0.116342
957.492824	0.113694
957.669138	0.114386
957.845434	0.113043
958.021712	0.112639
958.197971	0.112165
958.374212	0.113336
958.550435	0.111739
958.726640	0.110557
958.902826	0.108717
959.078995	0.108356
959.255145	0.107334
959.431277	0.106927
959.607390	0.106245
959.783486	0.105227
959.959563	0.103446
960.135622	0.102692
960.311662	0.104860
960.487685	0.105538
960.663689	0.104808
960.839675	0.104079
961.015643	0.104761
961.191593	0.105034
961.367524	0.106702
961.543437	0.107378
961.719332	0.107607
961.895209	0.105615
962.071067	0.103623
962.246907	0.103271
962.422730	0.102719
962.598533	0.100859
962.774319	0.099564
962.950086	0.096679
963.125835	0.096534
963.301566	0.095672
963.477279	0.094515
963.652973	0.095146
963.828650	0.093944
964.004308	0.092147
964.179947	0.093039
964.355569	0.092573
964.531172	0.092388
964.706757	0.091674
964.882324	0.090523
965.057873	0.088613
965.233403	0.089023
965.408916	0.089032
965.584410	0.088694
965.759885	0.085844
965.935343	0.085809
966.110782	0.085109
966.286203	0.086285
966.461606	0.085314
966.636991	0.086937
966.812357	0.084161
966.987705	0.083754
967.163035	0.085211
967.338347	0.086563
967.513641	0.086889
967.688916	0.088739
967.864173	0.086500
968.039412	0.087892
968.214632	0.086338
968.389835	0.087267
968.565019	0.088699
968.740185	0.088088
968.915333	0.088805
969.090462	0.087018
969.265573	0.085624
969.440667	0.089749
969.615741	0.088871
969.790798	0.089023
969.965836	0.088089
970.140856	0.089049
970.315858	0.091324
970.490842	0.090785
970.665808	0.091202
970.840755	0.090119
971.015684	0.087332
971.190595	0.087339
971.365487	0.087591
971.540362	0.088877
971.715218	0.086779
971.890056	0.083981
972.064875	0.084166
972.239677	0.086061
972.414460	0.086991
972.589225	0.086385
972.763972	0.087160
972.938700	0.088217
973.113411	0.087388
973.288103	0.085550
973.462777	0.088242
973.637432	0.086893
973.812070	0.086116
973.986689	0.087921
974.161290	0.086932
974.335873	0.088917
974.510437	0.089082
974.684984	0.090358
974.859512	0.093116
975.034022	0.092294
975.208513	0.092876
975.382987	0.093779
975.557442	0.091294
975.731879	0.092676
975.906298	0.090832
976.080698	0.089619
976.255080	0.090587
976.429445	0.088360
976.603790	0.085791
976.778118	0.086336
976.952427	0.084997
977.126719	0.086819
977.300992	0.086796
977.475246	0.087307
977.649483	0.087178
977.823701	0.085171
977.997901	0.086706
978.172083	0.089098
978.346247	0.089839
978.520392	0.087935
978.694519	0.087277
978.868628	0.087480
979.042719	0.086690
979.216791	0.086166
979.390845	0.086410
979.564882	0.086055
979.738899	0.086504
979.912899	0.084778
980.086880	0.085531
980.260843	0.087003
980.434788	0.086513
980.608715	0.085667
980.782623	0.087690
980.956514	0.088459
981.130386	0.091009
981.304240	0.089987
981.478075	0.090350
981.651892	0.091145
981.825692	0.089678
981.999472	0.088835
982.173235	0.091200
982.346980	0.088824
982.520706	0.087843
982.694414	0.086453
982.868104	0.085889
983.041775	0.086095
983.215428	0.085520
983.389064	0.085120
983.562680	0.084659
983.736279	0.083289
983.909860	0.087123
984.083422	0.087894
984.256966	0.087395
984.430491	0.087660
984.603999	0.088966
984.777488	0.091284
984.950959	0.092405
985.124412	0.094108
985.297847	0.093476
985.471263	0.092177
985.644661	0.092405
985.818041	0.092317
985.991403	0.090473
986.164747	0.090699
986.338072	0.088609
986.511379	0.085574
986.684668	0.084999
986.857938	0.084907
987.031191	0.083612
987.204425	0.082399
987.377641	0.082023
987.550839	0.082357
987.724018	0.081692
987.897179	0.082084
988.070322	0.084000
988.243447	0.083229
988.416554	0.082413
988.589642	0.082531
988.762712	0.082609
988.935764	0.083220
989.108798	0.084490
989.281813	0.085138
989.454811	0.083693
989.627790	0.083464
989.800751	0.083565
989.973693	0.084235
990.146617	0.085114
990.319524	0.087271
990.492412	0.088373
990.665281	0.089279
990.838133	0.087748
991.010966	0.089999
991.183781	0.089176
991.356578	0.089423
991.529356	0.089225
991.702117	0.088670
991.874859	0.087428
992.047583	0.086276
992.220288	0.085755
992.392976	0.085865
992.565645	0.085963
992.738296	0.085680
992.910929	0.085484
993.083543	0.087262
993.256139	0.086176
993.428718	0.086722
993.601277	0.087698
993.773819	0.087357
993.946342	0.087786
994.118848	0.086604
994.291335	0.087118
994.463803	0.087838
994.636254	0.087976
994.808686	0.087011
994.981100	0.086326
995.153496	0.085235
995.325874	0.084212
995.498233	0.084648
995.670574	0.083621
995.842897	0.086022
996.015202	0.085764
996.187488	0.084772
996.359757	0.085624
996.532007	0.084956
996.704239	0.084782
996.876452	0.085111
997.048648	0.083891
997.220825	0.084544
997.392984	0.083705
997.565124	0.082641
997.737247	0.083216
997.909351	0.084211
998.081437	0.084058
998.253505	0.085030
998.425554	0.084842
998.597586	0.087000
998.769599	0.086980
998.941594	0.085848
999.113571	0.086123
999.285529	0.085795
999.457469	0.085420
999.629391	0.087601
999.801295	0.087940
999.973181	0.088272
1000.145048	0.087269
1000.316897	0.089091
1000.488728	0.090683
1000.660541	0.092191
1000.832335	0.093498
1001.004111	0.093774
1001.175869	0.090934
1001.347609	0.089846
1001.519331	0.088986
1001.691034	0.088028
1001.862719	0.088245
1002.034386	0.087802
1002.206035	0.087267
1002.377665	0.086289
1002.549277	0.086057
1002.720871	0.087076
1002.892447	0.087700
1003.064004	0.089163
1003.235544	0.089387
1003.407065	0.088975
1003.578568	0.089066
1003.750052	0.088282
1003.921519	0.087730
1004.092967	0.088125
1004.264397	0.088914
1004.435809	0.089089
1004.607202	0.089072
1004.778577	0.089569
1004.949934	0.087965
1005.121273	0.086379
1005.292594	0.087056
1005.463896	0.086167
1005.635180	0.085240
1005.806446	0.085222
1005.977694	0.083821
1006.148923	0.084546
1006.320135	0.084513
1006.491328	0.084833
1006.662503	0.085055
1006.833659	0.085857
1007.004798	0.088355
1007.175918	0.087304
1007.347020	0.085494
1007.518103	0.086316
1007.689169	0.083773
1007.860216	0.083724
1008.031245	0.083407
1008.202256	0.085082
1008.373248	0.084909
1008.544223	0.083792
1008.715179	0.085723
1008.886117	0.088650
1009.057036	0.088906
1009.227938	0.090684
1009.398821	0.090911
1009.569686	0.093042
1009.740533	0.091886
1009.911361	0.090444
1010.082172	0.090523
1010.252964	0.089069
1010.423738	0.088730
1010.594493	0.088110
1010.765231	0.088189
1010.935950	0.087540
1011.106651	0.087145
1011.277334	0.087601
1011.447998	0.088648
1011.618645	0.088829
1011.789273	0.090115
1011.959882	0.088826
1012.130474	0.088245
1012.301048	0.088710
1012.471603	0.089678
1012.642140	0.088417
1012.812658	0.087489
1012.983159	0.088238
1013.153641	0.090423
1013.324105	0.089379
1013.494551	0.089688
1013.664979	0.091934
1013.835388	0.090943
1014.005779	0.089670
1014.176152	0.091630
1014.346507	0.092557
1014.516843	0.092334
1014.687162	0.089693
1014.857462	0.091254
1015.027744	0.089291
1015.198007	0.088047
1015.368252	0.088274
1015.538480	0.087716
1015.708689	0.085899
1015.878879	0.086463
1016.049052	0.087070
1016.219206	0.088215
1016.389342	0.088198
1016.559460	0.092649
1016.729559	0.092768
1016.899641	0.093961
1017.069704	0.095076
1017.239749	0.094438
1017.409775	0.093433
1017.579784	0.090547
1017.749774	0.089970
1017.919746	0.089029
1018.089700	0.086900
1018.259635	0.086724
1018.429553	0.085186
1018.599452	0.086723
1018.769333	0.086899
1018.939195	0.086670
1019.109040	0.089091
1019.278866	0.087290
1019.448674	0.087210
1019.618464	0.085497
1019.788235	0.085067
1019.957989	0.085057
1020.127724	0.081839
1020.297441	0.082131
1020.467139	0.082456
1020.636820	0.081060
1020.806482	0.082584
1020.976126	0.082968
1021.145752	0.084263
1021.315359	0.084064
1021.484948	0.083169
1021.654519	0.084901
1021.824072	0.085661
1021.993607	0.084442
1022.163123	0.083937
1022.332621	0.083525
1022.502101	0.083916
1022.671563	0.082930
1022.841007	0.083655
1023.010432	0.085582
1023.179839	0.084928
1023.349228	0.085711
1023.518598	0.087317
1023.687951	0.086839
1023.857285	0.087039
1024.026601	0.084274
1024.195899	0.086451
1024.365178	0.086441
1024.534439	0.086152
1024.703682	0.087117
1024.872907	0.084927
1025.042114	0.084560
1025.211302	0.085720
1025.380472	0.086750
1025.549624	0.090117
1025.718758	0.087399
1025.887873	0.085545
1026.056970	0.083637
1026.226049	0.082637
1026.395110	0.083459
1026.564153	0.083665
1026.733177	0.084716
1026.902183	0.083113
1027.071171	0.081597
1027.240141	0.083286
1027.409092	0.083519
1027.578026	0.083840
1027.746940	0.083110
1027.915837	0.082348
1028.084716	0.082839
1028.253576	0.081810
1028.422418	0.082898
1028.591242	0.082926
1028.760048	0.082065
1028.928835	0.083808
1029.097604	0.086337
1029.266355	0.088024
1029.435088	0.088249
1029.603803	0.087658
1029.772499	0.088334
1029.941177	0.087939
1030.109837	0.088329
1030.278478	0.089203
1030.447102	0.087405
1030.615707	0.085653
1030.784294	0.085434
1030.952863	0.086978
1031.121413	0.086498
1031.289945	0.086433
1031.458460	0.086556
1031.626955	0.086611
1031.795433	0.085486
1031.963892	0.085014
1032.132334	0.085944
1032.300756	0.086306
1032.469161	0.084428
1032.637548	0.085113
1032.805916	0.086333
1032.974266	0.085353
1033.142598	0.085754
1033.310911	0.086159
1033.479207	0.088386
1033.647484	0.088719
1033.815743	0.088675
1033.983983	0.089598
1034.152206	0.088132
1034.320410	0.087486
1034.488596	0.087897
1034.656764	0.088545
1034.824914	0.089992
1034.993045	0.089863
1035.161158	0.088307
1035.329253	0.088610
1035.497330	0.088015
1035.665388	0.087628
1035.833428	0.084799
1036.001450	0.086006
1036.169454	0.083981
1036.337440	0.082410
1036.505407	0.082405
1036.673356	0.082893
1036.841287	0.082628
1037.009200	0.083243
1037.177094	0.085917
1037.344970	0.087442
1037.512828	0.086709
1037.680668	0.087208
1037.848489	0.087204
1038.016293	0.085283
1038.184078	0.085154
1038.351845	0.084820
1038.519593	0.083667
1038.687324	0.082231
1038.855036	0.082359
1039.022730	0.082773
1039.190406	0.082781
1039.358063	0.084864
1039.525702	0.085145
1039.693323	0.086103
1039.860926	0.085260
1040.028511	0.085751
1040.196077	0.084576
1040.363625	0.084592
1040.531155	0.082267
1040.698667	0.081196
1040.866161	0.078354
1041.033636	0.078153
1041.201093	0.076809
1041.368532	0.076999
1041.535952	0.077004
1041.703355	0.078871
1041.870739	0.078531
1042.038105	0.081069
1042.205452	0.084135
1042.372782	0.084745
1042.540093	0.086042
1042.707386	0.087151
1042.874661	0.087455
1043.041918	0.088521
1043.209156	0.088116
1043.376376	0.086782
1043.543578	0.086975
1043.710762	0.085822
1043.877927	0.087183
1044.045074	0.087842
1044.212203	0.087439
1044.379314	0.088083
1044.546407	0.086130
1044.713481	0.084446
1044.880537	0.086330
1045.047575	0.086233
1045.214595	0.085825
1045.381596	0.084427
1045.548579	0.083451
1045.715544	0.083520
1045.882491	0.082051
1046.049420	0.082369
1046.216330	0.084560
1046.383222	0.083472
1046.550096	0.080660
1046.716951	0.080154
1046.883789	0.080209
1047.050608	0.080744
1047.217409	0.079399
1047.384192	0.081684
1047.550956	0.080173
1047.717703	0.079477
1047.884431	0.080320
1048.051140	0.082008
1048.217832	0.082284
1048.384505	0.081561
1048.551161	0.081553
1048.717798	0.082005
1048.884416	0.080769
1049.051017	0.083142
1049.217599	0.084339
1049.384163	0.085845
1049.550709	0.085687
1049.717237	0.085564
1049.883746	0.086220
1050.050237	0.085478
1050.216710	0.083821
1050.383165	0.083195
1050.549601	0.082342
1050.716019	0.081147
1050.882420	0.080207
1051.048801	0.080148
1051.215165	0.079708
1051.381510	0.078663
1051.547837	0.079347
1051.714146	0.081291
1051.880437	0.081123
1052.046709	0.082383
1052.212964	0.081800
1052.379200	0.081011
1052.545417	0.082620
1052.711617	0.083257
1052.877798	0.084224
1053.043961	0.082990
1053.210106	0.083288
1053.376233	0.086156
1053.542341	0.086884
1053.708432	0.085754
1053.874504	0.086661
1054.040557	0.085938
1054.206593	0.085233
1054.372610	0.086232
1054.538609	0.088185
1054.704590	0.089222
1054.870553	0.086470
1055.036497	0.084403
1055.202424	0.086167
1055.368331	0.084269
1055.534221	0.084209
1055.700093	0.085839
1055.865946	0.085029
1056.031781	0.083364
1056.197598	0.081333
1056.363397	0.081999
1056.529177	0.081652
1056.694939	0.082769
1056.860683	0.083831
1057.026409	0.083468
1057.192116	0.082667
1057.357806	0.083506
1057.523477	0.084550
1057.689130	0.086445
1057.854764	0.087167
1058.020381	0.090244
1058.185979	0.090937
1058.351559	0.092298
1058.517120	0.090406
1058.682664	0.090170
1058.848189	0.088625
1059.013696	0.087091
1059.179185	0.087481
1059.344656	0.085693
1059.510108	0.084499
1059.675542	0.083113
1059.840958	0.081949
1060.006356	0.084072
1060.171735	0.084711
1060.337096	0.086716
1060.502439	0.086208
1060.667764	0.084840
1060.833071	0.084045
1060.998359	0.084287
1061.163629	0.082893
1061.328881	0.082622
1061.494115	0.082098
1061.659330	0.081725
1061.824527	0.081147
1061.989706	0.082227
1062.154867	0.082810
1062.320010	0.084972
1062.485134	0.083517
1062.650240	0.082807
1062.815328	0.083033
1062.980398	0.084787
1063.145449	0.085631
1063.310482	0.085324
1063.475497	0.085138
1063.640494	0.085154
1063.805473	0.086189
1063.970433	0.086132
1064.135375	0.087616
1064.300299	0.088264
1064.465204	0.086407
1064.630092	0.083950
1064.794961	0.083768
1064.959812	0.084104
1065.124645	0.083822
1065.289459	0.084880
1065.454256	0.084999
1065.619034	0.087112
1065.783793	0.085937
1065.948535	0.086833
1066.113258	0.086087
1066.277964	0.085732
1066.442651	0.087269
1066.607319	0.085639
1066.771970	0.082229
1066.936602	0.080854
1067.101216	0.077923
1067.265812	0.078874
1067.430389	0.078482
1067.594949	0.079221
1067.759490	0.079052
1067.924013	0.078953
1068.088518	0.081900
1068.253004	0.080562
1068.417472	0.081895
1068.581922	0.082142
1068.746354	0.080226
1068.910768	0.080716
1069.075163	0.082226
1069.239540	0.084579
1069.403899	0.084335
1069.568240	0.084530
1069.732562	0.086759
1069.896866	0.087014
1070.061152	0.089021
1070.225420	0.090894
1070.389670	0.089603
1070.553901	0.090657
1070.718114	0.090396
1070.882309	0.088706
1071.046486	0.087200
1071.210644	0.086492
1071.374784	0.088676
1071.538906	0.087889
1071.703010	0.087984
1071.867096	0.087025
1072.031163	0.085253
1072.195212	0.084659
1072.359243	0.086366
1072.523256	0.087094
1072.687250	0.089974
1072.851226	0.086764
1073.015184	0.087162
1073.179124	0.088109
1073.343045	0.090150
1073.506949	0.090827
1073.670834	0.089357
1073.834701	0.090632
1073.998549	0.089809
1074.162380	0.088422
1074.326192	0.089823
1074.489986	0.089746
1074.653761	0.088135
1074.817519	0.086832
1074.981258	0.085796
1075.144979	0.087842
1075.308682	0.087726
1075.472367	0.088134
1075.636033	0.089329
1075.799681	0.091758
1075.963311	0.091617
1076.126923	0.091205
1076.290516	0.093714
1076.454092	0.095660
1076.617649	0.095896
1076.781187	0.093001
1076.944708	0.092861
1077.108210	0.092699
1077.271695	0.087639
1077.435160	0.087536
1077.598608	0.089976
1077.762038	0.090459
1077.925449	0.089407
1078.088842	0.086583
1078.252217	0.087437
1078.415573	0.087378
1078.578912	0.087001
1078.742232	0.090757
1078.905534	0.091205
1079.068817	0.089225
1079.232083	0.086656
1079.395330	0.087935
1079.558559	0.088749
1079.721770	0.089298
1079.884962	0.091213
1080.048136	0.092266
1080.211293	0.092313
1080.374430	0.092565
1080.537550	0.095571
1080.700651	0.098644
1080.863735	0.097853
1081.026800	0.099131
1081.189846	0.099735
1081.352875	0.096896
1081.515885	0.093917
1081.678877	0.094619
1081.841851	0.094868
1082.004807	0.094207
1082.167744	0.091440
1082.330663	0.091246
1082.493564	0.090700
1082.656447	0.091153
1082.819312	0.093476
1082.982158	0.095244
1083.144986	0.095877
1083.307796	0.094447
1083.470587	0.094472
1083.633361	0.096584
1083.796116	0.097224
1083.958853	0.097311
1084.121571	0.095776
1084.284272	0.094658
1084.446954	0.094287
1084.609618	0.092491
1084.772264	0.093456
1084.934892	0.091252
1085.097501	0.091144
1085.260092	0.091236
1085.422665	0.092133
1085.585220	0.095704
1085.747756	0.096116
1085.910274	0.096933
1086.072774	0.096299
1086.235256	0.095227
1086.397720	0.096132
1086.560165	0.095050
1086.722592	0.094673
1086.885001	0.095862
1087.047392	0.093290
1087.209764	0.093542
1087.372119	0.091949
1087.534455	0.091654
1087.696772	0.094683
1087.859072	0.094441
1088.021353	0.096248
1088.183616	0.096562
1088.345861	0.094460
1088.508088	0.093888
1088.670296	0.093733
1088.832486	0.092815
1088.994658	0.094555
1089.156812	0.091994
1089.318948	0.093611
1089.481065	0.092305
1089.643164	0.094010
1089.805245	0.093235
1089.967308	0.094321
1090.129352	0.093283
1090.291378	0.096357
1090.453386	0.094980
1090.615376	0.093784
1090.777347	0.092963
1090.939301	0.092469
1091.101236	0.092923
1091.263153	0.092650
1091.425051	0.093181
1091.586932	0.093125
1091.748794	0.093570
1091.910638	0.093361
1092.072463	0.095193
1092.234271	0.094956
1092.396060	0.096088
1092.557831	0.095904
1092.719584	0.099808
1092.881319	0.099336
1093.043035	0.100845
1093.204733	0.100092
1093.366413	0.105032
1093.528075	0.105460
1093.689718	0.107024
1093.851343	0.106386
1094.012950	0.105944
1094.174539	0.103472
1094.336110	0.103911
1094.497662	0.104466
1094.659196	0.106686
1094.820712	0.104675
1094.982210	0.103496
1095.143689	0.106064
1095.305151	0.106584
1095.466594	0.105458
1095.628018	0.106275
1095.789425	0.107228
1095.950813	0.107846
1096.112183	0.104220
1096.273535	0.101739
1096.434869	0.103288
1096.596184	0.099216
1096.757482	0.096626
1096.918761	0.095824
1097.080021	0.091992
1097.241264	0.090414
1097.402488	0.087491
1097.563694	0.088829
1097.724882	0.091513
1097.886052	0.092184
1098.047203	0.092721
1098.208336	0.093923
1098.369451	0.094408
1098.530548	0.101095
1098.691627	0.100915
1098.852687	0.103246
1099.013729	0.103055
1099.174753	0.103182
1099.335758	0.104178
1099.496746	0.105040
1099.657715	0.108697
1099.818666	0.108870
1099.979599	0.104452
1100.140513	0.103310
1100.301409	0.101056
1100.462287	0.102808
1100.623147	0.102809
1100.783989	0.098787
1100.944812	0.096377
1101.105617	0.097022
1101.266404	0.096979
1101.427173	0.098662
1101.587923	0.102181
1101.748656	0.101296
1101.909370	0.099915
1102.070066	0.101040
1102.230743	0.101523
1102.391403	0.103910
1102.552044	0.099904
1102.712667	0.098097
1102.873271	0.098454
1103.033858	0.095828
1103.194426	0.096597
1103.354976	0.096699
1103.515508	0.094131
1103.676021	0.096568
1103.836517	0.096431
1103.996994	0.096546
1104.157453	0.098169
1104.317893	0.096201
1104.478316	0.100803
1104.638720	0.106592
1104.799106	0.106154
1104.959474	0.107711
1105.119823	0.104794
1105.280155	0.105052
1105.440468	0.102846
1105.600763	0.104300
1105.761039	0.108081
1105.921298	0.104757
1106.081538	0.100511
1106.241760	0.096271
1106.401964	0.094352
1106.562149	0.096546
1106.722316	0.094779
1106.882465	0.097561
1107.042596	0.097619
1107.202709	0.097996
1107.362803	0.098665
1107.522879	0.097909
1107.682937	0.101713
1107.842977	0.103377
1108.002999	0.101784
1108.163002	0.100850
1108.322987	0.099427
1108.482954	0.099141
1108.642902	0.093536
1108.802833	0.094441
1108.962745	0.096134
1109.122639	0.095464
1109.282515	0.095361
1109.442372	0.100182
1109.602211	0.102226
1109.762032	0.103868
1109.921835	0.104079
1110.081620	0.109187
1110.241386	0.107146
1110.401134	0.105507
1110.560864	0.106114
1110.720576	0.105605
1110.880269	0.103454
1111.039945	0.103186
1111.199602	0.103118
1111.359240	0.103404
1111.518861	0.101718
1111.678463	0.102392
1111.838047	0.105343
1111.997613	0.109053
1112.157161	0.107208
1112.316690	0.103142
1112.476202	0.103169
1112.635695	0.103254
1112.795169	0.104979
1112.954626	0.104517
1113.114064	0.101732
1113.273484	0.101157
1113.432886	0.099996
1113.592270	0.102972
1113.751635	0.104649
1113.910983	0.105591
1114.070312	0.104663
1114.229622	0.101371
1114.388915	0.103749
1114.548189	0.103359
1114.707445	0.102875
1114.866683	0.101181
1115.025903	0.100693
1115.185104	0.105905
1115.344287	0.102996
1115.503452	0.105105
1115.662599	0.104709
1115.821727	0.105156
1115.980838	0.105812
1116.139930	0.108465
1116.299004	0.106460
1116.458059	0.105668
1116.617097	0.097866
1116.776116	0.101054
1116.935117	0.099031
1117.094099	0.100008
1117.253064	0.095359
1117.412010	0.096334
1117.570938	0.095133
1117.729848	0.094698
1117.888740	0.098033
1118.047613	0.100191
1118.206468	0.097065
1118.365305	0.095652
1118.524124	0.096626
1118.682924	0.099521
1118.841707	0.100295
1119.000471	0.100744
1119.159216	0.103579
1119.317944	0.098066
1119.476653	0.103177
1119.635344	0.102773
1119.794017	0.103179
1119.952672	0.102490
1120.111308	0.097251
1120.269927	0.099638
1120.428527	0.099586
1120.587108	0.100975
1120.745672	0.103287
1120.904217	0.100950
1121.062744	0.101932
1121.221253	0.105907
1121.379744	0.105826
1121.538216	0.112320
1121.696671	0.113240
1121.855107	0.107720
1122.013524	0.104809
1122.171924	0.099770
1122.330305	0.102964
1122.488668	0.107221
1122.647013	0.103709
1122.805340	0.105819
1122.963648	0.106779
1123.121938	0.104201
1123.280210	0.109407
1123.438464	0.108261
1123.596700	0.112980
1123.754917	0.112497
1123.913116	0.108134
1124.071297	0.109276
1124.229459	0.109767
1124.387604	0.104498
1124.545730	0.107508
1124.703838	0.105915
1124.861928	0.109325
1125.019999	0.112514
1125.178052	0.108268
1125.336088	0.110291
1125.494104	0.116354
1125.652103	0.110247
1125.810083	0.115287
1125.968045	0.111449
1126.125989	0.110844
1126.283915	0.105879
1126.441823	0.102515
1126.599712	0.101990
1126.757583	0.101910
1126.915436	0.097018
1127.073270	0.104184
1127.231087	0.103132
1127.388885	0.101658
1127.546665	0.101391
1127.704426	0.105559
1127.862170	0.106248
1128.019895	0.105759
1128.177602	0.103095
1128.335291	0.105065
1128.492961	0.101961
1128.650614	0.098942
1128.808248	0.101132
1128.965864	0.106275
1129.123461	0.101494
1129.281041	0.101068
1129.438602	0.100056
1129.596145	0.104242
1129.753670	0.104541
1129.911176	0.102978
1130.068665	0.102563
1130.226135	0.105239
1130.383587	0.103405
1130.541020	0.112863
1130.698436	0.116360
1130.855833	0.117335
1131.013212	0.116891
1131.170573	0.114133
1131.327915	0.114990
1131.485239	0.117279
1131.642545	0.117977
1131.799833	0.116755
1131.957103	0.111259
1132.114354	0.108867
1132.271588	0.111626
1132.428803	0.109865
1132.585999	0.110066
1132.743178	0.108631
1132.900338	0.106275
1133.057480	0.102438
1133.214604	0.099652
1133.371710	0.097888
1133.528797	0.098730
1133.685866	0.094164
1133.842917	0.092291
1133.999950	0.091423
1134.156964	0.091143
1134.313960	0.090693
1134.470938	0.091973
1134.627898	0.095897
1134.784840	0.096103
1134.941763	0.095025
1135.098668	0.101327
1135.255555	0.104053
1135.412424	0.105910
1135.569274	0.107115
1135.726107	0.108582
1135.882921	0.106657
1136.039716	0.107996
1136.196494	0.108447
1136.353253	0.110089
1136.509995	0.111893
1136.666717	0.111134
1136.823422	0.108100
1136.980109	0.108925
1137.136777	0.109987
1137.293427	0.107917
1137.450059	0.100681
1137.606672	0.104067
1137.763267	0.098872
1137.919844	0.094429
1138.076403	0.095413
1138.232944	0.095164
1138.389466	0.100247
1138.545971	0.098336
1138.702457	0.097904
1138.858924	0.101072
1139.015374	0.100326
1139.171805	0.099200
1139.328218	0.099850
1139.484613	0.100602
1139.640990	0.103056
1139.797348	0.099115
1139.953688	0.102110
1140.110010	0.108021
1140.266314	0.107024
1140.422600	0.107412
1140.578867	0.109569
1140.735116	0.104946
1140.891347	0.103869
1141.047559	0.101469
1141.203754	0.101658
1141.359930	0.098562
1141.516088	0.102176
1141.672228	0.103305
1141.828349	0.103057
1141.984452	0.103988
1142.140537	0.111696
1142.296604	0.109793
1142.452653	0.107721
1142.608683	0.106221
1142.764695	0.109184
1142.920689	0.100556
1143.076665	0.098816
1143.232622	0.099800
1143.388562	0.100214
1143.544483	0.097044
1143.700385	0.097554
1143.856270	0.104483
1144.012136	0.106514
1144.167985	0.107719
1144.323814	0.109630
1144.479626	0.106315
1144.635420	0.105173
1144.791195	0.105274
1144.946952	0.104912
1145.102691	0.100517
1145.258411	0.097092
1145.414113	0.094482
1145.569798	0.092258
1145.725463	0.091849
1145.881111	0.094777
1146.036741	0.093330
1146.192352	0.091551
1146.347945	0.089581
1146.503519	0.093204
1146.659076	0.096082
1146.814614	0.098484
1146.970134	0.095329
1147.125636	0.095382
1147.281120	0.094952
1147.436585	0.095664
1147.592032	0.093529
1147.747461	0.092342
1147.902872	0.094338
1148.058265	0.088912
1148.213639	0.088688
1148.368995	0.087782
1148.524333	0.080987
1148.679653	0.081250
1148.834954	0.076738
1148.990237	0.083468
1149.145502	0.091058
1149.300749	0.090016
1149.455977	0.089056
1149.611188	0.084375
1149.766380	0.088563
1149.921553	0.099622
1150.076709	0.100720
1150.231846	0.099804
1150.386966	0.094067
1150.542066	0.086467
1150.697149	0.081295
1150.852214	0.084863
1151.007260	0.093864
1151.162288	0.094589
1151.317298	0.089708
1151.472289	0.087801
1151.627263	0.091604
1151.782218	0.094577
1151.937155	0.102127
1152.092073	0.108293
1152.246974	0.105084
1152.401856	0.094827
1152.556720	0.092530
1152.711566	0.095399
1152.866393	0.100288
1153.021203	0.102380
1153.175994	0.100869
1153.330767	0.099049
1153.485521	0.098882
1153.640258	0.098990
1153.794976	0.106834
1153.949676	0.105607
1154.104358	0.099416
1154.259021	0.096693
1154.413667	0.097748
1154.568294	0.094690
1154.722903	0.088734
1154.877493	0.095879
1155.032066	0.095684
1155.186620	0.091887
1155.341156	0.097601
1155.495674	0.104918
1155.650173	0.103180
1155.804654	0.100717
1155.959118	0.107156
1156.113562	0.110114
1156.267989	0.103074
1156.422397	0.108059
1156.576788	0.107749
1156.731160	0.103814
1156.885513	0.099678
1157.039849	0.103701
1157.194166	0.106794
1157.348465	0.101710
1157.502746	0.100758
1157.657009	0.100672
1157.811253	0.097643
1157.965479	0.100575
1158.119687	0.101674
1158.273877	0.109202
1158.428048	0.103918
1158.582201	0.106022
1158.736337	0.104771
1158.890453	0.104864
1159.044552	0.100874
1159.198632	0.099497
1159.352694	0.100659
1159.506738	0.102535
1159.660764	0.098241
1159.814771	0.100139
1159.968761	0.092437
1160.122732	0.099646
1160.276685	0.099615
1160.430619	0.105033
1160.584535	0.103791
1160.738434	0.104666
1160.892313	0.100907
1161.046175	0.101404
1161.200019	0.100874
1161.353844	0.099876
1161.507651	0.097417
1161.661440	0.092422
1161.815210	0.088740
1161.968962	0.093265
1162.122697	0.091243
1162.276412	0.090622
1162.430110	0.083146
1162.583789	0.082638
1162.737451	0.092506
1162.891094	0.091607
1163.044718	0.094254
1163.198325	0.101342
1163.351913	0.098345
1163.505483	0.097349
1163.659035	0.100213
1163.812569	0.105650
1163.966084	0.106217
1164.119581	0.102871
1164.273060	0.101371
1164.426521	0.101980
1164.579964	0.097740
1164.733388	0.097724
1164.886794	0.097022
1165.040182	0.096338
1165.193551	0.099588
1165.346903	0.097932
1165.500236	0.088203
1165.653551	0.093498
1165.806848	0.102365
1165.960126	0.097588
1166.113386	0.092665
1166.266628	0.088160
1166.419852	0.085244
1166.573058	0.077499
1166.726245	0.083914
1166.879414	0.092835
1167.032565	0.084716
1167.185698	0.073675
1167.338812	0.080351
1167.491909	0.089161
1167.644987	0.087501
1167.798046	0.084719
1167.951088	0.091142
1168.104111	0.082009
1168.257117	0.079161
1168.410103	0.081490
1168.563072	0.085977
1168.716023	0.077907
1168.868955	0.071724
1169.021869	0.076991
1169.174765	0.080217
1169.327642	0.078323
1169.480501	0.081397
1169.633343	0.079309
1169.786165	0.079074
1169.938970	0.074462
1170.091757	0.080863
1170.244525	0.077399
1170.397275	0.081089
1170.550007	0.088343
1170.702720	0.086312
1170.855415	0.086476
1171.008092	0.089396
1171.160751	0.091799
1171.313392	0.098069
1171.466014	0.074307
1171.618619	0.103212
1171.771205	0.103212
1171.923772	0.103212
