sample name	sample
index	645
start time	 03-19-2021  03:53:17 PM
880	0.023773
Peak Time (s)	90.535
Peak Height 	0.02377
calc peak height	90,93
Baseline Time (s)	10.036
Baseline Value 	-0.006177
subtract baseline	10,4
Abs	0.011664
Peak Time (s)	92.537
Peak Height 	0.01166
calc peak height	90,93
Baseline Time (s)	11.537
Baseline Value 	0.00527
subtract baseline	10,3
PK_550	0.007173
Peak Time (s)	91.036
Peak Height 	0.007173
calc peak height	90,93
Baseline Time (s)	11.037
Baseline Value 	4.5243E-4
subtract baseline	10,2
PK_880	0.013054
Peak Time (s)	91.537
Peak Height 	0.01305
calc peak height	90,93
Baseline Time (s)	10.536
Baseline Value 	0.002462
subtract baseline	10,1


Time (s)	A880-A510	A880-A775	A880-A975	A880	I510	I775	I975	I880	
0.036000	0.000160	-0.000700	-0.001861	0.002349	7403.438442	45459.786121	4066.959238	24219.746091
0.536500	-0.002297	-0.000743	-0.005262	0.004371	7358.228127	45258.713339	4053.239725	24121.194677
1.036500	-0.001777	0.000028	-0.002562	0.004671	7360.444689	45304.534383	4059.292483	24106.631683
1.538000	0.000938	0.000212	-0.003853	0.005010	7384.374437	45289.413755	4055.175517	24090.136308
2.037000	-0.001334	-0.000223	-0.001088	0.001307	7398.859711	45608.325860	4071.591239	24270.724726
2.534000	-0.000474	0.000078	-0.002675	0.001690	7403.694031	45600.338431	4066.565920	24251.982602
3.040500	-0.001204	-0.001044	-0.003829	0.001303	7400.221754	45528.362560	4064.615548	24270.923678
3.535000	0.001881	-0.000467	-0.002920	0.000524	7439.562097	45661.117487	4068.912536	24309.099969
4.035500	0.000838	-0.000196	-0.004288	0.000376	7430.417087	45702.223568	4065.804142	24316.357430
4.535500	-0.000587	-0.000317	-0.004405	0.000065	7419.058133	45720.937833	4066.298521	24331.619588
5.039000	-0.002337	-0.000513	-0.004858	0.000171	7400.210834	45691.355540	4064.879642	24326.450531
5.536000	-0.000087	0.000026	-0.004363	0.000849	7416.173025	45677.628812	4064.412546	24293.148599
6.036500	0.000799	-0.000280	-0.000432	0.000484	7428.921641	45683.450197	4075.379956	24311.092085
6.537000	0.000583	0.000451	-0.003132	0.000888	7422.605018	45715.534571	4067.444442	24291.277165
7.037500	0.001327	-0.000234	-0.002397	0.000262	7436.577926	45709.718111	4070.916993	24321.954745
7.537500	-0.000731	-0.000124	-0.004930	0.000109	7417.154475	45735.583409	4064.853270	24329.480914
8.035500	0.000762	0.000486	0.002391	0.000479	7428.591000	45759.138064	4082.657885	24311.309720
8.535000	-0.000359	-0.000345	-0.001824	-0.000304	7425.147873	45754.456207	4073.829735	24349.765639
9.038500	0.001266	-0.000294	0.001513	-0.000144	7440.108703	45743.717800	4081.999045	24341.908937
9.536000	-0.001023	0.000085	0.001200	0.000198	7413.273984	45747.383433	4080.310444	24325.113778
10.036000	0.000638	0.000046	-0.001204	0.000000	7432.217432	45762.966351	4074.639368	24334.833435
10.536000	0.000000	0.000400	0.001410	0.000236	7423.303455	45774.620604	4080.754696	24323.243696
11.036500	-0.000760	0.000000	-0.003212	-0.000005	7418.018579	45758.941371	4069.515999	24335.063281
11.537000	0.000235	-0.000024	0.000000	0.000176	7426.318705	45738.899857	4077.280269	24326.210671
12.037500	-0.000892	-0.000068	-0.002195	0.004193	7374.163291	45341.742927	4061.431431	24129.878382
12.535000	0.002583	0.000290	-0.001798	0.000420	7447.817805	45745.639451	4072.042481	24314.188886
13.035000	0.000113	-0.000105	-0.001156	0.000379	7423.001570	45710.961223	4073.792243	24316.245172
13.538000	0.000573	0.000053	-0.004592	0.000792	7423.470456	45685.918660	4063.975575	24295.953046
14.035500	-0.001197	-0.000223	-0.001611	0.003099	7382.112074	45433.181182	4065.687312	24183.133971
14.536000	-0.001730	-0.000371	-0.000516	0.002155	7386.272661	45510.911476	4070.886869	24229.265948
15.036000	0.000128	-0.000269	-0.001499	0.000081	7426.192417	45724.131965	4073.677290	24330.869497
15.536500	0.000086	-0.000427	-0.000737	0.000480	7421.695211	45669.464428	4074.609312	24311.291038
16.037000	-0.003478	-0.000144	-0.006238	0.005797	7332.137648	45178.489185	4047.219210	24051.999037
16.537000	0.000877	0.000168	-0.003123	0.000873	7425.746951	45689.207350	4067.504553	24291.981836
17.037500	-0.002905	-0.001161	-0.003719	0.003361	7362.272653	45316.257374	4059.677314	24170.384265
17.540500	-0.001209	-0.000930	-0.004269	0.000350	7409.841678	45632.841753	4065.919474	24317.628424
18.035500	0.001141	-0.000390	-0.000256	0.001642	7420.604519	45559.252839	4072.863078	24254.345824
18.535500	0.000335	-0.000166	0.002617	0.001514	7413.703937	45593.658879	4080.570785	24260.573686
19.036000	-0.000348	-0.000296	-0.000259	0.001432	7407.599127	45588.957044	4073.394192	24264.617003
19.536500	-0.000456	-0.000172	-0.001103	0.001380	7407.022827	45606.225387	4071.367116	24267.150878
20.036000	-0.001170	0.000843	-0.000620	0.002258	7390.887904	45619.624043	4070.356203	24224.201633
20.536500	-0.000203	-0.000035	-0.002197	0.001599	7407.365228	45598.131903	4068.013426	24256.416272
21.037000	0.000083	-0.000168	0.001411	0.001521	7411.073876	45592.784306	4077.448637	24260.266623
21.536500	0.000379	-0.000725	-0.003869	0.001398	7415.334910	45550.307743	4064.273476	24266.292676
22.035000	-0.000471	-0.000070	-0.003172	0.001804	7402.567667	45574.671474	4065.010294	24246.389618
22.535000	-0.000625	0.000492	0.003489	0.002307	7395.909483	45580.403980	4080.773563	24221.794221
23.038000	-0.001200	-0.000907	-0.005326	0.001383	7399.457207	45534.046506	4060.618649	24267.029983
23.535500	-0.000064	-0.000143	-0.003907	0.001507	7409.725124	45596.670216	4063.899765	24260.957394
24.036000	-0.000280	-0.000357	-0.001990	0.002035	7402.166273	45523.995775	4067.430843	24235.090704
24.536500	-0.000785	0.000041	-0.003540	0.001570	7401.766459	45608.455903	4064.671217	24257.860173
25.036500	-0.000833	-0.001483	0.000730	0.000410	7413.054364	45572.803382	4078.554226	24314.716111
25.537000	-0.000885	-0.000434	-0.004092	0.001688	7399.551479	45550.413835	4062.970601	24252.088544
26.037000	-0.002869	-0.000332	0.000889	0.002164	7374.676448	45513.829301	4074.458967	24228.788031
26.534500	0.000506	0.000666	-0.001833	0.002140	7409.081233	45613.863248	4067.564732	24229.983099
27.035000	-0.000370	0.000009	-0.003272	0.004168	7379.678658	45351.595775	4058.768134	24131.071533
27.535000	0.001158	0.000068	-0.002763	0.000126	7436.239824	45752.759558	4070.329384	24328.634986
28.035500	0.000254	-0.000500	-0.001506	0.000137	7426.903602	45695.964649	4073.516806	24328.129213
28.536000	-0.001375	0.000021	-0.001469	0.000697	7404.627406	45692.020163	4072.175320	24300.605075
29.036500	-0.002842	-0.000546	-0.005242	0.006261	7333.851775	45094.582094	4048.546873	24029.484016
29.536000	0.000520	0.000083	-0.001974	0.000568	7425.217687	45710.808878	4071.214447	24306.944118
30.036500	0.000279	-0.000097	-0.002754	0.000763	7420.776905	45674.027522	4068.725749	24297.385667
30.536500	0.000546	-0.000512	0.002557	0.000171	7429.529167	45691.335307	4083.881044	24326.413473
31.037500	-0.003406	-0.000923	-0.004297	0.004337	7347.455800	45244.540801	4055.754261	24122.867012
31.537000	-0.000688	0.000536	0.000956	0.001168	7406.818671	45696.325772	4077.187177	24277.524632
32.035000	-0.000666	-0.000547	-0.002671	0.000327	7415.591784	45672.610587	4070.051467	24318.773084
32.538000	-0.000249	-0.000939	-0.003245	-0.000058	7423.761867	45671.997674	4069.568742	24337.685197
33.035500	-0.004416	-0.000563	-0.005089	0.006513	7315.664771	45068.565092	4048.301267	24017.325639
33.536000	0.001373	-0.000293	-0.001740	0.000808	7431.475663	45650.385525	4071.200401	24295.171708
34.036500	0.000890	0.000776	0.001899	0.002062	7413.775480	45632.266541	4077.313182	24233.798561
34.536500	-0.002127	-0.000197	0.002840	0.002470	7379.081063	45497.105701	4078.684052	24213.869903
35.037000	-0.000688	-0.000320	0.000245	0.004400	7374.125840	45297.015561	4067.098823	24119.774092
35.537000	0.000450	-0.000570	-0.000402	0.001889	7411.067106	45517.469153	4071.857278	24242.267130
36.037500	-0.001206	0.000181	-0.000948	0.002683	7386.228341	45513.242078	4068.436196	24203.458038
36.535500	-0.001459	-0.000997	-0.003609	0.001368	7396.970480	45526.614330	4065.009400	24267.734982
37.035000	-0.002406	-0.000301	0.000799	0.003295	7367.955268	45406.470425	4071.333532	24173.614533
37.535500	-0.000348	-0.000337	-0.001673	0.002073	7401.086747	45522.241575	4068.140997	24233.234516
38.036000	-0.002735	-0.000317	-0.000596	0.001778	7379.931283	45553.031017	4071.646082	24247.689673
38.536000	-0.000747	0.000536	-0.003009	0.002924	7388.432749	45524.314838	4062.580502	24191.665076
39.036500	-0.000655	0.000198	0.002616	0.002626	7392.378804	45520.443301	4077.704021	24206.209992
39.536000	-0.000532	0.000155	0.003534	0.002701	7392.861130	45508.938958	4079.874298	24202.576671
40.037000	0.000026	-0.000391	-0.005185	0.002403	7401.542392	45484.727976	4058.393821	24217.124839
40.537000	-0.000464	0.000223	-0.003407	0.002878	7391.767572	45498.353354	4061.691170	24193.947895
41.034500	0.000292	0.000016	-0.006282	0.002030	7408.023595	45560.948609	4056.565099	24235.347893
41.534500	-0.001524	0.000258	0.000232	0.002615	7383.701000	45527.442412	4071.621363	24206.765248
42.038000	-0.001303	-0.000175	0.003157	0.002437	7387.728085	45502.424257	4079.583609	24215.441254
42.535500	-0.002145	-0.000381	0.000207	0.002369	7379.917449	45489.034922	4072.187490	24218.774820
43.035500	-0.000437	0.000113	0.000133	0.002521	7395.653695	45522.471429	4071.609262	24211.378324
43.536500	0.000540	0.000251	-0.001143	0.002650	7404.241032	45523.301653	4068.023186	24205.051103
44.036500	-0.000717	-0.000684	-0.002384	0.002303	7395.016623	45465.805391	4065.746596	24221.994411
44.536500	-0.000879	-0.000007	0.003661	0.000647	7410.176223	45694.300282	4085.508572	24303.095752
45.036500	-0.001120	0.000117	-0.002524	0.003777	7376.054350	45400.193249	4061.649995	24150.096385
45.537500	0.001207	-0.000031	-0.002917	0.000838	7429.474818	45673.105781	4068.119428	24293.710385
46.035000	-0.002790	-0.000988	0.001937	0.004295	7354.046097	45242.319313	4071.686053	24124.903137
46.538000	-0.000142	-0.000547	-0.000934	0.000735	7416.771164	45632.629404	4073.448966	24298.737764
47.035500	-0.000357	0.000146	0.001489	0.000977	7412.121433	45676.825998	4079.048898	24286.888941
47.535500	-0.001928	-0.000429	-0.005705	0.002330	7382.505167	45488.078390	4057.265630	24220.679554
48.036000	-0.001821	-0.001112	-0.005094	0.005055	7356.137062	45156.533308	4051.940981	24087.947851
48.536000	0.001401	-0.000128	-0.001979	0.000876	7431.058507	45659.879814	4070.414816	24291.824119
49.036500	-0.003105	0.000088	-0.003123	0.006611	7327.732786	45122.043955	4052.985925	24012.544084
49.537000	0.000393	-0.000118	-0.002706	0.000639	7423.210123	45684.201522	4069.165130	24303.485148
50.040000	-0.003199	-0.000258	-0.003709	0.006074	7332.160969	45140.630594	4052.864517	24038.574203
50.537500	0.002339	-0.000052	0.002063	-0.000445	7454.191100	45797.214736	4084.198931	24356.726386
51.035000	-0.001660	-0.000628	-0.004541	0.009316	7315.191290	44792.134053	4042.671280	23882.109727
51.535000	-0.036958	-0.012557	-0.000669	0.055706	6574.811664	39548.982379	3941.814065	21766.761677
52.035500	-0.054488	-0.023030	0.010773	0.000465	6899.354639	43510.263058	4104.547621	24312.006776
52.536000	-0.035042	-0.016335	0.013503	0.003573	7048.944063	43845.698830	4103.552786	24160.035175
53.040000	-0.044550	-0.021744	-0.016726	-0.100668	8036.574008	54266.491954	4315.796001	29899.726269
53.536500	-0.038874	-0.020604	-0.021654	-0.120536	8341.855839	56803.980862	4363.203910	31158.797811
54.036500	-0.004051	-0.017304	-0.012010	-0.139151	9041.668803	59585.117919	4457.457200	32391.861222
54.537000	0.018945	-0.014692	-0.006336	-0.141319	9402.235184	60210.572480	4484.720558	32538.930708
55.034500	0.011498	-0.008030	0.000213	-0.103029	8762.011876	56196.963104	4377.347621	30046.316929
55.534500	-0.002812	-0.008077	-0.001397	-0.072792	8200.005310	52618.406365	4277.221888	28227.472064
56.037500	-0.005225	-0.006534	-0.003505	-0.057748	7995.018387	51101.658769	4226.260592	27368.625470
56.535500	0.001450	-0.003638	0.006815	-0.050520	7988.665893	50625.007145	4235.299336	26966.477947
57.035500	-0.006966	-0.003536	-0.001280	-0.022989	7592.150318	47714.240849	4134.960375	25494.487838
57.535500	-0.003486	-0.002286	0.004366	-0.010783	7500.747004	46601.990860	4117.364477	24871.147023
58.036000	-0.002369	-0.000522	0.005342	0.001295	7388.503057	45580.194891	4088.182232	24271.302214
58.536500	-0.001938	0.000084	0.006581	0.007657	7328.946603	45020.556617	4074.969269	23962.040151
59.036500	-0.005378	0.000287	0.000345	0.015144	7221.313650	44322.760540	4040.328572	23603.798075
59.537000	-0.000440	0.001256	0.006680	0.016747	7253.870164	44262.494219	4052.147753	23527.857994
60.035000	-0.001239	0.001614	0.003019	0.020823	7206.363838	43911.384544	4032.887214	23336.141608
60.535000	-0.001044	0.002498	0.006340	0.023965	7177.902643	43699.585641	4033.328696	23189.586532
61.035500	-0.003188	0.002308	-0.001084	0.030033	7099.580414	43118.288160	4000.534295	22909.456596
61.535500	0.003480	0.005866	0.001194	0.035983	7106.374768	42898.261811	3991.784433	22638.590315
62.035500	0.007898	0.006482	0.004088	0.028415	7221.361329	43655.992786	4016.910495	22983.769404
62.535500	0.006501	0.005456	0.004559	0.020407	7286.153251	44313.751283	4037.723199	23355.612528
63.036500	0.009033	0.006116	0.008951	0.019061	7324.627267	44504.774762	4052.043540	23418.830545
63.539500	0.008835	0.006320	0.009735	0.015106	7362.228729	44903.519796	4064.010433	23605.602276
64.048500	0.007768	0.006415	0.009890	0.014349	7359.108536	44985.694623	4066.328043	23641.548179
64.534500	0.009600	0.005835	0.008710	0.013824	7382.848457	44980.370537	4064.662886	23666.494312
65.037500	0.010926	0.005920	0.007529	0.013682	7397.695944	45002.276664	4062.023550	23673.246781
65.538000	0.010030	0.006611	0.004551	0.014123	7384.164353	45026.336547	4053.393599	23652.258835
66.035000	0.010785	0.007412	0.007022	0.015217	7380.750179	44998.125102	4056.862466	23600.337053
66.535500	0.011716	0.007263	0.010825	0.015668	7385.597544	44940.267057	4065.351850	23578.963506
67.036000	0.010979	0.008014	0.007484	0.016048	7374.320855	44975.999687	4055.929325	23560.933417
67.536000	0.010426	0.008359	0.006695	0.017011	7359.066687	44916.398447	4051.523615	23515.416765
68.036500	0.009851	0.007071	0.009545	0.020159	7321.837023	44491.140247	4050.775677	23367.264530
68.537000	0.011238	0.008070	0.005172	0.017380	7363.525454	44853.101838	4046.785543	23498.009288
69.037000	0.011768	0.007304	0.005370	0.016877	7373.913779	44827.684565	4048.537561	23521.728855
69.537500	0.011396	0.008072	0.010071	0.018240	7356.468050	44770.611956	4056.928361	23457.456357
70.035000	0.008490	0.007652	0.008497	0.022696	7283.187805	44304.988543	4041.818974	23248.629659
70.535500	0.010924	0.007401	0.012166	0.018509	7349.035289	44680.460338	4061.545403	23444.786129
71.035500	0.010701	0.007923	0.010904	0.018708	7344.808594	44711.359297	4057.847455	23435.408010
71.535500	0.009910	0.007795	0.007189	0.018739	7336.588164	44696.096156	4048.429441	23433.955898
72.036000	0.008370	0.007588	0.003430	0.023234	7276.704972	44247.814896	4027.963181	23223.551861
72.536500	0.011813	0.007020	0.009373	0.019023	7352.793740	44594.672558	4053.196450	23420.582503
73.036500	0.009254	0.006741	0.009405	0.020823	7309.294293	44396.371151	4048.760169	23336.123773
73.537000	0.012214	0.008005	0.010792	0.019801	7349.017798	44614.546858	4054.810826	23384.058454
74.037500	0.009476	0.008156	0.011161	0.024915	7271.044542	44142.468620	4042.927851	23145.454071
74.537500	0.011828	0.008314	0.014210	0.019870	7344.463624	44637.520607	4063.275560	23380.830683
75.040500	0.011827	0.007325	0.007960	0.021253	7330.632370	44411.060618	4044.076784	23316.032318
75.535500	0.011182	0.007443	0.011360	0.019867	7338.031187	44554.535715	4056.075074	23380.951006
76.036000	0.009100	0.007844	0.006296	0.024483	7271.599942	44153.804156	4031.942195	23165.508858
76.536000	0.012559	0.008249	0.007392	0.020598	7344.487735	44561.653516	4044.294366	23346.690041
77.036000	0.011272	0.007906	0.009022	0.021821	7319.437699	44412.396016	4045.310013	23289.492540
77.536500	0.011902	0.008127	0.010518	0.020977	7334.132218	44513.863945	4051.165621	23328.952518
78.037000	0.011388	0.007094	0.011246	0.020073	7338.022639	44501.472834	4055.267094	23371.280955
78.534000	0.012981	0.007900	0.010472	0.020876	7345.932636	44501.736197	4051.301834	23333.649426
79.037500	0.011204	0.007750	0.010263	0.022006	7316.923106	44379.928419	4047.948212	23280.848031
79.534500	0.012967	0.007961	0.010124	0.021061	7343.939054	44489.986582	4049.966802	23325.006781
80.035000	0.010855	0.007115	0.008073	0.020760	7325.853338	44438.074143	4045.589806	23339.114327
80.535500	0.012066	0.007610	0.009907	0.021162	7333.923566	44446.947369	4049.170992	23320.299616
81.035500	0.013026	0.007766	0.008127	0.021422	7340.919309	44437.044387	4044.072498	23308.137115
81.536000	0.014182	0.009002	0.017236	0.022436	7342.334712	44458.137629	4064.441465	23260.746830
82.036500	0.012829	0.008148	0.005535	0.021947	7333.694755	44423.283344	4036.327007	23283.563469
82.536500	0.012225	0.007795	0.005655	0.021711	7330.034824	44412.284596	4037.210194	23294.620866
83.037000	0.012205	0.007743	0.008248	0.022231	7324.649649	44357.795972	4042.357146	23270.338459
83.537000	0.011792	0.007196	0.012820	0.021563	7327.188601	44369.314139	4055.480923	23301.540255
84.034500	0.012287	0.007535	0.009524	0.022218	7325.586779	44339.240004	4045.569286	23270.917391
84.537500	0.011551	0.007403	0.007295	0.021964	7320.790256	44350.885980	4040.650969	23282.793855
85.035500	0.011502	0.007093	0.008742	0.022556	7314.404905	44265.198633	4042.776921	23255.142931
85.535500	0.012341	0.006752	0.004109	0.022239	7325.916037	44262.908022	4032.082470	23269.952376
86.035500	0.010953	0.007098	0.006997	0.021918	7315.304880	44326.301202	4040.025713	23284.961492
86.536000	0.011979	0.006858	0.002341	0.021896	7325.730063	44305.504740	4028.574080	23285.950756
87.036500	0.012559	0.006688	0.010520	0.022796	7322.536993	44204.013208	4046.614386	23243.953869
87.537000	0.011539	0.007187	0.007779	0.022608	7314.261917	44269.207994	4040.251489	23252.733052
88.034500	0.007196	0.007349	0.008892	0.025970	7238.347510	43966.758617	4034.679805	23096.580841
88.537000	0.010986	0.005750	0.002828	0.021692	7317.872192	44219.726187	4030.274336	23295.482948
89.037500	0.012528	0.006408	0.008239	0.022600	7324.183925	44196.112389	4041.414605	23253.096306
89.535000	0.011903	0.007084	0.005040	0.022651	7317.458298	44255.373196	4033.362814	23250.743098
90.035500	0.012906	0.006880	0.003940	0.023246	7321.524515	44179.639150	4029.187906	23223.029271
90.535500	0.012093	0.007090	0.008649	0.023773	7308.203304	44149.703333	4039.520523	23198.513228
91.036000	0.012080	0.007173	0.005670	0.023365	7312.120851	44196.151244	4033.157092	23217.494225
91.536500	0.013054	0.006482	0.008795	0.023054	7324.904300	44160.133517	4041.671710	23231.974618
92.036500	0.011495	0.006268	0.006159	0.023668	7303.307816	44081.916543	4033.614719	23203.383074
92.537000	0.011565	0.006724	0.011664	0.023693	7303.749132	44122.555830	4047.230846	23202.214891
93.037000	0.011869	0.006342	0.008460	0.023820	7305.509210	44074.475248	4038.934343	23196.314667
93.534500	0.010993	0.005989	0.005450	0.022982	7305.128567	44120.315757	4033.558156	23235.288846
94.034500	0.012835	0.006443	0.009612	0.023981	7313.505770	44068.886700	4041.396204	23188.838968
94.535000	0.013396	0.006004	0.008205	0.023851	7320.374335	44039.677653	4038.224928	23194.857261
95.035500	0.012583	0.006792	0.008108	0.024951	7301.378218	44010.296338	4035.261475	23143.804511
95.536000	0.012466	0.006137	0.006953	0.023940	7310.240563	44043.828427	4034.904220	23190.733536
96.036500	0.009706	0.005408	0.006982	0.027362	7249.287085	43654.065276	4026.550533	23032.295923
96.536500	0.011482	0.005269	0.004826	0.023718	7302.686356	43982.969280	4030.206032	23201.071109
