sample name	sample
index	494
start time	 03-11-2021  02:20:20 PM
880	0.494157
Peak Time (s)	92.535
Peak Height 	0.4942
calc peak height	90,93
Baseline Time (s)	9.537
Baseline Value 	-0.003467
subtract baseline	10,4
Abs	0.322242
Peak Time (s)	90.537
Peak Height 	0.3222
calc peak height	90,93
Baseline Time (s)	10.537
Baseline Value 	0.004144
subtract baseline	10,3
PK_550	0.155802
Peak Time (s)	92.535
Peak Height 	0.1558
calc peak height	90,93
Baseline Time (s)	9.036
Baseline Value 	2.9476E-4
subtract baseline	10,2
PK_880	0.311654
Peak Time (s)	92.535
Peak Height 	0.3117
calc peak height	90,93
Baseline Time (s)	10.537
Baseline Value 	0.001824
subtract baseline	10,1


Time (s)	A880-A510	A880-A775	A880-A975	A880	I510	I775	I975	I880	
0.036500	-0.003031	0.000102	-0.001509	0.004585	7010.416983	45252.843265	3970.023405	24035.076817
0.537000	-0.004170	-0.000349	-0.011864	0.004490	7000.517407	45218.134019	3943.946248	24039.702885
1.042500	-0.001994	0.000091	-0.003279	0.003817	7027.583999	45326.590969	3967.448019	24072.504338
1.537000	-0.003863	-0.000835	-0.003450	0.004198	7006.198391	45199.288248	3966.032599	24053.922690
2.037000	-0.001266	-0.000138	-0.002522	0.000825	7063.199341	45597.118974	3977.110968	24218.968778
2.535000	0.000668	0.000288	-0.002245	0.000956	7080.568931	45626.164361	3977.489258	24212.543406
3.035500	0.001404	-0.000237	-0.002391	-0.001757	7113.991081	45841.726512	3984.152691	24346.162128
3.535500	-0.004293	0.000345	-0.006504	0.004254	7001.584382	45308.777004	3958.090407	24051.181925
4.036000	-0.001401	-0.000992	-0.000207	-0.000717	7076.749806	45664.847098	3987.139435	24294.859735
4.536000	-0.000719	0.000252	0.001949	0.000080	7075.631693	45708.774342	3990.691634	24255.585144
5.036500	-0.003335	0.000031	-0.004958	0.002570	7026.689459	45442.630151	3966.341087	24133.412704
5.539500	0.001298	-0.000395	-0.001416	-0.000279	7098.600348	45680.402257	3982.845236	24273.262840
6.037000	0.000849	0.000324	-0.001630	-0.000153	7093.032609	45738.724478	3981.958900	24267.034374
6.537000	-0.002730	-0.000898	-0.005166	-0.001348	7070.008813	45736.134103	3975.890288	24325.942200
7.035000	-0.000720	-0.000581	-0.005397	0.002285	7054.419805	45410.682778	3965.947012	24147.375380
7.535000	-0.000276	-0.000109	0.004178	-0.000294	7083.515800	45710.072075	3997.529821	24274.010191
8.035500	-0.002051	0.000113	-0.000574	0.000022	7063.364562	45700.706877	3984.251275	24258.431735
8.536000	0.000343	-0.000128	0.001895	-0.000390	7090.435108	45717.664140	3991.781352	24278.740611
9.035500	-0.002533	0.000000	-0.001440	0.002726	7032.853262	45424.385135	3974.993881	24125.814666
9.536500	0.001404	0.000722	0.000096	0.000000	7096.930787	45762.892559	3986.057085	24259.523481
10.039500	0.000582	-0.000074	0.001831	-0.000086	7089.798825	45692.999583	3990.816950	24263.766896
10.537000	0.000000	0.000593	0.000000	-0.000177	7085.054774	45767.649728	3986.268281	24268.243313
11.037000	-0.002595	-0.000564	-0.003199	0.002945	7030.176213	45347.886141	3969.894181	24115.103230
11.534500	-0.000523	0.000446	-0.000894	0.000014	7078.161455	45734.301515	3983.440661	24258.828977
12.035000	0.001421	0.000382	-0.002733	-0.000271	7099.719104	45756.056359	3979.402431	24272.843664
12.535000	0.000202	0.000840	-0.002673	0.000431	7081.132879	45732.104106	3977.739529	24238.323767
13.035500	0.000844	0.001328	-0.000691	0.003401	7058.721354	45488.327452	3975.184644	24092.830208
13.535500	-0.000233	-0.000031	-0.006870	-0.000642	7087.295398	45751.977582	3969.679302	24291.145592
14.035500	0.002297	0.000339	-0.001928	0.000215	7103.505125	45704.006754	3980.230396	24248.937479
14.538500	-0.001361	0.001191	-0.003540	0.003701	7034.728066	45445.464058	3967.075065	24078.143522
15.037000	-0.000359	0.000528	-0.005497	0.000282	7077.162465	45716.117180	3970.835516	24245.668733
15.555000	-0.000130	0.000173	-0.003149	-0.000103	7083.087626	45719.042330	3977.890167	24264.607861
16.037000	-0.000172	-0.000465	-0.008360	-0.000612	7087.602916	45706.314431	3965.778800	24289.686048
16.534500	-0.000250	-0.000065	-0.001896	-0.000580	7086.525861	45742.501513	3982.378210	24288.074478
17.035000	-0.002246	0.000065	-0.001086	0.003102	7031.998051	45393.939786	3974.934752	24107.407881
17.535500	-0.000158	0.000310	-0.000555	-0.000350	7085.196774	45756.804441	3985.270209	24276.740552
18.035500	-0.000769	0.000474	0.000980	0.000521	7070.902958	45687.168382	3987.005099	24233.904534
18.536000	-0.000965	-0.000481	-0.004283	0.000415	7070.034703	45603.683774	3973.619637	24239.101232
19.039000	-0.002767	0.000051	-0.004262	0.001852	7038.966224	45514.919757	3969.973296	24168.589682
19.536500	-0.001714	0.000564	-0.001461	0.001160	7055.669937	45633.196028	3978.990488	24202.506313
20.037000	-0.000145	0.000963	0.000074	0.001510	7067.387399	45638.010418	3982.065435	24185.319655
20.537000	0.000027	-0.000375	-0.003532	0.000219	7081.487682	45633.392666	3976.065197	24248.762829
21.037500	0.000395	0.001262	-0.002822	0.002866	7059.545833	45534.187461	3971.066318	24118.943921
21.535000	-0.000635	-0.000070	-0.000585	0.000856	7068.966344	45600.789826	3982.055968	24217.454220
22.035000	0.000843	0.000090	-0.002283	0.001029	7081.555766	45599.500608	3977.200979	24208.965527
22.535500	0.000474	-0.000264	-0.004347	0.000783	7080.356030	45588.863825	3972.504667	24221.022263
23.036000	-0.001394	-0.000342	-0.004002	0.001736	7053.218537	45487.759345	3970.939573	24174.265267
23.539000	0.000281	-0.000068	-0.002631	0.001241	7074.074882	45563.154900	3975.751666	24198.524212
24.036500	-0.002831	-0.000039	-0.002784	0.000708	7049.291602	45618.261710	3976.733952	24224.686684
24.537000	-0.000344	0.000137	-0.006920	0.001440	7066.144282	45563.758163	3964.209730	24188.775409
25.037000	-0.003160	-0.001427	-0.008129	0.001571	7037.891541	45397.760090	3960.787959	24182.361738
25.537000	-0.000682	0.000308	0.000484	0.001140	7065.788442	45610.064185	3984.097401	24203.515671
26.035000	-0.001807	0.000346	0.000100	0.001759	7049.041546	45552.915568	3981.487518	24173.127466
26.535000	-0.000535	0.000479	-0.004041	0.001433	7064.379017	45598.071075	3971.619156	24189.137883
27.035500	-0.000613	0.001242	-0.005898	0.001680	7061.247361	45648.718045	3966.213361	24177.002121
27.535500	-0.001759	0.000082	-0.004076	0.001058	7056.220644	45595.903017	3972.495199	24207.537060
28.038500	0.000938	0.000612	-0.002090	-0.001900	7110.852804	45939.859864	3985.311608	24353.246658
28.536500	-0.000885	0.000441	0.000649	-0.000670	7081.271865	45801.354194	3989.251496	24292.541484
29.037000	-0.001049	0.000366	-0.005810	0.003830	7036.481769	45352.279917	3960.940560	24071.889852
29.537000	-0.001364	0.000763	-0.007059	0.005065	7021.703998	45270.458082	3954.621987	24011.721106
30.037000	-0.000579	-0.000120	0.000665	-0.000809	7085.563879	45759.679822	3989.656760	24299.368915
30.537500	0.001788	0.000069	-0.001621	-0.000560	7106.077724	45753.729566	3983.042231	24287.084526
31.037500	-0.004151	0.000204	-0.002167	0.003276	7012.216686	45390.579154	3971.698942	24098.924694
31.538000	-0.003637	-0.000820	-0.004688	0.004331	7007.083889	45187.834094	3962.527359	24047.462185
32.035500	-0.001400	0.000043	-0.007853	0.002017	7050.464312	45497.933051	3960.353174	24160.487108
32.547000	-0.000882	0.000506	0.002802	-0.000295	7077.680217	45770.698951	3993.913622	24274.053236
33.036500	-0.001706	-0.000366	-0.002886	0.002692	7041.080017	45391.946321	3971.353031	24127.472414
33.536000	-0.004543	0.000078	-0.005893	0.005263	6989.681738	45184.503363	3957.081146	24002.085165
34.036500	-0.000167	0.000196	0.002829	-0.000327	7084.890639	45743.327380	3994.068993	24275.642337
34.537000	-0.000375	0.000603	-0.002946	-0.000698	7086.465534	45820.054981	3979.958711	24293.901609
35.037000	-0.003353	0.000425	-0.004370	0.003253	7020.016304	45414.421068	3966.099165	24100.058645
35.537500	-0.002456	0.000235	-0.002078	0.002575	7035.024566	45462.050182	3973.734659	24133.156057
36.035000	-0.002210	0.000358	-0.003213	0.001567	7047.015602	45572.922274	3973.406858	24182.529048
36.535500	-0.001730	-0.000283	0.002220	0.001342	7053.776655	45532.218533	3988.100463	24193.605516
37.038000	-0.002699	0.000019	-0.004048	0.002275	7035.566676	45470.308517	3969.433627	24147.839465
37.536000	-0.002655	0.000354	0.001132	0.003045	7028.646923	45427.772299	3980.828299	24110.217414
38.036500	-0.001134	0.000048	-0.003376	0.001880	7054.336156	45511.916751	3972.180841	24167.226883
38.539500	-0.001141	-0.000018	0.003523	0.001887	7054.202012	45504.796057	3990.081406	24166.886368
39.037000	-0.001157	0.000362	0.001380	0.001490	7057.849245	45580.852299	3985.517622	24186.304856
39.537000	0.000120	-0.000304	-0.001651	0.001539	7069.657914	45510.811097	3977.516008	24183.903791
40.037500	-0.000721	0.000118	0.001722	0.002075	7056.429493	45499.645374	3984.886738	24157.668280
40.534500	0.000037	0.000541	0.003389	0.001972	7064.694687	45551.200590	3989.509875	24162.718848
41.035000	-0.001114	0.000090	-0.003441	0.003053	7043.283831	45401.214253	3968.995743	24109.825191
41.538000	0.000012	0.000285	-0.000302	0.002260	7061.689418	45497.898938	3979.143449	24148.613440
42.036000	-0.001299	0.000449	-0.001496	0.001958	7052.006696	45543.604826	3976.834326	24163.405105
42.536000	-0.000280	-0.000582	0.002832	0.001018	7070.820496	45534.595039	3990.547228	24209.478134
43.036500	0.000151	0.000338	-0.003002	0.002500	7060.719777	45479.530398	3971.546875	24136.861179
43.536500	-0.000937	0.000354	-0.001656	0.001565	7059.237376	45572.709027	3977.434484	24182.626176
44.034000	-0.001122	0.000623	-0.005877	0.002258	7050.825933	45531.213862	3964.787716	24148.707322
44.537500	-0.001656	0.000159	-0.004894	0.001743	7050.644900	45536.201709	3968.627902	24173.938201
45.037500	-0.001594	0.000505	-0.006286	0.001757	7051.099161	45568.750551	3965.021015	24173.236570
45.535000	-0.001216	0.000606	0.000802	0.000198	7069.708361	45732.019492	3987.384593	24249.805573
46.038500	0.001034	-0.000014	0.001232	-0.000204	7095.315279	45710.560366	3989.556455	24269.563974
46.535500	0.001440	0.000416	0.002001	0.000005	7097.229165	45732.286462	3991.024549	24259.277061
47.036000	-0.001817	0.000483	-0.003041	0.003751	7029.901354	45371.366071	3968.229317	24075.713366
47.536500	-0.000599	0.000835	-0.002562	0.002883	7049.848337	45490.797104	3971.695482	24118.140259
48.036500	0.000360	0.000700	-0.002644	0.000451	7082.461275	45716.346998	3977.762441	24237.338116
48.538000	-0.000814	-0.000115	-0.001296	-0.000225	7077.659712	45702.654565	3983.016909	24270.602149
49.037000	-0.002974	-0.000148	0.001933	0.003603	7020.294276	45324.259507	3981.459494	24082.962020
49.540000	-0.000301	0.000911	-0.002236	0.005960	7023.306956	45197.774907	3964.631295	23968.248431
50.066000	-0.000096	-0.000148	-0.003445	-0.000258	7084.900471	45702.561383	3977.524271	24272.201805
50.541000	0.000038	0.000429	-0.001987	0.000000	7083.709876	45733.978899	3980.635126	24259.501554
51.035500	-0.000626	-0.000273	-0.001909	0.003357	7045.039412	45335.973672	3972.153954	24094.935551
51.536000	0.001068	0.000897	0.004396	0.001355	7080.570463	45646.769423	3993.766134	24192.958150
52.036000	0.000166	0.000636	-0.001325	-0.000529	7090.059998	45806.680001	3983.730971	24285.571320
52.536500	0.002101	0.000901	-0.001098	0.000728	7096.634682	45708.858205	3981.055125	24223.751929
53.036500	-0.007846	-0.002661	0.000487	0.002124	6988.133475	45223.409014	3981.544237	24155.261495
53.537000	-0.038981	-0.009118	-0.017901	0.255141	5019.467340	26207.019893	3457.154613	14764.364820
54.037000	-0.041116	-0.012067	-0.014292	0.062606	6192.111285	38939.059687	3801.996770	21390.359864
54.534500	-0.043584	-0.021614	-0.013893	-0.098503	7648.822603	53971.124562	4229.444778	29700.744265
55.039500	-0.001401	-0.040300	0.030204	-0.190452	9371.448827	63347.452730	4735.763145	36023.391278
55.535000	0.030835	-0.001257	0.054622	-0.096213	8508.910509	56138.556673	4456.168371	29559.723248
56.035500	0.052312	0.016478	0.073272	-0.044646	8132.667667	52152.044373	4339.155464	26573.486097
56.536000	0.080592	0.035226	0.091973	0.005166	7879.000573	48755.313312	4236.423171	24006.801509
57.036000	0.109690	0.049903	0.117681	0.056661	7628.157518	45031.791354	4156.677904	21645.407671
57.536500	0.126996	0.066240	0.129462	0.140165	6958.050645	39001.149842	3958.232403	18364.230292
58.037000	0.151055	0.078909	0.152993	0.186937	6750.676059	36278.152119	3900.648023	16784.056653
58.538000	0.171216	0.092546	0.172149	0.198598	6827.016366	36430.133368	3918.882311	16415.872986
59.037000	0.195476	0.105926	0.196796	0.183665	7199.004943	38685.941127	4020.578698	16889.157435
59.537500	0.211940	0.118531	0.217126	0.265747	6594.512296	33402.151484	3865.836840	14477.839772
60.035000	0.222079	0.125582	0.229407	0.309613	6317.576687	30926.693771	3794.797111	13364.306279
60.535500	0.233821	0.131699	0.243119	0.340990	6165.987851	29345.606625	3757.260799	12634.063783
61.035500	0.242490	0.136082	0.249748	0.355799	6119.977712	28719.393178	3740.391288	12307.323159
61.535500	0.254821	0.141337	0.260448	0.366284	6133.747206	28410.843891	3740.830359	12082.614913
62.036000	0.265055	0.147743	0.271939	0.380560	6103.680977	27953.553155	3735.157096	11785.267907
62.536500	0.273241	0.154237	0.273432	0.393386	6069.516860	27591.602752	3712.437692	11526.337953
63.036500	0.273119	0.153830	0.281909	0.399788	6022.083215	27208.209629	3716.552919	11399.919875
63.537000	0.280398	0.160169	0.284409	0.418902	5937.837209	26504.906121	3684.145002	11033.388357
64.058500	0.288488	0.159540	0.291579	0.425831	5945.996718	26098.397048	3684.605127	10904.446034
64.535000	0.293337	0.163929	0.289655	0.416432	6047.978234	26845.298959	3699.042367	11079.856520
65.035000	0.295932	0.164122	0.292518	0.421204	6032.178251	26594.671622	3695.332025	10990.334858
65.552000	0.294926	0.165284	0.293732	0.428883	5969.926961	26242.370122	3682.885712	10848.304361
66.035500	0.297936	0.164754	0.295192	0.433140	5961.096485	25987.009163	3677.560236	10770.659071
66.536000	0.296874	0.164856	0.291288	0.437636	5922.023787	25755.036268	3661.767446	10689.468629
67.036500	0.299291	0.165136	0.295078	0.441655	5910.851696	25559.537129	3661.340166	10617.601407
67.536000	0.296602	0.165268	0.297707	0.443588	5878.855672	25465.908385	3662.636879	10583.266294
68.036500	0.299921	0.165569	0.292204	0.447044	5877.909796	25302.946406	3646.108545	10522.271386
68.540000	0.296856	0.164477	0.293535	0.447678	5852.552934	25214.215348	3647.380831	10511.126454
69.037500	0.295690	0.164691	0.292657	0.454028	5801.702694	24901.826569	3634.272976	10400.476787
69.535000	0.298143	0.166483	0.297469	0.452747	5826.852090	25057.704696	3645.308604	10422.663658
70.035500	0.299530	0.166504	0.302770	0.451905	5841.974090	25101.687074	3656.592987	10437.285973
70.536000	0.298661	0.165809	0.294834	0.451235	5840.621979	25100.463207	3643.264021	10448.951539
71.035500	0.297890	0.165024	0.297799	0.456504	5799.851656	24793.758647	3639.082813	10357.764881
71.536500	0.298628	0.164654	0.297148	0.451820	5836.423841	25011.881803	3646.414777	10438.767681
72.036500	0.301912	0.165314	0.304129	0.452078	5857.037097	25032.294913	3658.791667	10434.284254
72.536500	0.301925	0.165366	0.300911	0.452608	5853.505183	25007.995306	3651.868806	10425.081869
73.039500	0.299940	0.165888	0.304486	0.457613	5806.159830	24781.399525	3649.242242	10338.707301
73.534500	0.305157	0.164280	0.307132	0.453729	5867.958539	24896.156337	3661.303277	10405.652039
74.034500	0.303487	0.164406	0.308773	0.452587	5864.332107	24960.298113	3666.497342	10425.434805
74.535000	0.303580	0.163893	0.308854	0.453323	5859.928726	24897.133706	3665.273736	10412.676438
75.035500	0.300943	0.163153	0.304468	0.458072	5809.820997	24621.430884	3648.367697	10330.838570
75.536000	0.305921	0.164150	0.300687	0.454317	5869.162376	24859.921281	3648.320893	10395.473596
76.036000	0.304008	0.162859	0.305330	0.453438	5862.073498	24839.125532	3658.497226	10410.694305
76.536500	0.306067	0.163150	0.310716	0.454513	5868.819086	24799.632054	3666.532200	10392.093707
77.036500	0.302590	0.161642	0.304422	0.458729	5816.484566	24513.466619	3647.082327	10319.586459
77.539500	0.303685	0.161608	0.303173	0.454978	5849.346770	24698.865516	3651.668954	10384.059262
78.037000	0.306705	0.163253	0.305849	0.456793	5857.568287	24690.332831	3653.253275	10352.784312
78.537500	0.304563	0.162239	0.310171	0.456081	5847.805622	24675.252449	3662.583086	10365.035701
79.035000	0.302219	0.159891	0.309640	0.454854	5840.209072	24619.199599	3663.881676	10386.193995
79.535000	0.305160	0.161307	0.312789	0.458411	5836.025313	24512.677447	3663.120655	10325.038453
80.035500	0.306563	0.160430	0.312261	0.458796	5842.942397	24450.045204	3661.419280	10318.437920
80.536000	0.302209	0.158686	0.305400	0.457953	5819.145755	24405.464909	3650.294847	10332.870699
81.036000	0.305275	0.160565	0.303241	0.460838	5820.370689	24355.812300	3641.089233	10283.573993
81.536000	0.305451	0.159917	0.310396	0.462171	5812.574382	24258.398557	3651.726052	10260.921472
82.039500	0.303051	0.158980	0.305640	0.462087	5797.022132	24216.574807	3643.179346	10262.346516
82.540000	0.307587	0.159108	0.305264	0.463979	5814.782495	24130.330047	3639.063878	10230.278490
83.037000	0.304123	0.157016	0.314870	0.463701	5793.391254	24042.038885	3657.156858	10234.980605
83.535000	0.305100	0.157670	0.313110	0.465907	5785.186239	23966.829953	3649.848116	10197.760699
84.034500	0.305732	0.157516	0.312725	0.466878	5782.922097	23912.377804	3647.362275	10181.421505
84.535500	0.304782	0.157283	0.306335	0.468454	5766.130881	23825.223717	3632.926980	10155.002561
85.035500	0.306790	0.158501	0.313323	0.470588	5765.301165	23781.279462	3641.692696	10119.382494
85.536000	0.306390	0.158594	0.308618	0.473049	5746.410733	23667.965385	3628.787395	10078.517932
86.036000	0.307219	0.158793	0.317605	0.473854	5746.571063	23639.047459	3643.540130	10065.201568
86.539500	0.307739	0.156413	0.316070	0.473749	5750.686639	23530.962124	3640.941453	10066.937793
87.037000	0.305706	0.154482	0.313097	0.474418	5732.932157	23408.078868	3634.361111	10055.883825
87.540000	0.307484	0.156350	0.313238	0.478140	5720.221981	23320.874372	3627.946589	9994.706263
88.034500	0.310301	0.157067	0.315646	0.479295	5731.088925	23300.394355	3630.186289	9975.841319
88.535000	0.308455	0.154100	0.307473	0.478531	5724.006322	23197.382799	3617.041098	9988.312205
89.035500	0.305292	0.154502	0.309129	0.486500	5652.252502	22847.587940	3606.017640	9859.213220
89.536000	0.308055	0.155762	0.317311	0.484037	5685.705730	23018.878020	3624.697559	9898.850972
90.036000	0.309889	0.155055	0.313406	0.484276	5696.004823	22975.228127	3617.371981	9895.004744
90.536500	0.310466	0.155500	0.322242	0.487572	5678.481127	22844.190485	3627.183021	9842.017748
91.039000	0.306841	0.154669	0.313984	0.493338	5618.794729	22544.192889	3602.586041	9750.290032
91.540000	0.304474	0.153407	0.311228	0.489306	5629.278956	22669.607816	3604.792382	9814.306632
92.036500	0.307954	0.153348	0.312708	0.490349	5644.709858	22619.650389	3605.549874	9797.697463
92.534500	0.311654	0.155802	0.319487	0.494157	5644.019276	22558.342155	3610.713126	9737.358612
93.035000	0.305874	0.152880	0.314642	0.498149	5582.707389	22248.617322	3595.454910	9674.693293
93.535500	0.307119	0.152192	0.314520	0.494363	5614.099098	22386.770018	3601.743135	9734.113123
94.035500	0.309807	0.151947	0.309665	0.495801	5621.958846	22311.632149	3590.974596	9711.489212
94.535500	0.312452	0.152363	0.318804	0.498280	5623.002748	22219.790235	3602.375293	9672.636532
95.036000	0.309492	0.153077	0.311849	0.504265	5567.251585	21987.270822	3580.379848	9579.767616
95.609500	0.310716	0.152213	0.319980	0.500691	5597.013161	22106.492565	3600.246707	9635.069495
96.036000	0.310531	0.151435	0.311183	0.501982	5587.823486	22015.416038	3583.092669	9615.046839
96.539500	0.312488	0.151773	0.317573	0.504272	5585.751937	21929.907971	3590.016357	9579.660529
97.037500	0.310052	0.151144	0.317592	0.509669	5537.539170	21668.334931	3580.948161	9497.019510
97.534000	0.310856	0.151384	0.310822	0.506880	5559.550042	21799.345729	3574.306968	9539.594878
98.035000	0.311577	0.149844	0.314957	0.507047	5562.957496	21725.402467	3580.927573	9537.046117
98.535000	0.310456	0.150527	0.319399	0.508742	5545.672147	21681.660161	3585.544994	9511.136077
99.035500	0.311260	0.149270	0.316763	0.514145	5517.678059	21396.517341	3572.110387	9429.240124
