sample name	sample
index	1000
start time	 04-14-2021  04:40:16 PM


Wavelength (nm)	Absorbance
494.344910	-0.162337
494.563924	-0.162337
494.782919	-0.162337
495.001897	-0.233901
495.220856	-0.262546
495.439797	-0.218375
495.658719	-0.195763
495.877624	-0.244297
496.096510	-0.252875
496.315378	-0.168285
496.534227	-0.178908
496.753059	-0.136216
496.971872	0.024234
497.190667	0.060840
497.409444	0.066450
497.628203	0.060690
497.846943	0.065754
498.065665	0.065802
498.284369	0.063980
498.503055	0.063410
498.721723	0.063540
498.940372	0.062844
499.159003	0.063082
499.377616	0.062107
499.596210	0.063337
499.814787	0.062152
500.033345	0.061547
500.251885	0.061816
500.470406	0.062351
500.688910	0.063438
500.907395	0.064854
501.125862	0.065576
501.344311	0.064917
501.562742	0.064901
501.781154	0.065894
501.999548	0.066477
502.217924	0.066837
502.436282	0.067225
502.654621	0.066401
502.872942	0.065587
503.091245	0.065049
503.309530	0.065918
503.527797	0.066386
503.746045	0.065423
503.964275	0.065583
504.182487	0.065424
504.400681	0.064485
504.618856	0.065027
504.837013	0.064907
505.055152	0.064734
505.273273	0.065187
505.491376	0.064516
505.709460	0.064890
505.927526	0.064194
506.145574	0.064345
506.363604	0.064109
506.581615	0.063624
506.799608	0.064059
507.017583	0.063751
507.235540	0.063569
507.453478	0.063381
507.671399	0.063198
507.889301	0.063617
508.107185	0.063558
508.325050	0.063769
508.542898	0.064109
508.760727	0.062821
508.978538	0.062593
509.196330	0.062508
509.414105	0.063042
509.631861	0.063884
509.849599	0.063886
510.067319	0.063973
510.285021	0.064097
510.502704	0.063791
510.720369	0.064209
510.938016	0.064835
511.155645	0.065059
511.373255	0.065487
511.590848	0.064916
511.808422	0.064602
512.025977	0.064772
512.243515	0.065033
512.461034	0.065154
512.678536	0.065993
512.896018	0.066566
513.113483	0.066521
513.330930	0.067145
513.548358	0.066764
513.765768	0.067658
513.983160	0.067825
514.200533	0.068847
514.417889	0.069599
514.635226	0.068277
514.852545	0.068172
515.069845	0.068054
515.287128	0.067781
515.504392	0.068427
515.721638	0.068264
515.938866	0.068239
516.156075	0.066921
516.373267	0.066447
516.590440	0.067521
516.807594	0.067635
517.024731	0.067614
517.241850	0.067699
517.458950	0.067732
517.676032	0.068098
517.893095	0.068555
518.110141	0.068828
518.327168	0.069215
518.544177	0.069101
518.761168	0.068972
518.978141	0.068941
519.195095	0.068360
519.412031	0.068048
519.628949	0.067588
519.845849	0.067292
520.062731	0.067653
520.279594	0.067222
520.496439	0.067629
520.713266	0.067960
520.930074	0.068174
521.146865	0.068640
521.363637	0.069758
521.580391	0.070410
521.797127	0.070173
522.013844	0.069902
522.230543	0.070403
522.447224	0.069795
522.663887	0.069474
522.880532	0.069435
523.097158	0.069089
523.313766	0.069192
523.530356	0.069078
523.746928	0.069423
523.963481	0.069632
524.180017	0.069302
524.396534	0.069818
524.613032	0.070132
524.829513	0.070209
525.045975	0.070465
525.262420	0.070338
525.478845	0.070626
525.695253	0.070192
525.911643	0.071004
526.128014	0.071579
526.344367	0.072028
526.560702	0.072861
526.777018	0.073637
526.993316	0.073766
527.209597	0.074088
527.425858	0.074343
527.642102	0.074664
527.858328	0.074446
528.074535	0.074405
528.290724	0.074179
528.506894	0.073448
528.723047	0.073384
528.939181	0.073037
529.155297	0.072501
529.371395	0.072399
529.587475	0.073530
529.803536	0.074114
530.019579	0.074737
530.235604	0.075921
530.451611	0.077036
530.667600	0.076817
530.883570	0.077854
531.099522	0.078244
531.315456	0.078238
531.531372	0.078136
531.747269	0.077668
531.963148	0.077789
532.179009	0.077346
532.394852	0.076515
532.610676	0.076946
532.826482	0.076994
533.042271	0.077183
533.258040	0.077259
533.473792	0.077144
533.689525	0.077972
533.905240	0.077837
534.120937	0.077813
534.336616	0.077855
534.552277	0.077963
534.767919	0.078010
534.983543	0.078054
535.199149	0.078065
535.414736	0.078200
535.630306	0.078145
535.845857	0.078225
536.061390	0.078313
536.276904	0.078508
536.492401	0.079028
536.707879	0.079238
536.923339	0.079523
537.138781	0.079537
537.354204	0.080064
537.569610	0.080222
537.784997	0.080580
538.000366	0.081201
538.215716	0.081974
538.431049	0.081769
538.646363	0.081995
538.861659	0.082194
539.076937	0.083190
539.292196	0.082901
539.507438	0.082557
539.722661	0.082944
539.937866	0.082736
540.153052	0.082793
540.368221	0.083299
540.583371	0.083598
540.798503	0.083682
541.013617	0.083452
541.228712	0.083943
541.443789	0.084561
541.658848	0.084581
541.873889	0.084364
542.088912	0.084231
542.303916	0.084270
542.518902	0.084495
542.733870	0.084778
542.948820	0.085040
543.163752	0.085202
543.378665	0.084927
543.593560	0.085213
543.808437	0.085373
544.023295	0.085570
544.238136	0.085614
544.452958	0.085860
544.667762	0.085766
544.882548	0.085653
545.097315	0.085298
545.312064	0.085666
545.526795	0.085753
545.741508	0.086279
545.956203	0.086734
546.170879	0.086720
546.385537	0.086392
546.600177	0.086625
546.814799	0.086826
547.029402	0.087196
547.243988	0.087321
547.458555	0.087226
547.673103	0.087605
547.887634	0.087314
548.102146	0.087804
548.316640	0.087837
548.531116	0.087720
548.745574	0.088167
548.960013	0.088188
549.174435	0.088331
549.388838	0.088990
549.603222	0.088695
549.817589	0.088439
550.031937	0.088442
550.246267	0.088593
550.460579	0.089116
550.674873	0.089330
550.889148	0.089443
551.103405	0.089770
551.317644	0.089195
551.531865	0.089152
551.746068	0.089687
551.960252	0.089221
552.174418	0.089393
552.388566	0.089401
552.602696	0.088990
552.816807	0.089190
553.030900	0.088998
553.244975	0.089381
553.459032	0.089773
553.673070	0.089980
553.887091	0.090504
554.101093	0.090507
554.315077	0.090174
554.529042	0.090671
554.742990	0.091038
554.956919	0.091502
555.170830	0.091405
555.384722	0.091767
555.598597	0.091956
555.812453	0.092270
556.026291	0.092564
556.240111	0.092995
556.453913	0.093195
556.667696	0.092845
556.881461	0.092539
557.095208	0.092497
557.308937	0.092100
557.522647	0.091986
557.736339	0.092096
557.950013	0.091868
558.163669	0.091800
558.377307	0.091341
558.590926	0.091403
558.804527	0.091462
559.018110	0.091722
559.231675	0.092184
559.445221	0.092454
559.658749	0.092526
559.872259	0.093137
560.085751	0.093673
560.299225	0.093826
560.512680	0.093993
560.726117	0.094261
560.939536	0.094146
561.152937	0.094322
561.366319	0.094299
561.579683	0.094473
561.793029	0.094431
562.006357	0.094837
562.219667	0.095204
562.432958	0.095587
562.646231	0.095586
562.859486	0.096269
563.072723	0.096156
563.285941	0.096153
563.499141	0.096011
563.712323	0.095781
563.925487	0.095120
564.138632	0.095251
564.351760	0.095325
564.564869	0.095291
564.777960	0.095079
564.991032	0.095266
565.204087	0.095629
565.417123	0.095549
565.630141	0.096056
565.843140	0.096450
566.056122	0.096362
566.269085	0.096326
566.482030	0.096391
566.694957	0.096268
566.907866	0.096333
567.120756	0.096353
567.333628	0.096524
567.546482	0.096577
567.759318	0.096611
567.972135	0.096625
568.184935	0.096594
568.397716	0.096806
568.610478	0.097058
568.823223	0.097109
569.035949	0.097080
569.248657	0.097364
569.461347	0.097495
569.674019	0.097595
569.886672	0.097464
570.099308	0.097459
570.311925	0.097473
570.524523	0.097512
570.737104	0.097498
570.949666	0.097783
571.162210	0.097840
571.374736	0.097951
571.587244	0.098099
571.799733	0.098310
572.012205	0.098547
572.224658	0.098799
572.437092	0.098787
572.649509	0.098596
572.861907	0.098459
573.074287	0.098220
573.286649	0.098041
573.498993	0.097722
573.711318	0.098003
573.923625	0.098002
574.135914	0.098170
574.348185	0.098529
574.560438	0.099097
574.772672	0.099062
574.984888	0.099422
575.197086	0.099703
575.409266	0.099740
575.621427	0.099750
575.833570	0.100099
576.045695	0.099900
576.257802	0.099689
576.469890	0.099676
576.681961	0.099932
576.894013	0.100003
577.106046	0.099732
577.318062	0.099996
577.530059	0.100079
577.742039	0.099921
577.954000	0.100622
578.165942	0.100920
578.377867	0.100832
578.589773	0.100877
578.801661	0.100820
579.013531	0.101065
579.225382	0.100996
579.437216	0.101284
579.649031	0.101690
579.860828	0.101447
580.072606	0.101122
580.284367	0.101032
580.496109	0.101197
580.707833	0.101168
580.919539	0.101321
581.131227	0.101638
581.342896	0.101588
581.554547	0.101684
581.766180	0.101614
581.977795	0.102268
582.189391	0.102315
582.400969	0.102288
582.612529	0.102373
582.824071	0.102611
583.035595	0.102719
583.247100	0.102759
583.458587	0.102626
583.670056	0.102702
583.881506	0.102615
584.092939	0.102717
584.304353	0.102746
584.515749	0.103150
584.727127	0.102977
584.938486	0.103042
585.149828	0.103357
585.361151	0.103447
585.572456	0.103588
585.783742	0.103906
585.995011	0.104339
586.206261	0.104728
586.417493	0.104592
586.628706	0.104823
586.839902	0.105028
587.051079	0.105296
587.262238	0.105516
587.473379	0.105426
587.684502	0.105734
587.895606	0.106066
588.106692	0.106324
588.317760	0.106551
588.528810	0.106582
588.739841	0.106639
588.950855	0.106366
589.161850	0.106428
589.372827	0.106728
589.583785	0.106902
589.794726	0.106697
590.005648	0.106385
590.216552	0.106609
590.427437	0.106734
590.638305	0.106837
590.849154	0.106981
591.059985	0.107451
591.270798	0.107738
591.481592	0.107317
591.692369	0.107480
591.903127	0.107670
592.113867	0.107603
592.324588	0.107760
592.535292	0.107421
592.745977	0.107564
592.956644	0.107074
593.167293	0.107123
593.377923	0.106885
593.588536	0.106864
593.799130	0.107023
594.009706	0.106902
594.220263	0.106956
594.430803	0.107449
594.641324	0.107388
594.851827	0.107568
595.062312	0.107570
595.272778	0.107823
595.483227	0.107590
595.693657	0.107549
595.904069	0.107718
596.114462	0.107817
596.324838	0.107983
596.535195	0.108027
596.745534	0.108110
596.955855	0.108133
597.166157	0.108188
597.376441	0.108668
597.586707	0.108772
597.796955	0.109013
598.007185	0.109050
598.217396	0.109173
598.427589	0.109321
598.637764	0.109213
598.847921	0.109369
599.058060	0.109858
599.268180	0.109770
599.478282	0.109866
599.688366	0.110149
599.898431	0.110438
600.108479	0.110534
600.318508	0.110707
600.528519	0.110968
600.738511	0.111000
600.948486	0.110920
601.158442	0.111036
601.368380	0.111145
601.578300	0.110889
601.788202	0.110635
601.998085	0.110759
602.207950	0.111033
602.417797	0.110962
602.627626	0.111039
602.837436	0.110978
603.047228	0.111248
603.257002	0.111430
603.466758	0.111515
603.676496	0.111765
603.886215	0.111724
604.095916	0.111631
604.305599	0.112232
604.515264	0.112302
604.724910	0.112502
604.934538	0.112689
605.144148	0.112991
605.353740	0.113309
605.563314	0.113301
605.772869	0.113513
605.982406	0.113481
606.191925	0.113510
606.401425	0.113678
606.610908	0.113867
606.820372	0.113782
607.029818	0.113820
607.239246	0.113965
607.448655	0.114283
607.658047	0.114537
607.867420	0.114833
608.076775	0.114535
608.286111	0.114903
608.495430	0.114926
608.704730	0.115231
608.914012	0.115193
609.123275	0.115082
609.332521	0.115206
609.541748	0.115122
609.750957	0.115179
609.960148	0.115534
610.169321	0.115309
610.378475	0.115360
610.587611	0.115367
610.796729	0.115433
611.005829	0.115464
611.214910	0.115325
611.423974	0.115545
611.633019	0.115674
611.842045	0.115792
612.051054	0.115882
612.260044	0.116136
612.469017	0.116080
612.677970	0.115962
612.886906	0.116057
613.095824	0.116305
613.304723	0.115735
613.513604	0.115635
613.722467	0.115857
613.931311	0.116143
614.140138	0.115977
614.348946	0.115816
614.557736	0.116149
614.766507	0.116517
614.975261	0.116455
615.183996	0.116979
615.392713	0.117065
615.601412	0.117031
615.810092	0.116868
616.018754	0.117375
616.227399	0.117533
616.436024	0.117474
616.644632	0.117326
616.853222	0.117468
617.061793	0.117634
617.270346	0.117997
617.478880	0.117967
617.687397	0.118062
617.895895	0.117891
618.104375	0.118076
618.312837	0.118107
618.521281	0.118248
618.729706	0.118265
618.938113	0.118359
619.146502	0.118567
619.354873	0.118509
619.563226	0.118806
619.771560	0.118749
619.979876	0.118935
620.188174	0.119162
620.396453	0.119340
620.604715	0.119490
620.812958	0.119420
621.021183	0.119175
621.229390	0.119330
621.437578	0.119180
621.645748	0.119439
621.853900	0.119481
622.062034	0.119407
622.270150	0.119423
622.478247	0.119372
622.686326	0.119496
622.894387	0.119592
623.102430	0.119761
623.310454	0.119733
623.518461	0.119699
623.726449	0.119720
623.934418	0.120264
624.142370	0.120234
624.350303	0.120402
624.558218	0.120682
624.766115	0.120716
624.973994	0.120884
625.181855	0.121140
625.389697	0.121408
625.597521	0.121675
625.805327	0.121424
626.013114	0.121600
626.220883	0.121775
626.428634	0.121636
626.636367	0.121562
626.844082	0.121442
627.051778	0.121623
627.259457	0.121574
627.467117	0.121566
627.674758	0.121516
627.882382	0.121359
628.089987	0.121631
628.297574	0.121615
628.505143	0.121961
628.712694	0.122050
628.920226	0.122087
629.127740	0.122207
629.335236	0.122436
629.542714	0.122519
629.750174	0.122739
629.957615	0.122752
630.165038	0.122827
630.372443	0.122895
630.579829	0.123048
630.787198	0.123038
630.994548	0.123089
631.201880	0.122898
631.409194	0.123220
631.616489	0.123372
631.823766	0.123079
632.031025	0.122850
632.238266	0.122823
632.445489	0.122850
632.652693	0.122901
632.859879	0.122785
633.067047	0.122807
633.274197	0.122615
633.481329	0.122636
633.688442	0.122768
633.895537	0.123528
634.102614	0.123481
634.309672	0.123567
634.516713	0.123529
634.723735	0.123495
634.930739	0.123484
635.137724	0.123617
635.344692	0.123750
635.551641	0.124179
635.758572	0.123841
635.965485	0.123800
636.172379	0.123886
636.379256	0.124147
636.586114	0.124607
636.792954	0.124881
636.999775	0.125066
637.206579	0.124979
637.413364	0.124843
637.620131	0.125060
637.826880	0.125513
638.033610	0.125719
638.240323	0.125729
638.447017	0.125586
638.653692	0.125767
638.860350	0.125647
639.066990	0.125867
639.273611	0.125928
639.480214	0.126069
639.686798	0.125988
639.893365	0.125991
640.099913	0.126172
640.306443	0.126389
640.512955	0.126445
640.719449	0.126350
640.925924	0.126428
641.132381	0.126436
641.338820	0.126465
641.545241	0.126483
641.751644	0.126721
641.958028	0.126610
642.164394	0.126672
642.370742	0.126727
642.577071	0.127136
642.783383	0.127200
642.989676	0.127421
643.195951	0.127386
643.402207	0.127661
643.608446	0.127447
643.814666	0.127912
644.020868	0.127844
644.227052	0.127756
644.433218	0.127815
644.639365	0.127814
644.845494	0.127669
645.051605	0.127933
645.257698	0.127827
645.463772	0.127984
645.669828	0.127677
645.875866	0.128079
646.081886	0.128203
646.287888	0.128306
646.493871	0.128523
646.699836	0.128660
646.905783	0.128588
647.111712	0.128786
647.317622	0.128702
647.523514	0.129035
647.729388	0.128882
647.935244	0.129083
648.141082	0.129247
648.346901	0.129384
648.552702	0.129670
648.758485	0.129766
648.964250	0.129890
649.169996	0.130217
649.375724	0.130401
649.581434	0.130397
649.787126	0.130453
649.992800	0.130453
650.198455	0.130416
650.404092	0.130548
650.609711	0.130509
650.815311	0.130457
651.020894	0.130375
651.226458	0.129877
651.432004	0.129890
651.637532	0.129989
651.843041	0.129978
652.048532	0.130050
652.254006	0.130015
652.459460	0.130428
652.664897	0.130499
652.870315	0.130675
653.075716	0.131181
653.281097	0.131467
653.486461	0.131445
653.691807	0.131580
653.897134	0.131691
654.102443	0.131686
654.307734	0.131559
654.513006	0.131999
654.718261	0.132251
654.923497	0.132187
655.128715	0.132322
655.333915	0.132607
655.539096	0.132773
655.744259	0.132954
655.949404	0.133120
656.154531	0.133237
656.359640	0.133119
656.564730	0.133062
656.769802	0.133130
656.974856	0.133231
657.179892	0.133108
657.384909	0.133192
657.589908	0.133290
657.794889	0.133383
657.999852	0.133473
658.204797	0.133452
658.409723	0.133445
658.614631	0.133689
658.819521	0.133600
659.024393	0.133700
659.229246	0.133792
659.434081	0.133684
659.638898	0.133713
659.843697	0.133845
660.048478	0.133926
660.253240	0.134160
660.457984	0.134293
660.662710	0.134719
660.867417	0.134985
661.072107	0.135106
661.276778	0.135533
661.481431	0.135595
661.686066	0.135780
661.890682	0.136108
662.095281	0.136215
662.299861	0.136343
662.504422	0.136214
662.708966	0.136396
662.913491	0.136577
663.117999	0.136562
663.322488	0.136808
663.526958	0.136904
663.731411	0.137097
663.935845	0.137149
664.140261	0.137179
664.344659	0.137224
664.549038	0.137296
664.753400	0.137088
664.957743	0.137019
665.162068	0.137088
665.366375	0.137153
665.570663	0.137104
665.774933	0.137248
665.979185	0.137257
666.183419	0.137556
666.387635	0.137671
666.591832	0.138159
666.796011	0.138294
667.000172	0.138547
667.204315	0.138501
667.408439	0.138833
667.612545	0.138698
667.816634	0.138734
668.020703	0.138843
668.224755	0.138899
668.428788	0.138967
668.632803	0.139261
668.836800	0.139358
669.040779	0.139593
669.244739	0.139459
669.448681	0.139776
669.652605	0.140076
669.856511	0.140102
670.060399	0.140044
670.264268	0.140015
670.468119	0.139974
670.671952	0.139893
670.875767	0.140123
671.079563	0.140210
671.283341	0.140403
671.487101	0.140477
671.690843	0.140641
671.894567	0.140871
672.098272	0.140982
672.301959	0.141294
672.505628	0.141488
672.709278	0.141458
672.912911	0.141592
673.116525	0.141773
673.320121	0.142025
673.523699	0.141968
673.727258	0.142142
673.930799	0.142310
674.134322	0.142270
674.337827	0.142350
674.541314	0.142497
674.744782	0.142613
674.948232	0.142465
675.151664	0.142368
675.355078	0.142569
675.558474	0.142799
675.761851	0.142835
675.965210	0.142988
676.168551	0.143106
676.371873	0.143225
676.575178	0.143477
676.778464	0.143860
676.981732	0.143983
677.184981	0.144148
677.388213	0.144236
677.591426	0.144264
677.794621	0.144060
677.997798	0.144170
678.200956	0.144275
678.404097	0.144305
678.607219	0.144232
678.810323	0.144297
679.013408	0.144423
679.216476	0.144509
679.419525	0.144684
679.622556	0.145148
679.825569	0.145228
680.028563	0.145249
680.231540	0.145073
680.434498	0.145300
680.637438	0.145511
680.840359	0.145599
681.043263	0.145569
681.246148	0.145781
681.449015	0.145749
681.651864	0.145955
681.854694	0.146155
682.057506	0.146399
682.260301	0.146409
682.463076	0.146505
682.665834	0.146351
682.868573	0.146555
683.071295	0.146494
683.273998	0.146510
683.476682	0.146453
683.679349	0.146458
683.881997	0.146559
684.084627	0.146545
684.287239	0.146584
684.489833	0.146788
684.692408	0.146800
684.894965	0.146810
685.097504	0.146875
685.300025	0.147070
685.502527	0.147117
685.705012	0.146937
685.907478	0.146779
686.109925	0.146758
686.312355	0.146647
686.514766	0.146810
686.717159	0.146944
686.919534	0.147160
687.121891	0.147141
687.324230	0.147303
687.526550	0.147700
687.728852	0.148023
687.931136	0.148423
688.133401	0.148577
688.335649	0.148462
688.537878	0.148513
688.740089	0.148657
688.942281	0.148868
689.144456	0.149063
689.346612	0.149050
689.548750	0.149399
689.750870	0.149394
689.952971	0.149707
690.155055	0.149927
690.357120	0.150075
690.559167	0.149980
690.761195	0.149966
690.963206	0.149813
691.165198	0.149824
691.367172	0.149828
691.569128	0.149837
691.771065	0.149804
691.972984	0.149778
692.174885	0.149984
692.376768	0.150332
692.578633	0.150408
692.780479	0.150580
692.982308	0.150876
693.184118	0.150855
693.385909	0.150907
693.587683	0.151048
693.789438	0.151022
693.991175	0.151103
694.192894	0.150969
694.394595	0.151048
694.596277	0.151077
694.797941	0.151215
694.999587	0.151244
695.201215	0.151328
695.402824	0.151430
695.604416	0.151812
695.805989	0.151965
696.007543	0.152090
696.209080	0.152277
696.410598	0.152379
696.612099	0.152295
696.813580	0.152250
697.015044	0.152356
697.216490	0.152225
697.417917	0.151961
697.619326	0.151790
697.820717	0.151718
698.022089	0.151658
698.223444	0.151681
698.424780	0.151720
698.626098	0.151846
698.827397	0.151984
699.028679	0.152131
699.229942	0.152291
699.431187	0.152200
699.632414	0.152433
699.833622	0.152560
700.034813	0.152742
700.235985	0.152965
700.437139	0.153052
700.638274	0.153044
700.839392	0.152909
701.040491	0.153330
701.241572	0.153718
701.442635	0.153800
701.643679	0.153878
701.844706	0.153897
702.045714	0.153849
702.246704	0.154127
702.447675	0.154219
702.648629	0.154634
702.849564	0.154228
703.050481	0.153938
703.251380	0.153895
703.452260	0.153854
703.653122	0.153741
703.853966	0.153680
704.054792	0.153760
704.255600	0.153765
704.456389	0.153594
704.657160	0.153681
704.857913	0.153789
705.058648	0.153691
705.259365	0.153649
705.460063	0.153650
705.660743	0.153726
705.861405	0.153427
706.062048	0.153230
706.262674	0.153270
706.463281	0.153311
706.663870	0.153469
706.864441	0.153463
707.064993	0.153701
707.265527	0.153725
707.466043	0.153645
707.666541	0.153948
707.867021	0.154190
708.067482	0.154283
708.267925	0.154412
708.468350	0.154591
708.668757	0.154816
708.869145	0.154742
709.069516	0.155012
709.269868	0.155245
709.470201	0.154900
709.670517	0.154865
709.870814	0.154912
710.071093	0.155016
710.271354	0.155117
710.471597	0.155071
710.671821	0.155210
710.872028	0.155128
711.072216	0.155111
711.272385	0.155140
711.472537	0.155241
711.672670	0.155203
711.872785	0.154908
712.072882	0.154633
712.272961	0.154567
712.473021	0.154307
712.673063	0.154221
712.873087	0.154246
713.073093	0.154406
713.273081	0.154113
713.473050	0.153972
713.673001	0.154152
713.872934	0.154060
714.072849	0.154182
714.272745	0.154047
714.472623	0.153946
714.672483	0.153609
714.872325	0.153475
715.072148	0.153593
715.271954	0.153504
715.471741	0.153348
715.671509	0.153252
715.871260	0.153180
716.070992	0.153276
716.270707	0.153435
716.470403	0.153427
716.670080	0.153446
716.869740	0.153450
717.069381	0.153439
717.269004	0.153474
717.468609	0.153653
717.668195	0.153472
717.867764	0.153384
718.067314	0.153342
718.266846	0.153352
718.466360	0.153259
718.665855	0.153320
718.865332	0.153473
719.064791	0.153365
719.264232	0.153190
719.463655	0.153488
719.663059	0.153501
719.862445	0.153488
720.061813	0.153602
720.261163	0.153684
720.460494	0.153434
720.659807	0.153202
720.859102	0.153166
721.058379	0.153294
721.257638	0.153025
721.456878	0.153052
721.656100	0.152794
721.855304	0.152952
722.054490	0.152867
722.253657	0.152878
722.452806	0.153073
722.651937	0.153090
722.851050	0.152941
723.050145	0.152838
723.249221	0.152800
723.448279	0.152932
723.647319	0.152751
723.846340	0.152825
724.045344	0.152692
724.244329	0.152713
724.443296	0.152979
724.642245	0.152985
724.841175	0.152998
725.040088	0.153067
725.238982	0.152983
725.437857	0.152929
725.636715	0.152794
725.835554	0.152893
726.034376	0.152805
726.233179	0.152328
726.431963	0.152287
726.630730	0.152131
726.829478	0.151816
727.028208	0.151655
727.226920	0.151491
727.425614	0.151688
727.624289	0.151594
727.822946	0.151372
728.021585	0.151308
728.220206	0.151346
728.418808	0.151251
728.617392	0.151381
728.815958	0.151427
729.014506	0.151389
729.213036	0.150912
729.411547	0.150879
729.610040	0.150830
729.808515	0.150839
730.006972	0.150767
730.205410	0.150834
730.403831	0.150642
730.602233	0.150470
730.800616	0.150464
730.998982	0.150672
731.197329	0.150488
731.395658	0.150380
731.593969	0.150438
731.792262	0.150394
731.990536	0.150428
732.188793	0.150381
732.387031	0.150312
732.585250	0.150139
732.783452	0.149853
732.981635	0.149619
733.179800	0.149454
733.377947	0.149239
733.576076	0.148951
733.774186	0.148643
733.972278	0.148517
734.170352	0.148281
734.368408	0.148098
734.566446	0.147958
734.764465	0.148006
734.962466	0.148098
735.160449	0.147922
735.358413	0.147717
735.556360	0.147666
735.754288	0.147689
735.952198	0.147820
736.150090	0.147816
736.347963	0.147773
736.545818	0.147642
736.743655	0.147396
736.941474	0.147466
737.139275	0.147437
737.337057	0.147163
737.534821	0.147004
737.732567	0.146651
737.930295	0.146484
738.128005	0.146371
738.325696	0.146267
738.523369	0.146330
738.721024	0.146112
738.918660	0.146154
739.116279	0.146340
739.313879	0.146060
739.511461	0.146253
739.709024	0.146505
739.906570	0.146274
740.104097	0.146437
740.301606	0.146393
740.499097	0.146447
740.696569	0.146292
740.894024	0.146254
741.091460	0.146338
741.288878	0.146214
741.486277	0.145960
741.683659	0.146066
741.881022	0.146001
742.078367	0.145789
742.275694	0.145545
742.473002	0.145404
742.670293	0.145120
742.867565	0.145126
743.064819	0.145283
743.262054	0.145086
743.459272	0.145268
743.656471	0.145020
743.853652	0.145169
744.050815	0.145274
744.247959	0.145443
744.445085	0.145522
744.642194	0.145288
744.839283	0.145035
745.036355	0.145084
745.233408	0.144609
745.430444	0.144512
745.627461	0.144295
745.824459	0.144153
746.021440	0.143970
746.218402	0.143911
746.415346	0.143900
746.612272	0.143832
746.809180	0.143683
747.006069	0.143731
747.202940	0.143817
747.399793	0.143868
747.596628	0.144012
747.793444	0.143750
747.990243	0.143592
748.187023	0.143525
748.383784	0.143465
748.580528	0.143414
748.777253	0.143385
748.973960	0.143288
749.170649	0.143075
749.367320	0.142772
749.563973	0.142713
749.760607	0.142632
749.957223	0.142503
750.153821	0.142365
750.350400	0.142245
750.546962	0.141958
750.743505	0.141958
750.940030	0.141471
751.136536	0.141498
751.333025	0.141548
751.529495	0.141216
751.725947	0.141278
751.922381	0.141421
752.118796	0.141259
752.315194	0.141276
752.511573	0.141068
752.707934	0.141440
752.904276	0.141517
753.100601	0.141397
753.296907	0.141591
753.493195	0.141426
753.689465	0.141345
753.885716	0.141542
754.081949	0.141466
754.278164	0.141318
754.474361	0.141233
754.670540	0.141057
754.866700	0.141051
755.062843	0.140908
755.258967	0.140840
755.455072	0.140437
755.651160	0.140159
755.847229	0.139938
756.043280	0.139869
756.239313	0.139760
756.435328	0.139626
756.631324	0.139447
756.827302	0.139306
757.023262	0.139149
757.219204	0.138966
757.415127	0.138867
757.611033	0.138892
757.806920	0.138809
758.002788	0.138587
758.198639	0.138238
758.394471	0.138179
758.590286	0.138234
758.786081	0.138012
758.981859	0.138153
759.177619	0.138096
759.373360	0.138085
759.569083	0.137984
759.764788	0.137828
759.960474	0.137942
760.156143	0.137786
760.351793	0.137683
760.547425	0.137905
760.743038	0.137920
760.938634	0.137836
761.134211	0.137825
761.329770	0.137830
761.525311	0.137953
761.720833	0.138042
761.916338	0.137933
762.111824	0.138112
762.307292	0.137970
762.502741	0.137848
762.698173	0.137866
762.893586	0.137681
763.088981	0.137654
763.284358	0.137648
763.479716	0.137454
763.675057	0.137553
763.870379	0.137171
764.065683	0.137077
764.260968	0.136754
764.456236	0.136565
764.651485	0.136562
764.846716	0.136524
765.041929	0.136517
765.237123	0.136315
765.432299	0.136280
765.627457	0.136302
765.822597	0.136433
766.017719	0.136646
766.212822	0.136551
766.407907	0.136432
766.602974	0.136304
766.798023	0.136148
766.993054	0.136105
767.188066	0.136204
767.383060	0.136200
767.578036	0.135773
767.772993	0.135459
767.967933	0.135499
768.162854	0.135704
768.357757	0.135761
768.552642	0.135723
768.747508	0.135787
768.942356	0.135429
769.137186	0.135372
769.331998	0.135508
769.526792	0.135549
769.721567	0.135673
769.916324	0.135457
770.111063	0.135159
770.305784	0.135255
770.500486	0.135196
770.695171	0.135326
770.889837	0.135228
771.084484	0.135116
771.279114	0.135259
771.473725	0.134905
771.668318	0.134866
771.862893	0.134890
772.057450	0.134554
772.251988	0.134493
772.446509	0.134306
772.641011	0.134335
772.835494	0.134340
773.029960	0.134045
773.224407	0.133948
773.418836	0.133762
773.613247	0.133789
773.807640	0.133628
774.002014	0.133668
774.196370	0.133601
774.390708	0.133530
774.585028	0.133412
774.779330	0.133315
774.973613	0.133236
775.167878	0.133260
775.362125	0.133000
775.556354	0.132989
775.750564	0.132668
775.944756	0.132515
776.138930	0.132113
776.333086	0.132023
776.527223	0.132322
776.721343	0.132406
776.915444	0.132541
777.109526	0.132498
777.303591	0.132695
777.497637	0.132804
777.691666	0.132711
777.885676	0.132980
778.079667	0.132988
778.273641	0.132866
778.467596	0.132716
778.661533	0.132498
778.855452	0.132385
779.049352	0.132283
779.243235	0.132322
779.437099	0.132383
779.630945	0.132349
779.824773	0.132347
780.018582	0.132248
780.212373	0.132462
780.406146	0.132708
780.599901	0.132679
780.793638	0.132632
780.987356	0.132414
781.181056	0.132588
781.374738	0.132622
781.568402	0.132569
781.762047	0.132363
781.955674	0.132372
782.149283	0.132317
782.342874	0.132786
782.536447	0.132955
782.730001	0.133356
782.923537	0.133131
783.117055	0.133181
783.310555	0.133396
783.504036	0.133457
783.697499	0.133562
783.890944	0.133655
784.084371	0.133687
784.277780	0.133620
784.471170	0.133396
784.664542	0.133706
784.857896	0.133654
785.051231	0.133453
785.244549	0.133791
785.437848	0.133760
785.631129	0.133636
785.824392	0.133358
786.017636	0.133370
786.210863	0.133427
786.404071	0.133499
786.597260	0.133647
786.790432	0.133693
786.983585	0.133452
787.176721	0.133455
787.369838	0.133412
787.562936	0.133570
787.756017	0.133565
787.949079	0.133453
788.142123	0.133329
788.335149	0.133147
788.528156	0.133396
788.721146	0.133538
788.914117	0.133264
789.107070	0.133218
789.300005	0.133199
789.492921	0.133345
789.685819	0.133714
789.878699	0.133746
790.071561	0.134138
790.264405	0.134058
790.457230	0.134299
790.650037	0.134354
790.842826	0.134566
791.035597	0.134789
791.228349	0.134988
791.421084	0.134796
791.613800	0.135007
791.806497	0.135291
791.999177	0.135489
792.191838	0.135614
792.384481	0.136244
792.577106	0.136396
792.769713	0.136475
792.962301	0.136506
793.154871	0.136917
793.347423	0.136967
793.539957	0.136822
793.732473	0.136809
793.924970	0.136665
794.117449	0.136329
794.309910	0.136529
794.502353	0.136816
794.694777	0.136818
794.887183	0.136634
795.079571	0.136530
795.271941	0.136524
795.464293	0.136645
795.656626	0.136854
795.848941	0.137227
796.041238	0.137330
796.233516	0.137122
796.425777	0.137253
796.618019	0.137391
796.810243	0.137713
797.002449	0.137716
797.194636	0.138045
797.386805	0.138245
797.578956	0.138411
797.771089	0.138319
797.963204	0.138259
798.155300	0.138409
798.347378	0.138713
798.539438	0.138762
798.731480	0.138919
798.923503	0.138933
799.115509	0.138981
799.307496	0.139087
799.499465	0.139413
799.691415	0.139642
799.883348	0.139618
800.075262	0.139530
800.267158	0.139800
800.459035	0.139915
800.650895	0.140130
800.842736	0.140189
801.034559	0.140196
801.226364	0.140173
801.418150	0.140431
801.609919	0.140555
801.801669	0.140793
801.993401	0.140593
802.185114	0.140729
802.376810	0.140592
802.568487	0.140632
802.760146	0.140638
802.951787	0.140572
803.143409	0.140840
803.335014	0.141112
803.526600	0.141208
803.718168	0.141290
803.909717	0.141396
804.101249	0.141619
804.292762	0.142043
804.484257	0.142292
804.675734	0.142715
804.867192	0.142619
805.058632	0.142650
805.250054	0.142954
805.441458	0.143431
805.632844	0.143722
805.824211	0.143868
806.015561	0.143860
806.206891	0.143931
806.398204	0.144067
806.589499	0.144309
806.780775	0.144328
806.972033	0.144391
807.163273	0.144453
807.354495	0.144516
807.545698	0.144966
807.736883	0.144995
807.928050	0.145140
808.119199	0.145352
808.310329	0.145496
808.501441	0.145918
808.692535	0.146119
808.883611	0.146348
809.074669	0.146427
809.265708	0.146687
809.456729	0.146951
809.647732	0.147225
809.838717	0.147394
810.029683	0.147523
810.220632	0.147650
810.411562	0.147770
810.602474	0.148023
810.793367	0.148316
810.984242	0.148168
811.175100	0.148574
811.365938	0.148745
811.556759	0.148697
811.747562	0.148955
811.938346	0.149058
812.129112	0.149426
812.319860	0.149514
812.510589	0.149718
812.701300	0.149863
812.891994	0.150002
813.082668	0.150347
813.273325	0.150720
813.463964	0.150920
813.654584	0.151008
813.845186	0.150772
814.035769	0.151010
814.226335	0.151008
814.416882	0.151091
814.607411	0.150997
814.797922	0.150966
814.988415	0.150831
815.178889	0.150869
815.369345	0.151109
815.559783	0.151101
815.750203	0.151057
815.940605	0.151288
816.130988	0.151523
816.321353	0.151653
816.511700	0.151526
816.702028	0.151942
816.892339	0.152146
817.082631	0.152271
817.272905	0.152771
817.463161	0.152938
817.653398	0.153141
817.843617	0.153401
818.033819	0.153670
818.224001	0.154066
818.414166	0.154026
818.604312	0.154219
818.794440	0.154539
818.984550	0.154704
819.174642	0.154861
819.364716	0.154916
819.554771	0.154922
819.744808	0.155030
819.934827	0.155340
820.124827	0.155558
820.314810	0.155573
820.504774	0.155715
820.694720	0.155708
820.884647	0.155783
821.074557	0.156106
821.264448	0.156429
821.454321	0.156822
821.644176	0.157141
821.834012	0.157486
822.023831	0.158028
822.213631	0.158196
822.403413	0.158850
822.593176	0.159289
822.782922	0.159589
822.972649	0.159776
823.162358	0.160085
823.352049	0.159964
823.541721	0.160186
823.731376	0.160367
823.921012	0.160771
824.110629	0.160904
824.300229	0.161268
824.489811	0.161431
824.679374	0.161847
824.868919	0.161888
825.058445	0.162242
825.247954	0.162596
825.437444	0.162846
825.626916	0.162947
825.816370	0.163006
826.005806	0.163170
826.195223	0.163211
826.384622	0.163208
826.574003	0.163395
826.763366	0.163638
826.952711	0.163651
827.142037	0.163616
827.331345	0.163756
827.520635	0.163943
827.709906	0.164021
827.899160	0.164589
828.088395	0.164898
828.277612	0.165299
828.466810	0.165536
828.655991	0.165834
828.845153	0.166063
829.034297	0.166346
829.223423	0.166611
829.412531	0.167135
829.601620	0.167117
829.790691	0.167259
829.979744	0.167345
830.168779	0.167803
830.357795	0.167997
830.546793	0.168397
830.735773	0.168501
830.924735	0.168865
831.113679	0.168981
831.302604	0.169262
831.491511	0.169580
831.680400	0.170057
831.869271	0.169979
832.058123	0.170376
832.246957	0.170593
832.435773	0.171175
832.624571	0.171476
832.813351	0.171808
833.002112	0.172045
833.190855	0.172034
833.379580	0.172065
833.568287	0.172404
833.756975	0.172654
833.945645	0.173037
834.134297	0.173027
834.322931	0.173075
834.511547	0.173108
834.700144	0.173424
834.888723	0.173873
835.077284	0.174087
835.265826	0.174382
835.454351	0.174336
835.642857	0.174656
835.831345	0.174770
836.019815	0.175381
836.208266	0.175922
836.396699	0.176065
836.585114	0.176538
836.773511	0.176838
836.961890	0.177338
837.150250	0.177801
837.338592	0.177949
837.526916	0.178499
837.715222	0.178608
837.903510	0.178786
838.091779	0.179068
838.280030	0.179147
838.468263	0.179540
838.656477	0.179787
838.844674	0.179923
839.032852	0.180305
839.221012	0.180689
839.409153	0.180977
839.597277	0.181272
839.785382	0.181711
839.973469	0.181971
840.161538	0.182401
840.349589	0.182722
840.537621	0.183404
840.725635	0.183944
840.913631	0.184449
841.101609	0.184548
841.289568	0.184876
841.477509	0.185175
841.665432	0.185792
841.853337	0.186224
842.041224	0.186498
842.229092	0.186931
842.416942	0.187210
842.604774	0.187243
842.792588	0.187551
842.980383	0.187909
843.168160	0.188380
843.355919	0.188804
843.543660	0.189069
843.731382	0.189540
843.919087	0.189615
844.106773	0.189611
844.294441	0.190264
844.482090	0.190549
844.669722	0.190909
844.857335	0.191308
845.044930	0.191463
845.232507	0.191650
845.420065	0.191678
845.607605	0.192035
845.795127	0.192612
845.982631	0.192632
846.170117	0.193029
846.357584	0.193265
846.545033	0.193230
846.732464	0.193333
846.919877	0.193586
847.107272	0.193846
847.294648	0.193565
847.482006	0.193515
847.669346	0.193422
847.856667	0.193794
848.043971	0.193679
848.231256	0.194278
848.418523	0.194623
848.605771	0.194688
848.793002	0.194927
848.980214	0.195935
849.167408	0.196215
849.354584	0.196876
849.541742	0.196934
849.728881	0.197789
849.916002	0.197811
850.103105	0.197963
850.290190	0.198210
850.477256	0.198692
850.664304	0.198654
850.851334	0.198926
851.038346	0.198946
851.225340	0.199280
851.412315	0.199310
851.599272	0.199784
851.786211	0.200229
851.973132	0.200921
852.160034	0.200731
852.346918	0.201209
852.533784	0.201591
852.720632	0.202111
852.907462	0.202418
853.094273	0.202727
853.281066	0.202837
853.467841	0.202633
853.654598	0.202553
853.841336	0.203521
854.028056	0.203725
854.214758	0.204233
854.401442	0.204351
854.588107	0.204475
854.774755	0.204956
854.961384	0.205453
855.147995	0.206153
855.334587	0.206626
855.521162	0.206617
855.707718	0.207101
855.894256	0.207213
856.080775	0.207949
856.267277	0.208721
856.453760	0.208821
856.640225	0.208834
856.826672	0.209041
857.013101	0.209126
857.199511	0.209017
857.385903	0.208806
857.572277	0.208826
857.758633	0.208484
857.944970	0.208471
858.131290	0.208647
858.317591	0.209071
858.503873	0.209559
858.690138	0.209932
858.876384	0.210474
859.062612	0.210653
859.248822	0.210918
859.435014	0.211197
859.621188	0.211422
859.807343	0.211513
859.993480	0.211821
860.179599	0.211784
860.365699	0.212032
860.551781	0.212122
860.737846	0.212752
860.923891	0.213024
861.109919	0.213501
861.295929	0.214226
861.481920	0.214612
861.667893	0.214734
861.853848	0.215164
862.039784	0.215346
862.225702	0.215806
862.411603	0.215888
862.597484	0.216065
862.783348	0.216051
862.969193	0.215967
863.155021	0.216074
863.340830	0.216017
863.526620	0.216273
863.712393	0.216406
863.898147	0.216596
864.083883	0.216832
864.269601	0.217209
864.455301	0.217742
864.640982	0.217814
864.826645	0.218152
865.012290	0.218528
865.197917	0.218349
865.383526	0.218508
865.569116	0.218682
865.754688	0.219117
865.940242	0.219547
866.125777	0.219678
866.311295	0.220125
866.496794	0.220530
866.682275	0.220758
866.867737	0.221210
867.053182	0.221567
867.238608	0.221718
867.424016	0.221849
867.609406	0.221811
867.794778	0.222292
867.980131	0.222198
868.165466	0.222532
868.350783	0.222556
868.536082	0.222709
868.721362	0.223139
868.906625	0.223534
869.091869	0.223818
869.277094	0.224252
869.462302	0.224053
869.647491	0.224430
869.832662	0.224171
870.017815	0.224276
870.202950	0.224897
870.388066	0.225079
870.573165	0.225056
870.758245	0.225198
870.943306	0.225215
871.128350	0.225505
871.313375	0.225968
871.498382	0.226674
871.683371	0.227310
871.868342	0.227357
872.053294	0.227213
872.238229	0.227514
872.423144	0.227648
872.608042	0.227956
872.792922	0.228233
872.977783	0.228086
873.162626	0.228177
873.347451	0.228418
873.532258	0.228397
873.717046	0.228673
873.901816	0.228917
874.086568	0.229136
874.271302	0.229488
874.456017	0.229331
874.640715	0.229657
874.825394	0.229706
875.010055	0.229570
875.194697	0.229730
875.379322	0.229979
875.563928	0.230336
875.748516	0.230033
875.933085	0.229624
876.117637	0.229833
876.302170	0.230061
876.486685	0.229967
876.671182	0.230082
876.855661	0.230160
877.040121	0.230335
877.224563	0.230152
877.408987	0.230613
877.593393	0.231123
877.777780	0.231567
877.962150	0.231164
878.146501	0.231480
878.330833	0.231758
878.515148	0.232122
878.699444	0.231811
878.883722	0.231564
879.067982	0.231664
879.252224	0.231625
879.436447	0.231916
879.620653	0.232123
879.804840	0.231794
879.989008	0.231850
880.173159	0.232219
880.357291	0.232742
880.541405	0.232948
880.725501	0.233134
880.909579	0.233226
881.093638	0.232556
881.277680	0.232855
881.461703	0.233041
881.645707	0.232941
881.829694	0.232692
882.013662	0.232527
882.197612	0.233171
882.381544	0.233217
882.565458	0.233348
882.749353	0.233775
882.933230	0.233513
883.117089	0.233968
883.300930	0.234197
883.484753	0.234282
883.668557	0.234344
883.852343	0.233679
884.036111	0.233714
884.219861	0.233545
884.403592	0.233511
884.587305	0.233736
884.771000	0.233418
884.954677	0.233743
885.138335	0.233747
885.321976	0.233974
885.505598	0.234306
885.689201	0.234234
885.872787	0.234110
886.056354	0.234376
886.239904	0.234027
886.423434	0.234212
886.606947	0.234333
886.790442	0.234359
886.973918	0.234467
887.157376	0.234634
887.340816	0.235028
887.524237	0.235545
887.707641	0.235611
887.891026	0.235895
888.074393	0.236010
888.257741	0.235462
888.441072	0.235164
888.624384	0.234714
888.807678	0.234343
888.990954	0.233833
889.174211	0.233576
889.357451	0.233511
889.540672	0.233421
889.723875	0.233807
889.907059	0.234043
890.090226	0.234044
890.273374	0.234227
890.456504	0.234550
890.639616	0.234511
890.822709	0.234708
891.005785	0.234503
891.188842	0.234932
891.371881	0.233970
891.554901	0.233930
891.737904	0.234119
891.920888	0.234366
892.103854	0.234288
892.286802	0.234543
892.469731	0.233881
892.652643	0.233785
892.835536	0.233577
893.018410	0.234029
893.201267	0.233765
893.384106	0.233333
893.566926	0.233401
893.749728	0.233799
893.932511	0.233343
894.115277	0.233799
894.298024	0.234023
894.480753	0.233731
894.663464	0.233578
894.846157	0.233207
895.028831	0.233556
895.211487	0.233125
895.394125	0.232535
895.576745	0.232778
895.759346	0.232826
895.941930	0.232399
896.124495	0.232552
896.307041	0.232464
896.489570	0.232689
896.672080	0.232121
896.854573	0.231911
897.037046	0.232189
897.219502	0.231859
897.401940	0.231593
897.584359	0.231771
897.766760	0.231290
897.949143	0.231614
898.131507	0.231361
898.313854	0.231701
898.496182	0.231856
898.678492	0.231500
898.860783	0.231414
899.043057	0.230688
899.225312	0.230261
899.407549	0.230375
899.589768	0.229909
899.771968	0.229644
899.954151	0.228974
900.136315	0.228805
900.318461	0.228930
900.500588	0.228938
900.682698	0.229191
900.864789	0.228871
901.046862	0.228705
901.228917	0.227868
901.410953	0.227760
901.592971	0.228040
901.774972	0.227620
901.956953	0.227120
902.138917	0.227265
902.320862	0.226909
902.502790	0.226872
902.684699	0.226531
902.866589	0.227228
903.048462	0.227456
903.230316	0.227643
903.412152	0.227778
903.593970	0.227414
903.775770	0.226899
903.957551	0.226904
904.139314	0.226946
904.321059	0.227134
904.502786	0.226644
904.684494	0.226702
904.866185	0.226060
905.047857	0.226007
905.229510	0.225691
905.411146	0.225629
905.592763	0.225291
905.774363	0.225132
905.955943	0.224907
906.137506	0.224734
906.319051	0.223989
906.500577	0.223928
906.682085	0.223371
906.863575	0.223761
907.045046	0.223443
907.226500	0.223870
907.407935	0.223971
907.589352	0.223870
907.770750	0.223333
907.952131	0.223337
908.133493	0.222851
908.314837	0.222525
908.496163	0.221810
908.677470	0.221524
908.858760	0.220808
909.040031	0.219967
909.221284	0.219864
909.402518	0.220037
909.583735	0.220066
909.764933	0.220004
909.946113	0.220067
910.127275	0.220155
910.308418	0.219990
910.489544	0.219617
910.670651	0.219714
910.851740	0.219202
911.032810	0.218919
911.213863	0.218844
911.394897	0.218329
911.575913	0.218018
911.756911	0.217305
911.937890	0.216950
912.118851	0.216754
912.299794	0.216356
912.480719	0.215861
912.661626	0.215734
912.842514	0.215202
913.023384	0.215049
913.204236	0.214596
913.385070	0.214940
913.565886	0.214523
913.746683	0.214498
913.927462	0.213756
914.108223	0.213521
914.288965	0.212728
914.469690	0.212012
914.650396	0.211744
914.831084	0.211650
915.011754	0.210818
915.192405	0.210789
915.373038	0.209852
915.553653	0.210463
915.734250	0.210006
915.914829	0.209383
916.095389	0.209137
916.275931	0.208494
916.456455	0.208196
916.636961	0.208153
916.817448	0.207604
916.997917	0.207625
917.178368	0.206967
917.358801	0.206316
917.539216	0.206798
917.719612	0.205850
917.899990	0.205736
918.080350	0.204943
918.260692	0.204131
918.441015	0.203594
918.621320	0.203471
918.801607	0.202961
918.981876	0.202529
919.162127	0.202021
919.342359	0.201777
919.522573	0.201294
919.702769	0.201174
919.882947	0.200935
920.063106	0.200203
920.243247	0.199296
920.423370	0.198601
920.603475	0.198512
920.783562	0.197746
920.963630	0.197393
921.143680	0.197087
921.323712	0.196119
921.503725	0.195594
921.683721	0.195143
921.863698	0.194394
922.043657	0.193867
922.223598	0.193763
922.403520	0.192963
922.583424	0.192520
922.763311	0.191757
922.943178	0.191217
923.123028	0.190371
923.302859	0.190133
923.482673	0.189560
923.662467	0.189048
923.842244	0.187960
924.022003	0.187874
924.201743	0.187926
924.381465	0.187173
924.561169	0.186687
924.740854	0.186158
924.920522	0.185866
925.100171	0.185722
925.279802	0.185507
925.459414	0.185191
925.639009	0.184789
925.818585	0.184365
925.998143	0.183985
926.177683	0.183937
926.357205	0.183585
926.536708	0.181994
926.716193	0.181728
926.895660	0.181184
927.075109	0.180562
927.254539	0.179778
927.433951	0.178840
927.613345	0.178698
927.792721	0.178223
927.972079	0.177270
928.151418	0.177686
928.330739	0.177480
928.510042	0.177010
928.689327	0.176372
928.868593	0.175759
929.047841	0.174852
929.227071	0.174022
929.406283	0.173587
929.585476	0.173466
929.764652	0.172591
929.943809	0.171086
930.122948	0.170619
930.302068	0.169998
930.481171	0.169515
930.660255	0.168634
930.839321	0.168321
931.018369	0.167464
931.197398	0.166895
931.376409	0.166800
931.555402	0.166140
931.734377	0.164888
931.913334	0.164837
932.092272	0.163925
932.271192	0.163639
932.450094	0.162778
932.628978	0.161821
932.807844	0.161793
932.986691	0.160436
933.165520	0.160455
933.344331	0.160146
933.523123	0.158532
933.701898	0.158614
933.880654	0.158005
934.059392	0.157400
934.238111	0.156898
934.416813	0.155795
934.595496	0.155717
934.774161	0.155347
934.952808	0.154598
935.131437	0.154691
935.310047	0.152780
935.488639	0.152346
935.667213	0.152273
935.845769	0.151966
936.024306	0.151936
936.202825	0.150939
936.381326	0.150450
936.559809	0.149107
936.738274	0.147730
936.916720	0.147364
937.095148	0.147225
937.273558	0.146502
937.451950	0.146062
937.630323	0.144690
937.808678	0.144530
937.987015	0.143387
938.165334	0.143118
938.343635	0.143173
938.521917	0.142981
938.700181	0.141677
938.878427	0.140586
939.056655	0.138907
939.234864	0.138409
939.413055	0.136805
939.591228	0.135897
939.769383	0.134987
939.947519	0.135030
940.125638	0.134267
940.303738	0.133276
940.481820	0.131944
940.659883	0.131137
940.837929	0.129701
941.015956	0.129486
941.193965	0.128737
941.371955	0.128576
941.549928	0.128218
941.727882	0.127921
941.905818	0.127656
942.083736	0.127574
942.261636	0.127422
942.439517	0.127052
942.617380	0.127370
942.795225	0.126352
942.973052	0.126239
943.150860	0.124202
943.328651	0.122989
943.506423	0.122697
943.684176	0.121339
943.861912	0.120903
944.039629	0.121091
944.217328	0.120032
944.395009	0.120123
944.572672	0.119536
944.750317	0.118959
944.927943	0.118854
945.105551	0.117950
945.283141	0.116939
945.460712	0.116894
945.638265	0.115291
945.815801	0.115117
945.993317	0.114460
946.170816	0.114113
946.348297	0.112114
946.525759	0.110787
946.703203	0.110587
946.880629	0.110648
947.058036	0.109540
947.235425	0.108988
947.412797	0.107314
947.590149	0.105848
947.767484	0.103825
947.944800	0.105261
948.122099	0.104715
948.299379	0.104067
948.476640	0.102837
948.653884	0.101277
948.831109	0.100735
949.008316	0.100520
949.185505	0.099595
949.362676	0.099708
949.539828	0.097042
949.716962	0.095169
949.894078	0.093724
950.071176	0.093584
950.248256	0.092820
950.425317	0.091367
950.602360	0.090090
950.779385	0.090269
950.956391	0.089449
951.133380	0.089700
951.310350	0.089547
951.487302	0.088622
951.664235	0.089652
951.841151	0.091049
952.018048	0.091841
952.194927	0.090700
952.371788	0.091658
952.548631	0.089835
952.725455	0.089316
952.902261	0.089496
953.079049	0.089197
953.255819	0.087186
953.432570	0.085305
953.609303	0.083472
953.786018	0.085153
953.962715	0.082401
954.139394	0.082104
954.316054	0.081186
954.492696	0.079761
954.669320	0.080288
954.845926	0.080224
955.022513	0.079771
955.199083	0.079844
955.375634	0.078234
955.552166	0.078035
955.728681	0.078233
955.905177	0.077995
956.081655	0.079419
956.258115	0.077694
956.434557	0.075425
956.610980	0.074326
956.787385	0.073922
956.963772	0.073175
957.140141	0.073053
957.316492	0.071894
957.492824	0.072577
957.669138	0.072031
957.845434	0.071781
958.021712	0.072377
958.197971	0.072107
958.374212	0.072730
958.550435	0.072967
958.726640	0.073107
958.902826	0.072093
959.078995	0.071106
959.255145	0.069685
959.431277	0.069828
959.607390	0.068736
959.783486	0.068544
959.959563	0.067393
960.135622	0.067055
960.311662	0.066381
960.487685	0.067107
960.663689	0.067479
960.839675	0.067161
961.015643	0.066845
961.191593	0.068603
961.367524	0.066453
961.543437	0.066538
961.719332	0.063712
961.895209	0.063312
962.071067	0.063645
962.246907	0.061357
962.422730	0.062818
962.598533	0.063194
962.774319	0.063697
962.950086	0.063541
963.125835	0.063774
963.301566	0.062683
963.477279	0.062469
963.652973	0.062573
963.828650	0.061688
964.004308	0.060458
964.179947	0.059622
964.355569	0.058316
964.531172	0.061094
964.706757	0.061947
964.882324	0.066784
965.057873	0.066031
965.233403	0.067059
965.408916	0.070438
965.584410	0.071107
965.759885	0.071181
965.935343	0.070286
966.110782	0.070171
966.286203	0.069325
966.461606	0.068046
966.636991	0.069318
966.812357	0.069105
966.987705	0.065790
967.163035	0.065665
967.338347	0.066929
967.513641	0.067271
967.688916	0.067570
967.864173	0.066142
968.039412	0.065071
968.214632	0.065261
968.389835	0.061730
968.565019	0.064071
968.740185	0.063879
968.915333	0.063110
969.090462	0.064438
969.265573	0.063784
969.440667	0.063145
969.615741	0.063272
969.790798	0.060020
969.965836	0.063753
970.140856	0.063230
970.315858	0.064058
970.490842	0.062706
970.665808	0.063886
970.840755	0.064842
971.015684	0.067723
971.190595	0.068731
971.365487	0.071036
971.540362	0.069461
971.715218	0.069566
971.890056	0.068966
972.064875	0.071159
972.239677	0.066184
972.414460	0.062830
972.589225	0.059741
972.763972	0.058767
972.938700	0.058538
973.113411	0.058154
973.288103	0.060505
973.462777	0.058255
973.637432	0.056349
973.812070	0.058874
973.986689	0.060475
974.161290	0.062626
974.335873	0.062314
974.510437	0.063287
974.684984	0.064310
974.859512	0.061315
975.034022	0.061814
975.208513	0.062192
975.382987	0.062910
975.557442	0.062637
975.731879	0.061981
975.906298	0.063448
976.080698	0.061862
976.255080	0.062904
976.429445	0.061914
976.603790	0.062264
976.778118	0.063169
976.952427	0.061199
977.126719	0.062282
977.300992	0.062087
977.475246	0.062141
977.649483	0.064342
977.823701	0.064718
977.997901	0.066898
978.172083	0.066434
978.346247	0.065983
978.520392	0.068478
978.694519	0.068695
978.868628	0.068739
979.042719	0.066657
979.216791	0.065345
979.390845	0.063443
979.564882	0.060543
979.738899	0.061326
979.912899	0.059183
980.086880	0.058560
980.260843	0.056149
980.434788	0.057702
980.608715	0.058368
980.782623	0.057946
980.956514	0.059086
981.130386	0.061959
981.304240	0.062293
981.478075	0.062944
981.651892	0.062369
981.825692	0.064454
981.999472	0.061941
982.173235	0.063307
982.346980	0.064841
982.520706	0.062045
982.694414	0.061375
982.868104	0.060420
983.041775	0.062865
983.215428	0.062821
983.389064	0.062853
983.562680	0.064155
983.736279	0.063421
983.909860	0.063417
984.083422	0.063877
984.256966	0.063168
984.430491	0.063235
984.603999	0.061832
984.777488	0.061344
984.950959	0.061429
985.124412	0.060973
985.297847	0.059871
985.471263	0.058626
985.644661	0.059006
985.818041	0.058143
985.991403	0.058988
986.164747	0.060836
986.338072	0.060652
986.511379	0.062620
986.684668	0.064230
986.857938	0.065495
987.031191	0.063801
987.204425	0.064525
987.377641	0.065853
987.550839	0.066375
987.724018	0.065254
987.897179	0.066126
988.070322	0.064381
988.243447	0.063576
988.416554	0.061964
988.589642	0.062848
988.762712	0.064020
988.935764	0.064849
989.108798	0.064184
989.281813	0.061985
989.454811	0.060541
989.627790	0.061266
989.800751	0.061124
989.973693	0.061189
990.146617	0.063348
990.319524	0.061891
990.492412	0.060742
990.665281	0.059711
990.838133	0.061953
991.010966	0.062602
991.183781	0.062353
991.356578	0.064165
991.529356	0.064385
991.702117	0.063157
991.874859	0.064078
992.047583	0.065333
992.220288	0.066410
992.392976	0.065776
992.565645	0.066540
992.738296	0.064139
992.910929	0.062672
993.083543	0.063050
993.256139	0.062780
993.428718	0.061776
993.601277	0.061164
993.773819	0.061409
993.946342	0.060543
994.118848	0.060514
994.291335	0.061454
994.463803	0.060290
994.636254	0.060022
994.808686	0.061938
994.981100	0.061103
995.153496	0.061536
995.325874	0.060395
995.498233	0.062008
995.670574	0.061506
995.842897	0.062364
996.015202	0.062103
996.187488	0.062244
996.359757	0.062321
996.532007	0.062285
996.704239	0.064291
996.876452	0.064720
997.048648	0.062405
997.220825	0.062530
997.392984	0.060695
997.565124	0.062022
997.737247	0.061205
997.909351	0.060050
998.081437	0.060399
998.253505	0.059764
998.425554	0.058178
998.597586	0.058825
998.769599	0.059913
998.941594	0.059578
999.113571	0.060835
999.285529	0.062952
999.457469	0.062125
999.629391	0.064465
999.801295	0.062974
999.973181	0.065325
1000.145048	0.067329
1000.316897	0.067110
1000.488728	0.068856
1000.660541	0.066299
1000.832335	0.063538
1001.004111	0.064367
1001.175869	0.062735
1001.347609	0.061882
1001.519331	0.059286
1001.691034	0.060187
1001.862719	0.059894
1002.034386	0.058452
1002.206035	0.059315
1002.377665	0.061196
1002.549277	0.061736
1002.720871	0.060670
1002.892447	0.062588
1003.064004	0.064528
1003.235544	0.062953
1003.407065	0.064026
1003.578568	0.064960
1003.750052	0.065172
1003.921519	0.064160
1004.092967	0.063172
1004.264397	0.064871
1004.435809	0.064030
1004.607202	0.063663
1004.778577	0.064098
1004.949934	0.064214
1005.121273	0.064556
1005.292594	0.062879
1005.463896	0.063043
1005.635180	0.062642
1005.806446	0.061444
1005.977694	0.061846
1006.148923	0.060917
1006.320135	0.058581
1006.491328	0.057378
1006.662503	0.057714
1006.833659	0.057992
1007.004798	0.056987
1007.175918	0.056350
1007.347020	0.055942
1007.518103	0.054987
1007.689169	0.056776
1007.860216	0.056047
1008.031245	0.054476
1008.202256	0.053589
1008.373248	0.053036
1008.544223	0.055222
1008.715179	0.055291
1008.886117	0.055300
1009.057036	0.055911
1009.227938	0.054925
1009.398821	0.056019
1009.569686	0.057754
1009.740533	0.058501
1009.911361	0.059572
1010.082172	0.059214
1010.252964	0.060648
1010.423738	0.060637
1010.594493	0.059053
1010.765231	0.058996
1010.935950	0.059321
1011.106651	0.058044
1011.277334	0.058692
1011.447998	0.058832
1011.618645	0.058076
1011.789273	0.056222
1011.959882	0.056414
1012.130474	0.056875
1012.301048	0.058262
1012.471603	0.060206
1012.642140	0.061809
1012.812658	0.061628
1012.983159	0.062159
1013.153641	0.061445
1013.324105	0.062445
1013.494551	0.063326
1013.664979	0.064001
1013.835388	0.063999
1014.005779	0.064103
1014.176152	0.063227
1014.346507	0.062390
1014.516843	0.061932
1014.687162	0.063063
1014.857462	0.064295
1015.027744	0.063231
1015.198007	0.062807
1015.368252	0.062844
1015.538480	0.061763
1015.708689	0.061583
1015.878879	0.062909
1016.049052	0.061108
1016.219206	0.060891
1016.389342	0.063097
1016.559460	0.064470
1016.729559	0.065260
1016.899641	0.064520
1017.069704	0.064346
1017.239749	0.063801
1017.409775	0.061584
1017.579784	0.064262
1017.749774	0.064626
1017.919746	0.061451
1018.089700	0.062326
1018.259635	0.060693
1018.429553	0.062047
1018.599452	0.062800
1018.769333	0.062962
1018.939195	0.065221
1019.109040	0.063454
1019.278866	0.063162
1019.448674	0.064555
1019.618464	0.063055
1019.788235	0.063214
1019.957989	0.059759
1020.127724	0.060393
1020.297441	0.061232
1020.467139	0.060761
1020.636820	0.061355
1020.806482	0.060887
1020.976126	0.058638
1021.145752	0.057780
1021.315359	0.056153
1021.484948	0.057535
1021.654519	0.056545
1021.824072	0.056905
1021.993607	0.056274
1022.163123	0.057786
1022.332621	0.059680
1022.502101	0.061510
1022.671563	0.061685
1022.841007	0.064339
1023.010432	0.063975
1023.179839	0.064734
1023.349228	0.064179
1023.518598	0.063217
1023.687951	0.060042
1023.857285	0.058193
1024.026601	0.058925
1024.195899	0.059522
1024.365178	0.060945
1024.534439	0.061665
1024.703682	0.061117
1024.872907	0.061726
1025.042114	0.063226
1025.211302	0.065211
1025.380472	0.066772
1025.549624	0.064059
1025.718758	0.063687
1025.887873	0.062326
1026.056970	0.063451
1026.226049	0.061666
1026.395110	0.061306
1026.564153	0.058672
1026.733177	0.058889
1026.902183	0.056073
1027.071171	0.058107
1027.240141	0.057623
1027.409092	0.056177
1027.578026	0.055328
1027.746940	0.055075
1027.915837	0.054734
1028.084716	0.056926
1028.253576	0.056159
1028.422418	0.057223
1028.591242	0.057088
1028.760048	0.058821
1028.928835	0.058728
1029.097604	0.058714
1029.266355	0.058913
1029.435088	0.059303
1029.603803	0.058028
1029.772499	0.058947
1029.941177	0.058656
1030.109837	0.057759
1030.278478	0.056609
1030.447102	0.057753
1030.615707	0.057005
1030.784294	0.058223
1030.952863	0.056827
1031.121413	0.056590
1031.289945	0.055866
1031.458460	0.056386
1031.626955	0.057351
1031.795433	0.058357
1031.963892	0.057823
1032.132334	0.059166
1032.300756	0.059639
1032.469161	0.061689
1032.637548	0.062795
1032.805916	0.062090
1032.974266	0.061222
1033.142598	0.061955
1033.310911	0.061823
1033.479207	0.060203
1033.647484	0.060256
1033.815743	0.060285
1033.983983	0.058016
1034.152206	0.057680
1034.320410	0.058609
1034.488596	0.059764
1034.656764	0.058752
1034.824914	0.057515
1034.993045	0.059831
1035.161158	0.059501
1035.329253	0.058515
1035.497330	0.060857
1035.665388	0.060301
1035.833428	0.060153
1036.001450	0.058775
1036.169454	0.057296
1036.337440	0.058215
1036.505407	0.058240
1036.673356	0.058382
1036.841287	0.058873
1037.009200	0.056626
1037.177094	0.056405
1037.344970	0.056036
1037.512828	0.057771
1037.680668	0.058195
1037.848489	0.058078
1038.016293	0.057420
1038.184078	0.056540
1038.351845	0.056138
1038.519593	0.056856
1038.687324	0.058314
1038.855036	0.059093
1039.022730	0.057230
1039.190406	0.057081
1039.358063	0.057204
1039.525702	0.057180
1039.693323	0.056841
1039.860926	0.056646
1040.028511	0.056756
1040.196077	0.056111
1040.363625	0.055121
1040.531155	0.057200
1040.698667	0.057563
1040.866161	0.057346
1041.033636	0.057506
1041.201093	0.056905
1041.368532	0.055467
1041.535952	0.055992
1041.703355	0.056079
1041.870739	0.057642
1042.038105	0.056922
1042.205452	0.056907
1042.372782	0.057257
1042.540093	0.056832
1042.707386	0.058181
1042.874661	0.060750
1043.041918	0.061278
1043.209156	0.061353
1043.376376	0.060208
1043.543578	0.058684
1043.710762	0.057848
1043.877927	0.055085
1044.045074	0.055548
1044.212203	0.054443
1044.379314	0.053996
1044.546407	0.053583
1044.713481	0.054273
1044.880537	0.053728
1045.047575	0.054715
1045.214595	0.055109
1045.381596	0.056402
1045.548579	0.055160
1045.715544	0.055839
1045.882491	0.054852
1046.049420	0.052888
1046.216330	0.052306
1046.383222	0.053207
1046.550096	0.053573
1046.716951	0.052371
1046.883789	0.053448
1047.050608	0.054851
1047.217409	0.054008
1047.384192	0.053651
1047.550956	0.054872
1047.717703	0.056723
1047.884431	0.057937
1048.051140	0.058232
1048.217832	0.058059
1048.384505	0.057650
1048.551161	0.056851
1048.717798	0.059035
1048.884416	0.061135
1049.051017	0.062629
1049.217599	0.060077
1049.384163	0.059009
1049.550709	0.056800
1049.717237	0.058076
1049.883746	0.058474
1050.050237	0.058708
1050.216710	0.057878
1050.383165	0.057652
1050.549601	0.055904
1050.716019	0.056881
1050.882420	0.056660
1051.048801	0.057942
1051.215165	0.057978
1051.381510	0.057196
1051.547837	0.056589
1051.714146	0.056968
1051.880437	0.057121
1052.046709	0.059077
1052.212964	0.058985
1052.379200	0.059641
1052.545417	0.059701
1052.711617	0.058374
1052.877798	0.058556
1053.043961	0.060135
1053.210106	0.059815
1053.376233	0.056991
1053.542341	0.056187
1053.708432	0.055487
1053.874504	0.052330
1054.040557	0.052847
1054.206593	0.055683
1054.372610	0.056234
1054.538609	0.054969
1054.704590	0.056360
1054.870553	0.058834
1055.036497	0.058590
1055.202424	0.059198
1055.368331	0.060588
1055.534221	0.060808
1055.700093	0.060889
1055.865946	0.059962
1056.031781	0.061567
1056.197598	0.058667
1056.363397	0.058857
1056.529177	0.060519
1056.694939	0.060604
1056.860683	0.063158
1057.026409	0.062775
1057.192116	0.062030
1057.357806	0.063941
1057.523477	0.064807
1057.689130	0.066777
1057.854764	0.064923
1058.020381	0.063505
1058.185979	0.063756
1058.351559	0.063322
1058.517120	0.064267
1058.682664	0.063915
1058.848189	0.062107
1059.013696	0.060788
1059.179185	0.060210
1059.344656	0.063322
1059.510108	0.062732
1059.675542	0.063821
1059.840958	0.062792
1060.006356	0.063595
1060.171735	0.064603
1060.337096	0.066684
1060.502439	0.065351
1060.667764	0.063292
1060.833071	0.062043
1060.998359	0.061765
1061.163629	0.061891
1061.328881	0.062101
1061.494115	0.062313
1061.659330	0.062505
1061.824527	0.061667
1061.989706	0.063211
1062.154867	0.065523
1062.320010	0.063755
1062.485134	0.064311
1062.650240	0.063520
1062.815328	0.065556
1062.980398	0.063877
1063.145449	0.060794
1063.310482	0.059485
1063.475497	0.059929
1063.640494	0.059948
1063.805473	0.061278
1063.970433	0.060255
1064.135375	0.058146
1064.300299	0.055422
1064.465204	0.055034
1064.630092	0.056927
1064.794961	0.059721
1064.959812	0.058475
1065.124645	0.058680
1065.289459	0.057563
1065.454256	0.058903
1065.619034	0.059023
1065.783793	0.058674
1065.948535	0.059567
1066.113258	0.060814
1066.277964	0.058758
1066.442651	0.059088
1066.607319	0.058114
1066.771970	0.060727
1066.936602	0.061512
1067.101216	0.061267
1067.265812	0.062755
1067.430389	0.064225
1067.594949	0.063502
1067.759490	0.063449
1067.924013	0.062672
1068.088518	0.064030
1068.253004	0.062893
1068.417472	0.062943
1068.581922	0.065968
1068.746354	0.065013
1068.910768	0.063612
1069.075163	0.063726
1069.239540	0.062509
1069.403899	0.062657
1069.568240	0.062713
1069.732562	0.062235
1069.896866	0.060420
1070.061152	0.060036
1070.225420	0.059815
1070.389670	0.058925
1070.553901	0.057133
1070.718114	0.058282
1070.882309	0.059317
1071.046486	0.059986
1071.210644	0.060680
1071.374784	0.061390
1071.538906	0.060472
1071.703010	0.061151
1071.867096	0.061485
1072.031163	0.064786
1072.195212	0.065472
1072.359243	0.064578
1072.523256	0.060763
1072.687250	0.061556
1072.851226	0.061488
1073.015184	0.062386
1073.179124	0.061692
1073.343045	0.063560
1073.506949	0.062475
1073.670834	0.062412
1073.834701	0.064927
1073.998549	0.066970
1074.162380	0.065436
1074.326192	0.066041
1074.489986	0.066862
1074.653761	0.067842
1074.817519	0.067585
1074.981258	0.069385
1075.144979	0.069371
1075.308682	0.070649
1075.472367	0.069926
1075.636033	0.070355
1075.799681	0.070061
1075.963311	0.067855
1076.126923	0.067996
1076.290516	0.067197
1076.454092	0.065061
1076.617649	0.065257
1076.781187	0.065390
1076.944708	0.067038
1077.108210	0.064287
1077.271695	0.064660
1077.435160	0.066379
1077.598608	0.064956
1077.762038	0.065380
1077.925449	0.065922
1078.088842	0.066453
1078.252217	0.063422
1078.415573	0.064076
1078.578912	0.065533
1078.742232	0.065460
1078.905534	0.065432
1079.068817	0.070907
1079.232083	0.070767
1079.395330	0.069565
1079.558559	0.069255
1079.721770	0.070262
1079.884962	0.071720
1080.048136	0.073782
1080.211293	0.076767
1080.374430	0.079222
1080.537550	0.073972
1080.700651	0.071805
1080.863735	0.071065
1081.026800	0.072555
1081.189846	0.072505
1081.352875	0.070614
1081.515885	0.070515
1081.678877	0.068750
1081.841851	0.066619
1082.004807	0.068315
1082.167744	0.070661
1082.330663	0.072078
1082.493564	0.069354
1082.656447	0.070208
1082.819312	0.068563
1082.982158	0.068745
1083.144986	0.068143
1083.307796	0.068039
1083.470587	0.068182
1083.633361	0.068694
1083.796116	0.068934
1083.958853	0.072670
1084.121571	0.072103
1084.284272	0.073704
1084.446954	0.072570
1084.609618	0.072435
1084.772264	0.071751
1084.934892	0.072296
1085.097501	0.072341
1085.260092	0.072880
1085.422665	0.071299
1085.585220	0.071713
1085.747756	0.072008
1085.910274	0.071475
1086.072774	0.070166
1086.235256	0.071824
1086.397720	0.069567
1086.560165	0.072246
1086.722592	0.072839
1086.885001	0.072301
1087.047392	0.069324
1087.209764	0.070706
1087.372119	0.071648
1087.534455	0.073526
1087.696772	0.071723
1087.859072	0.072735
1088.021353	0.070645
1088.183616	0.071083
1088.345861	0.071386
1088.508088	0.071258
1088.670296	0.070502
1088.832486	0.070723
1088.994658	0.071592
1089.156812	0.071464
1089.318948	0.072085
1089.481065	0.072921
1089.643164	0.073456
1089.805245	0.072175
1089.967308	0.074614
1090.129352	0.074758
1090.291378	0.076887
1090.453386	0.075438
1090.615376	0.077577
1090.777347	0.079329
1090.939301	0.076491
1091.101236	0.074702
1091.263153	0.075727
1091.425051	0.078982
1091.586932	0.080427
1091.748794	0.079748
1091.910638	0.080047
1092.072463	0.077007
1092.234271	0.077190
1092.396060	0.076803
1092.557831	0.079664
1092.719584	0.082335
1092.881319	0.078995
1093.043035	0.076886
1093.204733	0.073901
1093.366413	0.074935
1093.528075	0.076003
1093.689718	0.074518
1093.851343	0.077301
1094.012950	0.073554
1094.174539	0.071044
1094.336110	0.071117
1094.497662	0.072462
1094.659196	0.072809
1094.820712	0.072210
1094.982210	0.073171
1095.143689	0.075489
1095.305151	0.074714
1095.466594	0.078197
1095.628018	0.077730
1095.789425	0.079781
1095.950813	0.079526
1096.112183	0.083351
1096.273535	0.082073
1096.434869	0.083478
1096.596184	0.081570
1096.757482	0.083502
1096.918761	0.080627
1097.080021	0.081754
1097.241264	0.079993
1097.402488	0.079181
1097.563694	0.076552
1097.724882	0.079525
1097.886052	0.079138
1098.047203	0.075327
1098.208336	0.070296
1098.369451	0.070546
1098.530548	0.069816
1098.691627	0.071878
1098.852687	0.070407
1099.013729	0.071677
1099.174753	0.069989
1099.335758	0.066216
1099.496746	0.066086
1099.657715	0.069890
1099.818666	0.068888
1099.979599	0.071822
1100.140513	0.072924
1100.301409	0.075715
1100.462287	0.073008
1100.623147	0.073913
1100.783989	0.076933
1100.944812	0.076362
1101.105617	0.074664
1101.266404	0.077090
1101.427173	0.074440
1101.587923	0.071751
1101.748656	0.072200
1101.909370	0.075537
1102.070066	0.073440
1102.230743	0.070394
1102.391403	0.077627
1102.552044	0.080399
1102.712667	0.078841
1102.873271	0.079731
1103.033858	0.075986
1103.194426	0.070620
1103.354976	0.070370
1103.515508	0.074073
1103.676021	0.075311
1103.836517	0.070310
1103.996994	0.069549
1104.157453	0.069786
1104.317893	0.070927
1104.478316	0.079413
1104.638720	0.085790
1104.799106	0.084504
1104.959474	0.086514
1105.119823	0.089654
1105.280155	0.094873
1105.440468	0.096928
1105.600763	0.097611
1105.761039	0.095058
1105.921298	0.091961
1106.081538	0.092061
1106.241760	0.096904
1106.401964	0.092083
1106.562149	0.096163
1106.722316	0.095197
1106.882465	0.095323
1107.042596	0.102850
1107.202709	0.105216
1107.362803	0.102322
1107.522879	0.100683
1107.682937	0.094686
1107.842977	0.096140
1108.002999	0.091592
1108.163002	0.088431
1108.322987	0.085862
1108.482954	0.078710
1108.642902	0.076939
1108.802833	0.080125
1108.962745	0.076172
1109.122639	0.078304
1109.282515	0.075607
1109.442372	0.072325
1109.602211	0.072150
1109.762032	0.075750
1109.921835	0.077024
1110.081620	0.083090
1110.241386	0.083728
1110.401134	0.081931
1110.560864	0.081801
1110.720576	0.085273
1110.880269	0.088156
1111.039945	0.087655
1111.199602	0.084978
1111.359240	0.086859
1111.518861	0.081163
1111.678463	0.077585
1111.838047	0.084271
1111.997613	0.083607
1112.157161	0.084932
1112.316690	0.085344
1112.476202	0.087387
1112.635695	0.091811
1112.795169	0.088007
1112.954626	0.091472
1113.114064	0.091253
1113.273484	0.089578
1113.432886	0.084983
1113.592270	0.080861
1113.751635	0.079204
1113.910983	0.081950
1114.070312	0.075543
1114.229622	0.075345
1114.388915	0.074657
1114.548189	0.074054
1114.707445	0.075136
1114.866683	0.077774
1115.025903	0.077465
1115.185104	0.081509
1115.344287	0.078107
1115.503452	0.075430
1115.662599	0.073688
1115.821727	0.077099
1115.980838	0.074344
1116.139930	0.074261
1116.299004	0.078482
1116.458059	0.079484
1116.617097	0.076652
1116.776116	0.079046
1116.935117	0.079113
1117.094099	0.083832
1117.253064	0.078385
1117.412010	0.082558
1117.570938	0.082691
1117.729848	0.077574
1117.888740	0.081483
1118.047613	0.080305
1118.206468	0.080634
1118.365305	0.086827
1118.524124	0.091119
1118.682924	0.091990
1118.841707	0.088281
1119.000471	0.085632
1119.159216	0.093601
1119.317944	0.093650
1119.476653	0.095113
1119.635344	0.091466
1119.794017	0.086632
1119.952672	0.078006
1120.111308	0.072502
1120.269927	0.079852
1120.428527	0.081023
1120.587108	0.077381
1120.745672	0.072738
1120.904217	0.073893
1121.062744	0.079153
1121.221253	0.084802
1121.379744	0.090129
1121.538216	0.094015
1121.696671	0.093083
1121.855107	0.099074
1122.013524	0.096801
1122.171924	0.099311
1122.330305	0.100365
1122.488668	0.095601
1122.647013	0.089969
1122.805340	0.087223
1122.963648	0.090325
1123.121938	0.088355
1123.280210	0.084049
1123.438464	0.084177
1123.596700	0.090960
1123.754917	0.088145
1123.913116	0.093038
1124.071297	0.099787
1124.229459	0.096628
1124.387604	0.091462
1124.545730	0.095572
1124.703838	0.094071
1124.861928	0.093878
1125.019999	0.087177
1125.178052	0.083452
1125.336088	0.082725
1125.494104	0.079730
1125.652103	0.087810
1125.810083	0.096939
1125.968045	0.089557
1126.125989	0.092000
1126.283915	0.103536
1126.441823	0.104462
1126.599712	0.111287
1126.757583	0.107271
1126.915436	0.109342
1127.073270	0.109244
1127.231087	0.101991
1127.388885	0.098792
1127.546665	0.101113
1127.704426	0.087068
1127.862170	0.082580
1128.019895	0.080278
1128.177602	0.084069
1128.335291	0.080792
1128.492961	0.077153
1128.650614	0.075829
1128.808248	0.083592
1128.965864	0.082323
1129.123461	0.084990
1129.281041	0.094796
1129.438602	0.094297
1129.596145	0.089871
1129.753670	0.090969
1129.911176	0.091252
1130.068665	0.091137
1130.226135	0.084805
1130.383587	0.086562
1130.541020	0.089136
1130.698436	0.081444
1130.855833	0.087193
1131.013212	0.090226
1131.170573	0.093069
1131.327915	0.094320
1131.485239	0.097916
1131.642545	0.110933
1131.799833	0.107571
1131.957103	0.120170
1132.114354	0.123169
1132.271588	0.118456
1132.428803	0.116011
1132.585999	0.110762
1132.743178	0.107645
1132.900338	0.107344
1133.057480	0.099552
1133.214604	0.100171
1133.371710	0.091093
1133.528797	0.086481
1133.685866	0.083154
1133.842917	0.094659
1133.999950	0.097499
1134.156964	0.104708
1134.313960	0.101084
1134.470938	0.104214
1134.627898	0.099921
1134.784840	0.105157
1134.941763	0.110139
1135.098668	0.113423
1135.255555	0.098277
1135.412424	0.100127
1135.569274	0.099913
1135.726107	0.106822
1135.882921	0.103784
1136.039716	0.107758
1136.196494	0.098335
1136.353253	0.088581
1136.509995	0.085917
1136.666717	0.094694
1136.823422	0.092584
1136.980109	0.094516
1137.136777	0.087427
1137.293427	0.094322
1137.450059	0.097947
1137.606672	0.090899
1137.763267	0.100867
1137.919844	0.099934
1138.076403	0.097554
1138.232944	0.101931
1138.389466	0.095776
1138.545971	0.095706
1138.702457	0.089010
1138.858924	0.088231
1139.015374	0.102502
1139.171805	0.094539
1139.328218	0.104846
1139.484613	0.111098
1139.640990	0.107613
1139.797348	0.106756
1139.953688	0.116903
1140.110010	0.117486
1140.266314	0.113242
1140.422600	0.096778
1140.578867	0.104683
1140.735116	0.089044
1140.891347	0.069326
1141.047559	0.065958
1141.203754	0.063245
1141.359930	0.060111
1141.516088	0.059555
1141.672228	0.056165
1141.828349	0.069010
1141.984452	0.070046
1142.140537	0.080715
1142.296604	0.090801
1142.452653	0.099579
1142.608683	0.100937
1142.764695	0.096748
1142.920689	0.094076
1143.076665	0.104458
1143.232622	0.102388
1143.388562	0.099325
1143.544483	0.103378
1143.700385	0.115978
1143.856270	0.110203
1144.012136	0.107947
1144.167985	0.106686
1144.323814	0.103409
1144.479626	0.102242
1144.635420	0.102420
1144.791195	0.103550
1144.946952	0.094590
1145.102691	0.083688
1145.258411	0.078327
1145.414113	0.081825
1145.569798	0.080953
1145.725463	0.083314
1145.881111	0.086014
1146.036741	0.085855
1146.192352	0.083461
1146.347945	0.088829
1146.503519	0.087206
1146.659076	0.086536
1146.814614	0.095841
1146.970134	0.096429
1147.125636	0.097304
1147.281120	0.090127
1147.436585	0.090744
1147.592032	0.092777
1147.747461	0.093221
1147.902872	0.098777
1148.058265	0.108382
1148.213639	0.101081
1148.368995	0.102445
1148.524333	0.106178
1148.679653	0.103329
1148.834954	0.104367
1148.990237	0.098182
1149.145502	0.100953
1149.300749	0.099234
1149.455977	0.099514
1149.611188	0.107959
1149.766380	0.116021
1149.921553	0.112256
1150.076709	0.110812
1150.231846	0.100084
1150.386966	0.106897
1150.542066	0.097565
1150.697149	0.100204
1150.852214	0.095597
1151.007260	0.088980
1151.162288	0.091193
1151.317298	0.094838
1151.472289	0.100518
1151.627263	0.111679
1151.782218	0.106420
1151.937155	0.113313
1152.092073	0.109521
1152.246974	0.105295
1152.401856	0.103403
1152.556720	0.096065
1152.711566	0.098880
1152.866393	0.086210
1153.021203	0.079176
1153.175994	0.086461
1153.330767	0.083304
1153.485521	0.079347
1153.640258	0.091562
1153.794976	0.089772
1153.949676	0.091908
1154.104358	0.081470
1154.259021	0.088083
1154.413667	0.091018
1154.568294	0.092494
1154.722903	0.094439
1154.877493	0.098011
1155.032066	0.087553
1155.186620	0.087814
1155.341156	0.087568
1155.495674	0.091495
1155.650173	0.100079
1155.804654	0.111353
1155.959118	0.109353
1156.113562	0.108162
1156.267989	0.119083
1156.422397	0.110109
1156.576788	0.101863
1156.731160	0.087536
1156.885513	0.088514
1157.039849	0.080684
1157.194166	0.066619
1157.348465	0.062980
1157.502746	0.066114
1157.657009	0.062235
1157.811253	0.075390
1157.965479	0.093913
1158.119687	0.108512
1158.273877	0.118202
1158.428048	0.124638
1158.582201	0.141916
1158.736337	0.131412
1158.890453	0.118700
1159.044552	0.120393
1159.198632	0.125427
1159.352694	0.110859
1159.506738	0.101296
1159.660764	0.083649
1159.814771	0.080274
1159.968761	0.068659
1160.122732	0.084251
1160.276685	0.095793
1160.430619	0.099647
1160.584535	0.093022
1160.738434	0.097224
1160.892313	0.100111
1161.046175	0.107648
1161.200019	0.110870
1161.353844	0.102694
1161.507651	0.104430
1161.661440	0.099303
1161.815210	0.106977
1161.968962	0.118251
1162.122697	0.123494
1162.276412	0.129404
1162.430110	0.134160
1162.583789	0.129786
1162.737451	0.132538
1162.891094	0.117353
1163.044718	0.114713
1163.198325	0.109838
1163.351913	0.097221
1163.505483	0.088817
1163.659035	0.099722
1163.812569	0.099657
1163.966084	0.103494
1164.119581	0.115580
1164.273060	0.133205
1164.426521	0.135102
1164.579964	0.124318
1164.733388	0.121545
1164.886794	0.133974
1165.040182	0.115851
1165.193551	0.104514
1165.346903	0.097337
1165.500236	0.075461
1165.653551	0.053440
1165.806848	0.063756
1165.960126	0.057993
1166.113386	0.064331
1166.266628	0.052334
1166.419852	0.065565
1166.573058	0.077969
1166.726245	0.093760
1166.879414	0.126773
1167.032565	0.147475
1167.185698	0.124062
1167.338812	0.132978
1167.491909	0.131126
1167.644987	0.143436
1167.798046	0.145580
1167.951088	0.143550
1168.104111	0.143874
1168.257117	0.129961
1168.410103	0.127409
1168.563072	0.140909
1168.716023	0.146102
1168.868955	0.120848
1169.021869	0.105763
1169.174765	0.085497
1169.327642	0.103400
1169.480501	0.072893
1169.633343	0.081247
1169.786165	0.065351
1169.938970	0.051333
1170.091757	0.061263
1170.244525	0.083494
1170.397275	0.094731
1170.550007	0.106406
1170.702720	0.063338
1170.855415	0.077074
1171.008092	0.071728
1171.160751	0.092520
1171.313392	0.117934
1171.466014	0.035925
1171.618619	0.162481
1171.771205	0.162481
1171.923772	0.162481
