sample name	sample
index	406
start time	 03-08-2021  10:41:12 AM
880	0.243503
Peak Time (s)	91.036
Peak Height 	0.2435
calc peak height	90,93
Baseline Time (s)	11.535
Baseline Value 	-0.002125
subtract baseline	10,4
Abs	0.156946
Peak Time (s)	91.534
Peak Height 	0.1569
calc peak height	90,93
Baseline Time (s)	9.537
Baseline Value 	0.002858
subtract baseline	10,3
PK_550	0.076071
Peak Time (s)	90.036
Peak Height 	0.07607
calc peak height	90,93
Baseline Time (s)	9.537
Baseline Value 	8.6819E-4
subtract baseline	10,2
PK_880	0.146147
Peak Time (s)	92.538
Peak Height 	0.1461
calc peak height	90,93
Baseline Time (s)	10.537
Baseline Value 	7.6094E-4
subtract baseline	10,1


Time (s)	A880-A510	A880-A775	A880-A975	A880	I510	I775	I975	I880	
0.036500	-0.004755	-0.001160	-0.006239	0.006971	6882.335453	46551.226445	3927.749313	24498.427679
0.537000	-0.001851	-0.000284	0.003023	0.005570	6923.026377	46780.987648	3956.603688	24568.567155
1.037500	-0.004171	-0.001641	-0.005107	0.003019	6925.221495	46902.055125	3941.417735	24696.863563
1.535000	-0.001032	0.000050	-0.004729	0.001955	6965.364578	47182.496605	3945.322902	24750.605012
2.038500	-0.001655	-0.000849	-0.003269	0.000733	6971.117105	47215.551536	3952.623538	24812.491842
2.538500	0.000011	-0.000481	-0.004186	0.000509	6989.331728	47276.136792	3950.734171	24823.875886
3.036000	0.001187	-0.000532	-0.001996	-0.001332	7018.550800	47459.628082	3961.773482	24917.460929
3.536000	-0.002948	-0.000107	-0.002017	0.001888	6947.663703	47173.317462	3952.888371	24754.002948
4.036500	-0.001657	-0.000015	-0.002471	0.000898	6969.520619	47283.981251	3954.353762	24804.129186
4.539500	0.000018	-0.000698	-0.000618	0.000136	6992.997341	47292.008854	3961.525466	24842.782913
5.039500	-0.001432	-0.000618	-0.003230	0.000421	6976.265663	47271.104871	3953.583945	24828.337507
5.543000	-0.000335	-0.000005	0.000345	0.000626	6984.865599	47312.846040	3962.827516	24817.949550
6.035000	-0.002901	-0.000659	0.000536	-0.000067	6966.838728	47316.740062	3965.261801	24853.089530
6.535000	-0.002065	-0.000806	0.000009	-0.000054	6974.746502	47300.442057	3963.774703	24852.448359
7.035500	-0.000417	-0.000390	-0.001958	0.000139	6988.767780	47323.236325	3957.836228	24842.636148
7.535500	-0.002304	-0.000468	-0.004359	-0.000361	6975.401015	47366.511086	3952.634279	24868.040806
8.036000	-0.000848	-0.000536	-0.000404	-0.000463	6990.416195	47369.949337	3963.763670	24873.209412
8.539000	0.000093	-0.000087	0.000767	0.000039	6994.656873	47364.617432	3965.607488	24847.718633
9.036500	-0.000776	0.000189	0.000393	-0.000298	6989.516121	47427.520545	3965.507941	24864.854936
9.537000	-0.001404	0.000000	0.000000	0.000004	6980.547103	47377.050109	3963.589121	24849.479734
10.037000	0.000303	-0.000066	0.000407	-0.000147	6998.487065	47385.763501	3965.126725	24857.151437
10.537000	0.000000	-0.000469	-0.000101	-0.000240	6996.450597	47354.005332	3963.981699	24861.872983
11.034500	0.001427	0.000231	-0.001010	0.000289	7005.151870	47371.548867	3960.027249	24835.036673
11.535000	-0.000155	0.000024	-0.003746	0.000000	6992.640711	47379.969398	3953.323243	24849.698842
12.035500	-0.000298	0.000264	-0.005864	0.000250	6988.847081	47378.974158	3946.872055	24837.007373
12.536000	0.000475	0.000146	0.001415	0.000241	6996.400349	47367.704009	3966.840269	24837.459063
13.036000	-0.003380	-0.000436	-0.004432	0.003465	6928.509924	46979.223703	3942.038928	24674.424437
13.536500	0.001058	-0.000467	0.000749	-0.000773	7011.866281	47408.860243	3967.801968	24888.987570
14.037000	-0.002350	-0.000529	-0.004566	-0.000928	6980.417011	47418.452145	3953.619560	24896.900973
14.537000	-0.003150	-0.000738	-0.003582	0.002480	6940.080791	47048.542365	3947.012330	24724.064752
15.040000	-0.002507	0.000076	-0.004142	0.004037	6931.367610	46973.035261	3941.275739	24645.589237
15.562000	-0.000849	-0.000530	0.000058	-0.001217	6997.692281	47447.977821	3967.117583	24911.582457
16.037500	-0.000485	-0.000411	-0.002775	-0.000883	6997.987793	47425.975783	3958.400255	24894.599113
16.535500	-0.001378	-0.001354	-0.000097	-0.001505	6995.362623	47392.916403	3967.484908	24926.262582
17.036500	-0.000948	-0.000932	-0.002059	0.002190	6963.928966	47058.422093	3951.952304	24738.764765
17.536000	-0.001352	-0.000630	-0.005772	0.001170	6969.839847	47193.219302	3944.624695	24790.364171
18.036500	-0.001287	0.000031	0.002742	0.001019	6971.905219	47276.197785	3968.357198	24797.989759
18.537500	-0.001804	-0.000590	0.000802	0.000869	6968.392229	47228.076937	3963.417604	24805.619861
19.036500	-0.001712	0.000083	-0.000677	0.002240	6956.118329	47156.827671	3955.590141	24736.229988
19.537000	-0.001039	-0.000129	0.004222	0.001507	6969.603378	47210.035279	3971.105773	24773.298135
20.037000	-0.002199	-0.000192	-0.001975	0.001192	6961.494315	47235.786740	3954.907943	24789.245655
20.534500	-0.001909	-0.000567	0.000157	0.000916	6966.926626	47225.585275	3961.512023	24803.221262
21.035000	-0.001207	-0.001087	-0.002278	0.001912	6964.110344	47070.985599	3952.111204	24752.809920
21.535500	-0.001869	-0.000812	-0.004766	0.001044	6966.076949	47187.492985	3947.698592	24796.729985
22.035000	-0.001691	0.000495	-0.000538	0.001678	6961.713639	47256.374370	3957.512489	24764.652274
22.536000	-0.001818	-0.000277	-0.001451	0.001096	6966.067314	47236.819005	3956.602483	24794.086348
23.036500	-0.001994	-0.000349	-0.002924	0.002487	6951.054754	47087.492932	3948.782302	24723.717293
23.536500	-0.002803	-0.000520	-0.000503	0.001252	6955.135645	47196.183673	3958.777271	24786.219030
24.037000	-0.001573	-0.000401	-0.004996	0.001121	6968.181798	47221.648297	3946.863861	24792.850969
24.540000	-0.000695	-0.000942	-0.004712	0.000458	6982.999344	47234.076285	3949.439489	24826.423204
25.035000	-0.000958	-0.000690	0.002364	0.001129	6974.017430	47191.279084	3967.008413	24792.432213
25.535000	-0.000531	-0.000947	-0.002178	0.000922	6980.111914	47186.145740	3955.089238	24802.894951
26.035500	0.000041	0.000390	0.000568	0.001822	6976.955554	47230.809751	3960.149639	24757.334888
26.536000	-0.002620	-0.000380	0.000380	0.000991	6959.386155	47237.143158	3961.920212	24799.423793
27.036000	0.000766	0.000187	0.000461	0.001754	6984.595286	47216.966860	3960.041898	24760.770279
27.536000	0.001332	0.000106	0.003095	-0.000767	7014.462646	47467.125115	3974.288616	24888.678070
28.036500	0.001886	-0.000208	0.000917	-0.000966	7021.787399	47455.344793	3968.800780	24898.843338
28.537000	0.001246	-0.000844	0.002582	-0.000954	7015.442169	47388.703830	3973.382362	24898.196453
29.039500	0.000552	-0.000048	-0.002035	-0.000309	7002.465236	47404.319744	3958.855851	24865.423940
29.537500	-0.005050	-0.000760	0.000074	0.004190	6905.783370	46872.583374	3952.313001	24637.880956
30.034500	0.000033	-0.000166	0.002737	-0.000335	6997.699050	47394.843199	3972.097217	24866.740422
30.534000	0.001037	-0.000010	0.003304	-0.000547	7009.473084	47432.604487	3974.259611	24877.516893
31.046000	-0.003063	0.000130	-0.006422	0.005284	6914.248323	46852.027312	3931.776802	24582.950511
31.535500	-0.002883	-0.000087	-0.001767	0.005574	6913.200863	46800.586720	3943.542413	24568.386165
32.054500	-0.001224	-0.000261	0.002588	-0.000135	6983.621742	47364.573670	3971.127410	24856.533973
32.547000	-0.000802	-0.000777	-0.003520	-0.000918	6995.254221	47391.972707	3956.453412	24896.372755
33.036500	-0.004837	-0.000390	0.001937	0.004212	6907.598884	46907.958506	3957.349819	24636.798383
33.537000	-0.004233	-0.001083	-0.003467	0.004886	6906.935575	46769.468089	3940.804959	24602.917733
34.037000	-0.000282	-0.000611	-0.002050	-0.000810	6999.241137	47397.911684	3960.189764	24890.900246
34.537500	0.001243	-0.000230	0.001375	-0.001779	7023.440606	47536.597184	3972.321409	24940.234614
35.035000	-0.002483	-0.000437	0.004887	0.003290	6938.712572	46996.823213	3968.007225	24683.202779
35.535000	-0.003795	-0.001102	-0.000948	0.002794	6930.940079	46979.594220	3953.335189	24708.229497
36.035500	-0.003542	-0.000329	0.000960	0.002104	6939.926290	47128.635726	3960.452721	24743.082509
36.536000	-0.001331	0.000301	-0.001287	0.002849	6953.934328	47116.820907	3952.258021	24705.440241
37.036000	-0.001660	0.000045	0.001193	0.003532	6944.258078	47021.237701	3957.173257	24671.004298
37.536000	-0.001161	-0.001030	0.000474	0.001699	6966.589710	47098.435009	3960.231524	24763.585824
38.037000	-0.001717	-0.000163	-0.000838	0.002806	6950.658547	47074.053462	3953.601383	24707.639887
38.540000	-0.002466	-0.000295	0.000291	0.002182	6949.462616	47124.171601	3958.402063	24739.140261
39.040000	-0.000583	-0.000543	-0.002705	0.001906	6970.150774	47126.945284	3950.962805	24753.083500
39.537500	-0.001941	-0.000014	0.003831	0.001940	6956.797597	47177.478014	3968.821660	24751.369752
40.035000	-0.002017	-0.000121	-0.001959	0.002294	6952.677426	47130.431125	3951.937276	24733.462782
40.535000	-0.002098	-0.000507	-0.002541	0.002100	6953.762139	47110.880612	3950.880901	24743.284051
41.035500	-0.003405	-0.000763	-0.000404	0.002978	6932.907227	46995.431163	3954.320402	24698.973420
41.536000	-0.003537	-0.000442	-0.001791	0.002209	6938.978439	47106.437343	3952.630750	24737.798215
42.036000	0.000001	-0.000451	-0.000164	0.002341	6971.586090	47092.085140	3956.719692	24731.134694
42.536500	-0.003724	-0.000186	0.001424	0.002285	6936.463202	47124.722277	3961.230044	24733.920520
43.037000	-0.002248	0.000005	0.000997	0.003412	6939.796396	47029.370755	3956.964540	24677.068164
43.537000	-0.000654	0.000588	-0.002486	0.003825	6951.074863	47046.645910	3946.335984	24656.246926
44.035000	0.000772	-0.000035	-0.000851	0.003143	6971.282475	47052.668310	3952.644349	24690.608266
44.537500	-0.002176	0.000247	-0.001402	0.001960	6954.362304	47202.117467	3954.374350	24750.385751
45.035500	-0.002821	-0.000768	-0.002852	0.003229	6936.085870	46969.485279	3946.962290	24686.319040
45.535000	-0.001384	-0.000159	0.001641	0.005109	6931.858631	46840.319922	3954.082387	24591.696096
46.057500	0.001495	-0.000458	0.001683	-0.000604	7014.468180	47392.439831	3969.920105	24880.396364
46.536000	-0.000234	-0.000421	-0.001872	-0.000455	6996.272331	47380.973355	3959.701926	24872.827264
47.036500	-0.000642	0.000096	0.003821	0.003820	6951.240085	46997.077384	3963.603030	24656.505979
47.536500	-0.002233	-0.000505	-0.000553	0.005960	6915.704933	46719.225089	3945.789172	24549.021912
48.039500	0.000753	-0.000379	0.002525	-0.000249	7003.828761	47364.205387	3971.269941	24862.348196
48.537000	-0.000791	0.000506	0.000175	0.003225	6955.502157	47099.491791	3955.226500	24686.497630
49.037500	-0.001767	-0.000516	-0.000259	0.004839	6930.780687	46831.586022	3949.636415	24605.257796
49.535000	-0.003750	-0.000161	-0.003150	0.006191	6899.161353	46730.657031	3938.138805	24537.469566
50.035000	0.001141	-0.000005	0.001177	-0.000252	7007.621206	47402.906911	3967.546516	24862.514391
50.535500	0.000163	-0.000278	-0.002272	-0.000233	6997.962792	47372.840557	3957.995060	24861.536018
51.035500	-0.001430	-0.000036	0.000410	0.004238	6939.718281	46941.234411	3953.100772	24635.487621
51.536500	-0.002822	0.000274	0.000181	0.006581	6904.251066	46735.266598	3946.095267	24517.960954
52.037000	-0.001098	-0.000619	0.003166	0.005179	6933.911157	46786.719897	3958.067856	24588.197656
52.537000	-0.001450	-0.001751	0.006738	0.043872	6578.254248	42935.180021	3865.531503	22730.132375
53.037000	-0.025764	-0.017538	-0.001043	0.103895	5910.949722	36511.476030	3706.732635	20156.262188
53.534500	-0.023234	-0.020837	0.005061	-0.016264	6927.323578	46910.926612	4023.826591	25691.468119
54.034500	-0.018571	-0.039656	0.002734	-0.157527	8576.563971	61267.805069	4497.686330	34494.772130
54.535000	-0.024544	-0.024547	0.001668	-0.087936	7653.669227	54377.988202	4237.816126	29800.614117
55.035500	-0.033116	-0.023428	-0.010775	-0.076230	7432.132351	53136.656042	4158.257715	29082.310895
55.535500	-0.007682	-0.016763	-0.001010	-0.109903	8107.842341	58032.941412	4304.614848	31201.946033
56.035500	0.011563	-0.016899	0.011561	-0.129728	8607.715703	60593.295487	4423.703064	32528.955304
56.536500	0.020331	-0.008514	0.016174	-0.103115	8373.818908	58219.002954	4341.866702	30761.340490
57.036500	0.025707	-0.002549	0.019696	-0.077721	8122.619272	55795.683525	4264.515097	29172.716958
57.539500	0.030703	0.003739	0.032354	-0.039046	7725.264692	51989.601263	4177.433579	26924.874391
58.037000	0.039239	0.007382	0.037729	-0.021725	7626.584403	50465.453258	4139.164202	25981.256467
58.537500	0.045522	0.013374	0.044553	0.013362	7316.687576	47378.706511	4052.706667	24181.309036
59.035500	0.056240	0.018649	0.051300	0.045882	7095.422594	44669.866677	3978.623611	22638.069802
59.535500	0.065001	0.025092	0.067510	0.069548	6950.424697	43043.107096	3957.996489	21585.434991
60.035500	0.074147	0.032678	0.080306	0.094792	6799.305142	41440.837608	3924.342657	20524.102154
60.535500	0.085234	0.038509	0.086752	0.114094	6724.324110	40261.672271	3890.585439	19753.195675
61.035500	0.092306	0.044152	0.098898	0.130278	6642.788850	39364.103158	3880.186635	19132.713450
61.536000	0.096396	0.048383	0.102878	0.146344	6538.196642	38381.893831	3849.632177	18539.194564
62.039500	0.105224	0.053695	0.113959	0.158318	6511.206533	37840.740993	3847.408175	18110.926232
62.536500	0.111557	0.056911	0.116861	0.166871	6492.265902	37413.144867	3833.440199	17812.156022
63.034500	0.116720	0.062752	0.119453	0.172021	6492.373118	37468.148589	3827.175419	17635.061134
63.534500	0.119998	0.065959	0.125424	0.175144	6493.703540	37474.905376	3834.153055	17528.712370
64.037500	0.120936	0.067098	0.122273	0.175122	6501.870461	37567.607213	3826.489606	17529.432019
64.535500	0.120870	0.068954	0.126626	0.178707	6470.867744	37429.609756	3828.367920	17408.294745
65.051000	0.125662	0.069959	0.129271	0.176718	6528.666690	37668.891944	3839.751490	17475.366031
65.545000	0.125325	0.070416	0.130798	0.182261	6478.496755	37263.337828	3829.878618	17289.145860
66.039000	0.128049	0.071494	0.134482	0.179919	6521.686264	37535.560413	3844.729092	17367.546955
66.537000	0.131365	0.071828	0.130857	0.181772	6534.246930	37414.353317	3831.218539	17305.465502
67.036500	0.125062	0.070295	0.129690	0.187475	6432.362601	36842.963470	3814.517756	17116.131774
67.537500	0.130367	0.072242	0.134076	0.188176	6471.094825	36940.624517	3823.441856	17092.998929
68.037500	0.133083	0.072689	0.138183	0.187360	6501.099541	37040.022735	3835.488310	17119.907315
68.537500	0.131877	0.073294	0.134942	0.189967	6468.726629	36882.721062	3821.196751	17034.164501
69.035000	0.130486	0.073822	0.133712	0.197499	6394.067444	36337.910227	3800.139490	16789.256720
69.535500	0.131068	0.073521	0.134112	0.196944	6403.490475	36357.531071	3802.412999	16807.141939
70.035500	0.131034	0.074192	0.135462	0.194982	6419.537748	36561.389493	3810.340835	16870.614472
70.536000	0.135151	0.074619	0.134894	0.198097	6427.910998	36353.296671	3801.530793	16769.998951
71.036000	0.129227	0.073525	0.141038	0.203367	6335.523270	35865.623337	3803.613917	16601.376097
71.539500	0.132390	0.073876	0.137427	0.205402	6344.725990	35737.781989	3790.222430	16536.802493
72.036500	0.133437	0.073342	0.136219	0.201461	6385.696664	35996.934010	3796.681588	16662.109997
72.534000	0.133571	0.074584	0.144930	0.203580	6369.342022	35930.016116	3812.432755	16594.606635
73.034500	0.132069	0.075369	0.141230	0.211286	6294.409855	35406.716354	3785.331982	16351.828081
73.535000	0.133122	0.075070	0.136885	0.209833	6314.636637	35493.363198	3778.571549	16397.262162
74.035000	0.133954	0.075008	0.143961	0.208809	6329.708933	35565.900786	3797.619171	16429.406832
74.535000	0.132651	0.075432	0.141017	0.210153	6308.241998	35496.601460	3787.491294	16387.257047
75.035500	0.135336	0.075353	0.142227	0.211939	6315.519023	35356.563150	3786.137930	16331.441538
75.536500	0.137085	0.076324	0.144338	0.216024	6296.649194	35124.273261	3781.518254	16204.692660
76.036000	0.134787	0.075819	0.140272	0.214530	6290.176292	35197.850675	3775.525383	16250.907994
76.536500	0.135800	0.074939	0.144762	0.215414	6291.206903	35066.607496	3783.934448	16223.520247
77.037000	0.132587	0.075162	0.143115	0.222843	6206.635839	34536.122130	3762.900925	15995.694504
77.537000	0.136231	0.075500	0.145878	0.218204	6272.290728	34901.653461	3780.023944	16137.521236
78.035000	0.137800	0.075753	0.148936	0.219412	6275.174156	34831.176612	3784.346992	16100.441656
78.535500	0.137859	0.076113	0.144122	0.220695	6265.388121	34763.186682	3770.164379	16061.178766
79.035500	0.136590	0.076496	0.143750	0.222277	6242.691706	34675.177450	3765.660395	16012.918822
79.536000	0.139265	0.075900	0.147276	0.223087	6257.521159	34572.288082	3771.925175	15988.286787
80.036000	0.139467	0.075553	0.145109	0.223901	6252.648596	34487.513760	3765.050701	15963.577177
80.539000	0.139267	0.075105	0.151199	0.224702	6244.697442	34396.599777	3777.279724	15939.292905
81.039500	0.138325	0.075033	0.149809	0.224760	6236.771783	34387.156540	3773.917841	15937.553977
81.539500	0.139968	0.074813	0.146682	0.225804	6241.516427	34295.478287	3764.292091	15905.979724
82.037000	0.141766	0.076610	0.149083	0.228288	6236.076013	34245.684503	3764.102825	15831.175458
82.534500	0.141351	0.074685	0.145911	0.227026	6242.790671	34197.759140	3759.726275	15869.128187
83.035000	0.139803	0.075883	0.149086	0.228558	6218.442532	34173.678803	3763.490789	15823.075198
83.535000	0.139078	0.075743	0.147775	0.229107	6208.420818	34123.981828	3759.230398	15806.602232
84.035500	0.140890	0.075800	0.150243	0.230120	6214.705029	34055.204008	3762.560574	15776.278733
84.536000	0.144447	0.076752	0.149438	0.231844	6229.158583	33999.718130	3756.777626	15724.820347
85.036000	0.137279	0.076249	0.146802	0.237915	6126.124568	33531.491744	3737.131430	15545.281470
85.537000	0.143737	0.076268	0.153436	0.233718	6208.800275	33830.882945	3761.630583	15669.124680
86.036500	0.141760	0.075960	0.152756	0.233310	6196.494655	33838.081001	3761.008340	15681.236796
86.537000	0.142446	0.076392	0.155372	0.233820	6197.878388	33832.476047	3765.841312	15666.112375
87.034500	0.141871	0.074100	0.148043	0.237616	6163.821439	33400.938676	3740.578746	15554.050578
87.535000	0.146847	0.076311	0.151566	0.236157	6214.076455	33660.320275	3751.810386	15597.003307
88.035000	0.145555	0.075514	0.151785	0.235346	6210.295523	33661.392475	3754.152112	15620.963941
88.535500	0.145173	0.076343	0.155298	0.235656	6204.864348	33698.276920	3761.459960	15611.802312
89.035500	0.141637	0.075881	0.146984	0.242402	6125.142477	33190.146603	3727.562399	15414.185404
89.536000	0.146597	0.075133	0.153860	0.237776	6199.405505	33462.423865	3753.344511	15549.357246
90.036000	0.145108	0.076071	0.154575	0.237298	6191.498374	33562.534459	3756.058159	15563.422496
90.539000	0.145237	0.075220	0.154761	0.237168	6193.517005	33511.531255	3756.776644	15567.241082
91.036000	0.142106	0.074978	0.148295	0.243503	6120.301832	33050.367828	3728.026792	15382.213757
91.534000	0.146091	0.075526	0.156946	0.239420	6182.597540	33374.316030	3756.624131	15501.141999
92.037500	0.145487	0.075305	0.153957	0.238623	6184.108055	33414.909852	3751.640968	15524.499610
92.538000	0.146147	0.075281	0.154653	0.239201	6184.744683	33372.521785	3751.908659	15507.551911
93.035000	0.144385	0.075224	0.152308	0.245582	6121.826428	32923.088361	3732.316635	15322.079091
93.535500	0.146951	0.075706	0.151254	0.240716	6179.206885	33295.981244	3740.827501	15463.291757
94.036000	0.148335	0.076630	0.156688	0.241257	6185.780383	33322.817942	3751.861098	15447.506650
94.535500	0.145487	0.075181	0.157524	0.240448	6169.905151	33277.936803	3755.599016	15471.107606
95.039000	0.145257	0.074469	0.156456	0.246836	6118.910045	32784.241875	3738.770749	15285.950632
95.534000	0.148043	0.074568	0.153857	0.241539	6181.297999	33158.682559	3744.826209	15439.283717
96.058500	0.147042	0.074482	0.159357	0.241437	6174.303491	33159.807219	3757.522035	15442.246026
96.537500	0.146682	0.073504	0.155653	0.240917	6175.550462	33127.843183	3750.287070	15457.406664
97.034500	0.149509	0.074771	0.160066	0.242528	6185.018406	33103.848504	3756.652447	15410.517912
97.535000	0.145925	0.074903	0.151730	0.243767	6147.605140	33026.754213	3735.068222	15374.549996
98.058000	0.147182	0.074103	0.152577	0.243208	6161.653593	33010.094077	3738.209580	15390.784357
98.535500	0.149689	0.074633	0.153816	0.243910	6175.660346	32998.144070	3739.411101	15370.427233
