sample name	sample
index	925
start time	 04-12-2021  12:03:11 PM


Wavelength (nm)	Absorbance
494.344910	NaN
494.563924	NaN
494.782919	NaN
495.001897	0.367063
495.220856	NaN
495.439797	NaN
495.658719	-0.194380
495.877624	-0.403867
496.096510	-0.685561
496.315378	-0.785628
496.534227	-0.628844
496.753059	-0.629153
496.971872	-0.307067
497.190667	0.032620
497.409444	0.046270
497.628203	0.052881
497.846943	0.054163
498.065665	0.055976
498.284369	0.056542
498.503055	0.056835
498.721723	0.056590
498.940372	0.056035
499.159003	0.056272
499.377616	0.057175
499.596210	0.057084
499.814787	0.058110
500.033345	0.057522
500.251885	0.057785
500.470406	0.057877
500.688910	0.058825
500.907395	0.059509
501.125862	0.058329
501.344311	0.057581
501.562742	0.057352
501.781154	0.056224
501.999548	0.056697
502.217924	0.056593
502.436282	0.058195
502.654621	0.057732
502.872942	0.057925
503.091245	0.059929
503.309530	0.059822
503.527797	0.060232
503.746045	0.060698
503.964275	0.060912
504.182487	0.061952
504.400681	0.060368
504.618856	0.060961
504.837013	0.061126
505.055152	0.060199
505.273273	0.060901
505.491376	0.061425
505.709460	0.061864
505.927526	0.062833
506.145574	0.062195
506.363604	0.062711
506.581615	0.062384
506.799608	0.062835
507.017583	0.062806
507.235540	0.063034
507.453478	0.062795
507.671399	0.062787
507.889301	0.061960
508.107185	0.062466
508.325050	0.062141
508.542898	0.062176
508.760727	0.062516
508.978538	0.062119
509.196330	0.062384
509.414105	0.063035
509.631861	0.063347
509.849599	0.063608
510.067319	0.063831
510.285021	0.063989
510.502704	0.063966
510.720369	0.064294
510.938016	0.065790
511.155645	0.066159
511.373255	0.066087
511.590848	0.066270
511.808422	0.065871
512.025977	0.065618
512.243515	0.066117
512.461034	0.066428
512.678536	0.065016
512.896018	0.064959
513.113483	0.065076
513.330930	0.065513
513.548358	0.065544
513.765768	0.066760
513.983160	0.067073
514.200533	0.066956
514.417889	0.067896
514.635226	0.068438
514.852545	0.069356
515.069845	0.069363
515.287128	0.069064
515.504392	0.069460
515.721638	0.069757
515.938866	0.070266
516.156075	0.070994
516.373267	0.071247
516.590440	0.072140
516.807594	0.070983
517.024731	0.070706
517.241850	0.071724
517.458950	0.071485
517.676032	0.070950
517.893095	0.070728
518.110141	0.070806
518.327168	0.070395
518.544177	0.070452
518.761168	0.071211
518.978141	0.071658
519.195095	0.071311
519.412031	0.071401
519.628949	0.071879
519.845849	0.072187
520.062731	0.072420
520.279594	0.072651
520.496439	0.072850
520.713266	0.073568
520.930074	0.073951
521.146865	0.073600
521.363637	0.073950
521.580391	0.074578
521.797127	0.074991
522.013844	0.074499
522.230543	0.074938
522.447224	0.075678
522.663887	0.075570
522.880532	0.075443
523.097158	0.075905
523.313766	0.076461
523.530356	0.076102
523.746928	0.076592
523.963481	0.077993
524.180017	0.078122
524.396534	0.077920
524.613032	0.077894
524.829513	0.078270
525.045975	0.078587
525.262420	0.079035
525.478845	0.079541
525.695253	0.079441
525.911643	0.078600
526.128014	0.079042
526.344367	0.079467
526.560702	0.080022
526.777018	0.081032
526.993316	0.081979
527.209597	0.082305
527.425858	0.083031
527.642102	0.083763
527.858328	0.084521
528.074535	0.084960
528.290724	0.085144
528.506894	0.085694
528.723047	0.086015
528.939181	0.086285
529.155297	0.086390
529.371395	0.086404
529.587475	0.086409
529.803536	0.086835
530.019579	0.087467
530.235604	0.087606
530.451611	0.087517
530.667600	0.087179
530.883570	0.087178
531.099522	0.087563
531.315456	0.088159
531.531372	0.088492
531.747269	0.089145
531.963148	0.089045
532.179009	0.089744
532.394852	0.090195
532.610676	0.090928
532.826482	0.091674
533.042271	0.091922
533.258040	0.092307
533.473792	0.092618
533.689525	0.093367
533.905240	0.093620
534.120937	0.094085
534.336616	0.094807
534.552277	0.094861
534.767919	0.095030
534.983543	0.095346
535.199149	0.095272
535.414736	0.095799
535.630306	0.095610
535.845857	0.096305
536.061390	0.096510
536.276904	0.096488
536.492401	0.097156
536.707879	0.097278
536.923339	0.097773
537.138781	0.097677
537.354204	0.098190
537.569610	0.098681
537.784997	0.099280
538.000366	0.099792
538.215716	0.100164
538.431049	0.099865
538.646363	0.100446
538.861659	0.100616
539.076937	0.101199
539.292196	0.101201
539.507438	0.101371
539.722661	0.101283
539.937866	0.101338
540.153052	0.101770
540.368221	0.102821
540.583371	0.102970
540.798503	0.103518
541.013617	0.104054
541.228712	0.104279
541.443789	0.104419
541.658848	0.104784
541.873889	0.104755
542.088912	0.105273
542.303916	0.105109
542.518902	0.105440
542.733870	0.105736
542.948820	0.106290
543.163752	0.106454
543.378665	0.106510
543.593560	0.107071
543.808437	0.107809
544.023295	0.107670
544.238136	0.107804
544.452958	0.107984
544.667762	0.107942
544.882548	0.108083
545.097315	0.108638
545.312064	0.109029
545.526795	0.109253
545.741508	0.109057
545.956203	0.109745
546.170879	0.110578
546.385537	0.111103
546.600177	0.111516
546.814799	0.111929
547.029402	0.112189
547.243988	0.112896
547.458555	0.112983
547.673103	0.113072
547.887634	0.112837
548.102146	0.113130
548.316640	0.113498
548.531116	0.113982
548.745574	0.114048
548.960013	0.114456
549.174435	0.114599
549.388838	0.114773
549.603222	0.115554
549.817589	0.116532
550.031937	0.116616
550.246267	0.116619
550.460579	0.117133
550.674873	0.117089
550.889148	0.117176
551.103405	0.117476
551.317644	0.117951
551.531865	0.118532
551.746068	0.118645
551.960252	0.118994
552.174418	0.119701
552.388566	0.119647
552.602696	0.120242
552.816807	0.120662
553.030900	0.120746
553.244975	0.120914
553.459032	0.120795
553.673070	0.120758
553.887091	0.121038
554.101093	0.120962
554.315077	0.121174
554.529042	0.121745
554.742990	0.122095
554.956919	0.122644
555.170830	0.122749
555.384722	0.122844
555.598597	0.123184
555.812453	0.123139
556.026291	0.123293
556.240111	0.123223
556.453913	0.123100
556.667696	0.123139
556.881461	0.122822
557.095208	0.123062
557.308937	0.123467
557.522647	0.123395
557.736339	0.123830
557.950013	0.123923
558.163669	0.124218
558.377307	0.124056
558.590926	0.124309
558.804527	0.124583
559.018110	0.124644
559.231675	0.125076
559.445221	0.125205
559.658749	0.125243
559.872259	0.125816
560.085751	0.126020
560.299225	0.126388
560.512680	0.126217
560.726117	0.126562
560.939536	0.126963
561.152937	0.126670
561.366319	0.127072
561.579683	0.127537
561.793029	0.127514
562.006357	0.128150
562.219667	0.128467
562.432958	0.128946
562.646231	0.128937
562.859486	0.128989
563.072723	0.129472
563.285941	0.129682
563.499141	0.129715
563.712323	0.130318
563.925487	0.130094
564.138632	0.130086
564.351760	0.130593
564.564869	0.131067
564.777960	0.131521
564.991032	0.131964
565.204087	0.132130
565.417123	0.132289
565.630141	0.132035
565.843140	0.132388
566.056122	0.132881
566.269085	0.132830
566.482030	0.133120
566.694957	0.133074
566.907866	0.132849
567.120756	0.133031
567.333628	0.133165
567.546482	0.133514
567.759318	0.133700
567.972135	0.133777
568.184935	0.133901
568.397716	0.134233
568.610478	0.134572
568.823223	0.134834
569.035949	0.134941
569.248657	0.135241
569.461347	0.135122
569.674019	0.135186
569.886672	0.135048
570.099308	0.135057
570.311925	0.134810
570.524523	0.134801
570.737104	0.135021
570.949666	0.135371
571.162210	0.135321
571.374736	0.135588
571.587244	0.135744
571.799733	0.136122
572.012205	0.136465
572.224658	0.136926
572.437092	0.136876
572.649509	0.136765
572.861907	0.136867
573.074287	0.137091
573.286649	0.137327
573.498993	0.137371
573.711318	0.137641
573.923625	0.137760
574.135914	0.137833
574.348185	0.138554
574.560438	0.139021
574.772672	0.139096
574.984888	0.139418
575.197086	0.139529
575.409266	0.140004
575.621427	0.140415
575.833570	0.140589
576.045695	0.140520
576.257802	0.140701
576.469890	0.141093
576.681961	0.141029
576.894013	0.141536
577.106046	0.141356
577.318062	0.141635
577.530059	0.141566
577.742039	0.141820
577.954000	0.142309
578.165942	0.142403
578.377867	0.142790
578.589773	0.143274
578.801661	0.142919
579.013531	0.143235
579.225382	0.142786
579.437216	0.143139
579.649031	0.143231
579.860828	0.143306
580.072606	0.143291
580.284367	0.142964
580.496109	0.143055
580.707833	0.143480
580.919539	0.143701
581.131227	0.144403
581.342896	0.144304
581.554547	0.144399
581.766180	0.144271
581.977795	0.144298
582.189391	0.144535
582.400969	0.144914
582.612529	0.144666
582.824071	0.144812
583.035595	0.145011
583.247100	0.145635
583.458587	0.145817
583.670056	0.146252
583.881506	0.146691
584.092939	0.146831
584.304353	0.146814
584.515749	0.147366
584.727127	0.147778
584.938486	0.147968
585.149828	0.148097
585.361151	0.148318
585.572456	0.148517
585.783742	0.148558
585.995011	0.148816
586.206261	0.148803
586.417493	0.148644
586.628706	0.148700
586.839902	0.148513
587.051079	0.148378
587.262238	0.148147
587.473379	0.148292
587.684502	0.148620
587.895606	0.148508
588.106692	0.149411
588.317760	0.149971
588.528810	0.150304
588.739841	0.151016
588.950855	0.151495
589.161850	0.152399
589.372827	0.152760
589.583785	0.153062
589.794726	0.153742
590.005648	0.153992
590.216552	0.153853
590.427437	0.154267
590.638305	0.154345
590.849154	0.154642
591.059985	0.154704
591.270798	0.154669
591.481592	0.154567
591.692369	0.154741
591.903127	0.154810
592.113867	0.155494
592.324588	0.155353
592.535292	0.155723
592.745977	0.155758
592.956644	0.155698
593.167293	0.155855
593.377923	0.156211
593.588536	0.156249
593.799130	0.156177
594.009706	0.156064
594.220263	0.156213
594.430803	0.156032
594.641324	0.156155
594.851827	0.156495
595.062312	0.156665
595.272778	0.156742
595.483227	0.156846
595.693657	0.157007
595.904069	0.157123
596.114462	0.157333
596.324838	0.157318
596.535195	0.157479
596.745534	0.157406
596.955855	0.157582
597.166157	0.157872
597.376441	0.158059
597.586707	0.157963
597.796955	0.158190
598.007185	0.158651
598.217396	0.158698
598.427589	0.158785
598.637764	0.159187
598.847921	0.159551
599.058060	0.159330
599.268180	0.159396
599.478282	0.159545
599.688366	0.159702
599.898431	0.159343
600.108479	0.160126
600.318508	0.160117
600.528519	0.160182
600.738511	0.159985
600.948486	0.160695
601.158442	0.161109
601.368380	0.161295
601.578300	0.161631
601.788202	0.162146
601.998085	0.162127
602.207950	0.162472
602.417797	0.162836
602.627626	0.163345
602.837436	0.163342
603.047228	0.163367
603.257002	0.163444
603.466758	0.163667
603.676496	0.163819
603.886215	0.163803
604.095916	0.164182
604.305599	0.164397
604.515264	0.164893
604.724910	0.164905
604.934538	0.165112
605.144148	0.165823
605.353740	0.165904
605.563314	0.166140
605.772869	0.166512
605.982406	0.167025
606.191925	0.167199
606.401425	0.167016
606.610908	0.167347
606.820372	0.167334
607.029818	0.167389
607.239246	0.167394
607.448655	0.167643
607.658047	0.167631
607.867420	0.167316
608.076775	0.167314
608.286111	0.167496
608.495430	0.167476
608.704730	0.167858
608.914012	0.167760
609.123275	0.168037
609.332521	0.167890
609.541748	0.168012
609.750957	0.168145
609.960148	0.168384
610.169321	0.168564
610.378475	0.168996
610.587611	0.169099
610.796729	0.169446
611.005829	0.169419
611.214910	0.169455
611.423974	0.169566
611.633019	0.169812
611.842045	0.169771
612.051054	0.169768
612.260044	0.170049
612.469017	0.170201
612.677970	0.170346
612.886906	0.170402
613.095824	0.170992
613.304723	0.171428
613.513604	0.171527
613.722467	0.172029
613.931311	0.171979
614.140138	0.171720
614.348946	0.171805
614.557736	0.171917
614.766507	0.172363
614.975261	0.172100
615.183996	0.172032
615.392713	0.172247
615.601412	0.172099
615.810092	0.172711
616.018754	0.173059
616.227399	0.173245
616.436024	0.173345
616.644632	0.173352
616.853222	0.173831
617.061793	0.173969
617.270346	0.174198
617.478880	0.174518
617.687397	0.174452
617.895895	0.174369
618.104375	0.174405
618.312837	0.174719
618.521281	0.174869
618.729706	0.175095
618.938113	0.175264
619.146502	0.175493
619.354873	0.175602
619.563226	0.175909
619.771560	0.176407
619.979876	0.176522
620.188174	0.176676
620.396453	0.176881
620.604715	0.176986
620.812958	0.177327
621.021183	0.177467
621.229390	0.177498
621.437578	0.177389
621.645748	0.177484
621.853900	0.177861
622.062034	0.178126
622.270150	0.178300
622.478247	0.178500
622.686326	0.178613
622.894387	0.178759
623.102430	0.178929
623.310454	0.179173
623.518461	0.179347
623.726449	0.179406
623.934418	0.179562
624.142370	0.179779
624.350303	0.179809
624.558218	0.179834
624.766115	0.179840
624.973994	0.180410
625.181855	0.180626
625.389697	0.180788
625.597521	0.180992
625.805327	0.181008
626.013114	0.180841
626.220883	0.181090
626.428634	0.181449
626.636367	0.181621
626.844082	0.181585
627.051778	0.181757
627.259457	0.181721
627.467117	0.182046
627.674758	0.182371
627.882382	0.182931
628.089987	0.183319
628.297574	0.183474
628.505143	0.183632
628.712694	0.183531
628.920226	0.183903
629.127740	0.184312
629.335236	0.184575
629.542714	0.184737
629.750174	0.184885
629.957615	0.184713
630.165038	0.184721
630.372443	0.184717
630.579829	0.185095
630.787198	0.185343
630.994548	0.185502
631.201880	0.185215
631.409194	0.184942
631.616489	0.185175
631.823766	0.185533
632.031025	0.186014
632.238266	0.186585
632.445489	0.187125
632.652693	0.187257
632.859879	0.187315
633.067047	0.187879
633.274197	0.188200
633.481329	0.188310
633.688442	0.188504
633.895537	0.188448
634.102614	0.188393
634.309672	0.188038
634.516713	0.188010
634.723735	0.188244
634.930739	0.188358
635.137724	0.188767
635.344692	0.188768
635.551641	0.188776
635.758572	0.188995
635.965485	0.189144
636.172379	0.189532
636.379256	0.189680
636.586114	0.189933
636.792954	0.189902
636.999775	0.189939
637.206579	0.190303
637.413364	0.190532
637.620131	0.190647
637.826880	0.190799
638.033610	0.191003
638.240323	0.191295
638.447017	0.191463
638.653692	0.191882
638.860350	0.192028
639.066990	0.192124
639.273611	0.192225
639.480214	0.192518
639.686798	0.192790
639.893365	0.192723
640.099913	0.192801
640.306443	0.192775
640.512955	0.192914
640.719449	0.193263
640.925924	0.193475
641.132381	0.193719
641.338820	0.193555
641.545241	0.193651
641.751644	0.193968
641.958028	0.193934
642.164394	0.194045
642.370742	0.194154
642.577071	0.194082
642.783383	0.194253
642.989676	0.194386
643.195951	0.194877
643.402207	0.194877
643.608446	0.195025
643.814666	0.195489
644.020868	0.195883
644.227052	0.196087
644.433218	0.196756
644.639365	0.197070
644.845494	0.197255
645.051605	0.197273
645.257698	0.197543
645.463772	0.197754
645.669828	0.197946
645.875866	0.198155
646.081886	0.198438
646.287888	0.198120
646.493871	0.197911
646.699836	0.197942
646.905783	0.198272
647.111712	0.198459
647.317622	0.198705
647.523514	0.198799
647.729388	0.198819
647.935244	0.198850
648.141082	0.199000
648.346901	0.199464
648.552702	0.199869
648.758485	0.200138
648.964250	0.200331
649.169996	0.200432
649.375724	0.200546
649.581434	0.200919
649.787126	0.201331
649.992800	0.201629
650.198455	0.201955
650.404092	0.202112
650.609711	0.202227
650.815311	0.202663
651.020894	0.203073
651.226458	0.203672
651.432004	0.203790
651.637532	0.204043
651.843041	0.204227
652.048532	0.204498
652.254006	0.204454
652.459460	0.204389
652.664897	0.204560
652.870315	0.204789
653.075716	0.204811
653.281097	0.205121
653.486461	0.205171
653.691807	0.205467
653.897134	0.205656
654.102443	0.206178
654.307734	0.206989
654.513006	0.207232
654.718261	0.207254
654.923497	0.207389
655.128715	0.207581
655.333915	0.207909
655.539096	0.208282
655.744259	0.208214
655.949404	0.208331
656.154531	0.208310
656.359640	0.208533
656.564730	0.208947
656.769802	0.209556
656.974856	0.209670
657.179892	0.209744
657.384909	0.209987
657.589908	0.210309
657.794889	0.210340
657.999852	0.210547
658.204797	0.210597
658.409723	0.210732
658.614631	0.210714
658.819521	0.211126
659.024393	0.211480
659.229246	0.211587
659.434081	0.211872
659.638898	0.212536
659.843697	0.212554
660.048478	0.212823
660.253240	0.212980
660.457984	0.213008
660.662710	0.213187
660.867417	0.213409
661.072107	0.213614
661.276778	0.213699
661.481431	0.213777
661.686066	0.214141
661.890682	0.214548
662.095281	0.214985
662.299861	0.215441
662.504422	0.215438
662.708966	0.215645
662.913491	0.216090
663.117999	0.216481
663.322488	0.216751
663.526958	0.216967
663.731411	0.217126
663.935845	0.217052
664.140261	0.217156
664.344659	0.217508
664.549038	0.217530
664.753400	0.217594
664.957743	0.217924
665.162068	0.218225
665.366375	0.218571
665.570663	0.218607
665.774933	0.219068
665.979185	0.219333
666.183419	0.219848
666.387635	0.220269
666.591832	0.220607
666.796011	0.220655
667.000172	0.220689
667.204315	0.220748
667.408439	0.220952
667.612545	0.221275
667.816634	0.221400
668.020703	0.221402
668.224755	0.221362
668.428788	0.221263
668.632803	0.221671
668.836800	0.221895
669.040779	0.222035
669.244739	0.222405
669.448681	0.222606
669.652605	0.222952
669.856511	0.223253
670.060399	0.223375
670.264268	0.223860
670.468119	0.223894
670.671952	0.224380
670.875767	0.224940
671.079563	0.225429
671.283341	0.225761
671.487101	0.225985
671.690843	0.226353
671.894567	0.227115
672.098272	0.227387
672.301959	0.227618
672.505628	0.227611
672.709278	0.227827
672.912911	0.227941
673.116525	0.228001
673.320121	0.228330
673.523699	0.228533
673.727258	0.228834
673.930799	0.229152
674.134322	0.229583
674.337827	0.229916
674.541314	0.229939
674.744782	0.230340
674.948232	0.230439
675.151664	0.230973
675.355078	0.231262
675.558474	0.231333
675.761851	0.231466
675.965210	0.231640
676.168551	0.231766
676.371873	0.232062
676.575178	0.232111
676.778464	0.232373
676.981732	0.232183
677.184981	0.232189
677.388213	0.232273
677.591426	0.232615
677.794621	0.232859
677.997798	0.233012
678.200956	0.233498
678.404097	0.233975
678.607219	0.234056
678.810323	0.234400
679.013408	0.234540
679.216476	0.234750
679.419525	0.234810
679.622556	0.235002
679.825569	0.235321
680.028563	0.235529
680.231540	0.235530
680.434498	0.236021
680.637438	0.236158
680.840359	0.236273
681.043263	0.236371
681.246148	0.236602
681.449015	0.236974
681.651864	0.237324
681.854694	0.237547
682.057506	0.237939
682.260301	0.238067
682.463076	0.238359
682.665834	0.238651
682.868573	0.239165
683.071295	0.239102
683.273998	0.239090
683.476682	0.239389
683.679349	0.239344
683.881997	0.239291
684.084627	0.239355
684.287239	0.239322
684.489833	0.239572
684.692408	0.239750
684.894965	0.240358
685.097504	0.240688
685.300025	0.240871
685.502527	0.241072
685.705012	0.241295
685.907478	0.241595
686.109925	0.242080
686.312355	0.242583
686.514766	0.242818
686.717159	0.242904
686.919534	0.243090
687.121891	0.243503
687.324230	0.243888
687.526550	0.244001
687.728852	0.244356
687.931136	0.244657
688.133401	0.244698
688.335649	0.244822
688.537878	0.245216
688.740089	0.245550
688.942281	0.245616
689.144456	0.245939
689.346612	0.246207
689.548750	0.246318
689.750870	0.246228
689.952971	0.246429
690.155055	0.246646
690.357120	0.246550
690.559167	0.246748
690.761195	0.246808
690.963206	0.246953
691.165198	0.247392
691.367172	0.247753
691.569128	0.247927
691.771065	0.248181
691.972984	0.248515
692.174885	0.248918
692.376768	0.248953
692.578633	0.249366
692.780479	0.249599
692.982308	0.249448
693.184118	0.249786
693.385909	0.250047
693.587683	0.249991
693.789438	0.249973
693.991175	0.250155
694.192894	0.250518
694.394595	0.250449
694.596277	0.250370
694.797941	0.250778
694.999587	0.250497
695.201215	0.250821
695.402824	0.251129
695.604416	0.251316
695.805989	0.251365
696.007543	0.251165
696.209080	0.251520
696.410598	0.251589
696.612099	0.251581
696.813580	0.251908
697.015044	0.251766
697.216490	0.251905
697.417917	0.252011
697.619326	0.252139
697.820717	0.252425
698.022089	0.252399
698.223444	0.252727
698.424780	0.252891
698.626098	0.253006
698.827397	0.253301
699.028679	0.253411
699.229942	0.253543
699.431187	0.253514
699.632414	0.253636
699.833622	0.253768
700.034813	0.254229
700.235985	0.254409
700.437139	0.254323
700.638274	0.254632
700.839392	0.254787
701.040491	0.255228
701.241572	0.255587
701.442635	0.255748
701.643679	0.256040
701.844706	0.255605
702.045714	0.255558
702.246704	0.255880
702.447675	0.255759
702.648629	0.255829
702.849564	0.255585
703.050481	0.255603
703.251380	0.255538
703.452260	0.255495
703.653122	0.255790
703.853966	0.256147
704.054792	0.256015
704.255600	0.255904
704.456389	0.255803
704.657160	0.256067
704.857913	0.256068
705.058648	0.256193
705.259365	0.256100
705.460063	0.256113
705.660743	0.255941
705.861405	0.255989
706.062048	0.256390
706.262674	0.256552
706.463281	0.256429
706.663870	0.256640
706.864441	0.256938
707.064993	0.256967
707.265527	0.257066
707.466043	0.257299
707.666541	0.257573
707.867021	0.257788
708.067482	0.257861
708.267925	0.258243
708.468350	0.258678
708.668757	0.258850
708.869145	0.259173
709.069516	0.259467
709.269868	0.259743
709.470201	0.259955
709.670517	0.259877
709.870814	0.260210
710.071093	0.260302
710.271354	0.260242
710.471597	0.260163
710.671821	0.260225
710.872028	0.260090
711.072216	0.259768
711.272385	0.259588
711.472537	0.259519
711.672670	0.259191
711.872785	0.259027
712.072882	0.258577
712.272961	0.258327
712.473021	0.258088
712.673063	0.257896
712.873087	0.257714
713.073093	0.257645
713.273081	0.257528
713.473050	0.257640
713.673001	0.257467
713.872934	0.257501
714.072849	0.257790
714.272745	0.257753
714.472623	0.257722
714.672483	0.257906
714.872325	0.257849
715.072148	0.257924
715.271954	0.258009
715.471741	0.257815
715.671509	0.257713
715.871260	0.257287
716.070992	0.257267
716.270707	0.257279
716.470403	0.257198
716.670080	0.257482
716.869740	0.257257
717.069381	0.256891
717.269004	0.256902
717.468609	0.256946
717.668195	0.257106
717.867764	0.257101
718.067314	0.256811
718.266846	0.256841
718.466360	0.256566
718.665855	0.256681
718.865332	0.256618
719.064791	0.256474
719.264232	0.256186
719.463655	0.256015
719.663059	0.255966
719.862445	0.256167
720.061813	0.255886
720.261163	0.255672
720.460494	0.255622
720.659807	0.255433
720.859102	0.255221
721.058379	0.255232
721.257638	0.254867
721.456878	0.254729
721.656100	0.254535
721.855304	0.254225
722.054490	0.254077
722.253657	0.253632
722.452806	0.253594
722.651937	0.253401
722.851050	0.253000
723.050145	0.252837
723.249221	0.252644
723.448279	0.252656
723.647319	0.252851
723.846340	0.252680
724.045344	0.252703
724.244329	0.252731
724.443296	0.252788
724.642245	0.252897
724.841175	0.253123
725.040088	0.252957
725.238982	0.252609
725.437857	0.252387
725.636715	0.252319
725.835554	0.252146
726.034376	0.251704
726.233179	0.251549
726.431963	0.251364
726.630730	0.250962
726.829478	0.250722
727.028208	0.250542
727.226920	0.250344
727.425614	0.250225
727.624289	0.250075
727.822946	0.250448
728.021585	0.250275
728.220206	0.250142
728.418808	0.250117
728.617392	0.249796
728.815958	0.249538
729.014506	0.249371
729.213036	0.249100
729.411547	0.248629
729.610040	0.248061
729.808515	0.247889
730.006972	0.247730
730.205410	0.247419
730.403831	0.247257
730.602233	0.247136
730.800616	0.246931
730.998982	0.246801
731.197329	0.246841
731.395658	0.246556
731.593969	0.246340
731.792262	0.246111
731.990536	0.246081
732.188793	0.245902
732.387031	0.245537
732.585250	0.245261
732.783452	0.244933
732.981635	0.244846
733.179800	0.244691
733.377947	0.244612
733.576076	0.244613
733.774186	0.244167
733.972278	0.244088
734.170352	0.244016
734.368408	0.243995
734.566446	0.243955
734.764465	0.243715
734.962466	0.243715
735.160449	0.243426
735.358413	0.243003
735.556360	0.243119
735.754288	0.242856
735.952198	0.242789
736.150090	0.242366
736.347963	0.242055
736.545818	0.241598
736.743655	0.241028
736.941474	0.240866
737.139275	0.240553
737.337057	0.240168
737.534821	0.240122
737.732567	0.239790
737.930295	0.239720
738.128005	0.239565
738.325696	0.239666
738.523369	0.239488
738.721024	0.239115
738.918660	0.239098
739.116279	0.238738
739.313879	0.238257
739.511461	0.237981
739.709024	0.237707
739.906570	0.237364
740.104097	0.236889
740.301606	0.236874
740.499097	0.236610
740.696569	0.236203
740.894024	0.235999
741.091460	0.235654
741.288878	0.235515
741.486277	0.235342
741.683659	0.235207
741.881022	0.235051
742.078367	0.234768
742.275694	0.234620
742.473002	0.234573
742.670293	0.234484
742.867565	0.234518
743.064819	0.234227
743.262054	0.233941
743.459272	0.233902
743.656471	0.233578
743.853652	0.233313
744.050815	0.233166
744.247959	0.232833
744.445085	0.232614
744.642194	0.232213
744.839283	0.231722
745.036355	0.231370
745.233408	0.231112
745.430444	0.230830
745.627461	0.230591
745.824459	0.230165
746.021440	0.230034
746.218402	0.229906
746.415346	0.230077
746.612272	0.230210
746.809180	0.230163
747.006069	0.229706
747.202940	0.229514
747.399793	0.229197
747.596628	0.229159
747.793444	0.228726
747.990243	0.228193
748.187023	0.227684
748.383784	0.227482
748.580528	0.227198
748.777253	0.226994
748.973960	0.226907
749.170649	0.226774
749.367320	0.226594
749.563973	0.226552
749.760607	0.226498
749.957223	0.226449
750.153821	0.226113
750.350400	0.226079
750.546962	0.225896
750.743505	0.225578
750.940030	0.225473
751.136536	0.225265
751.333025	0.225054
751.529495	0.224989
751.725947	0.224603
751.922381	0.224530
752.118796	0.223954
752.315194	0.223564
752.511573	0.223500
752.707934	0.223378
752.904276	0.223046
753.100601	0.222666
753.296907	0.222140
753.493195	0.222020
753.689465	0.221726
753.885716	0.221728
754.081949	0.221666
754.278164	0.221156
754.474361	0.220917
754.670540	0.220707
754.866700	0.220318
755.062843	0.220241
755.258967	0.219995
755.455072	0.219640
755.651160	0.219381
755.847229	0.219226
756.043280	0.219214
756.239313	0.218795
756.435328	0.218602
756.631324	0.218633
756.827302	0.218194
757.023262	0.217991
757.219204	0.217831
757.415127	0.217654
757.611033	0.217278
757.806920	0.216867
758.002788	0.216884
758.198639	0.216792
758.394471	0.216490
758.590286	0.216559
758.786081	0.216757
758.981859	0.216731
759.177619	0.216489
759.373360	0.216443
759.569083	0.216362
759.764788	0.215974
759.960474	0.215648
760.156143	0.215707
760.351793	0.215255
760.547425	0.214664
760.743038	0.214445
760.938634	0.214268
761.134211	0.214136
761.329770	0.213960
761.525311	0.213792
761.720833	0.213909
761.916338	0.213657
762.111824	0.213641
762.307292	0.213389
762.502741	0.213167
762.698173	0.212932
762.893586	0.212453
763.088981	0.212373
763.284358	0.212331
763.479716	0.211874
763.675057	0.211586
763.870379	0.211451
764.065683	0.211224
764.260968	0.210834
764.456236	0.210842
764.651485	0.210868
764.846716	0.210521
765.041929	0.210177
765.237123	0.210194
765.432299	0.210076
765.627457	0.209836
765.822597	0.209883
766.017719	0.209822
766.212822	0.209406
766.407907	0.209278
766.602974	0.209459
766.798023	0.209404
766.993054	0.209254
767.188066	0.209238
767.383060	0.209150
767.578036	0.208875
767.772993	0.208867
767.967933	0.209111
768.162854	0.208946
768.357757	0.208536
768.552642	0.208682
768.747508	0.208554
768.942356	0.208328
769.137186	0.208541
769.331998	0.208640
769.526792	0.208349
769.721567	0.207990
769.916324	0.208047
770.111063	0.208055
770.305784	0.207751
770.500486	0.207598
770.695171	0.207710
770.889837	0.207584
771.084484	0.207330
771.279114	0.207494
771.473725	0.207530
771.668318	0.207168
771.862893	0.207324
772.057450	0.207213
772.251988	0.207441
772.446509	0.206967
772.641011	0.206679
772.835494	0.206659
773.029960	0.206383
773.224407	0.206139
773.418836	0.206198
773.613247	0.205882
773.807640	0.205800
774.002014	0.205321
774.196370	0.205574
774.390708	0.205628
774.585028	0.205732
774.779330	0.205596
774.973613	0.205735
775.167878	0.205658
775.362125	0.205612
775.556354	0.205863
775.750564	0.206139
775.944756	0.206009
776.138930	0.205830
776.333086	0.205637
776.527223	0.205831
776.721343	0.205944
776.915444	0.205986
777.109526	0.206178
777.303591	0.205825
777.497637	0.205463
777.691666	0.205611
777.885676	0.205931
778.079667	0.206007
778.273641	0.205984
778.467596	0.205748
778.661533	0.205668
778.855452	0.205513
779.049352	0.205694
779.243235	0.205756
779.437099	0.205423
779.630945	0.205041
779.824773	0.205151
780.018582	0.204994
780.212373	0.204953
780.406146	0.204994
780.599901	0.204910
780.793638	0.204889
780.987356	0.204946
781.181056	0.205157
781.374738	0.205353
781.568402	0.204999
781.762047	0.204935
781.955674	0.205000
782.149283	0.205098
782.342874	0.205330
782.536447	0.205271
782.730001	0.205302
782.923537	0.205355
783.117055	0.205333
783.310555	0.205383
783.504036	0.205654
783.697499	0.205548
783.890944	0.205494
784.084371	0.205373
784.277780	0.205471
784.471170	0.205606
784.664542	0.205588
784.857896	0.205548
785.051231	0.205917
785.244549	0.205913
785.437848	0.206256
785.631129	0.206370
785.824392	0.206620
786.017636	0.206664
786.210863	0.206482
786.404071	0.206679
786.597260	0.206760
786.790432	0.206859
786.983585	0.207200
787.176721	0.207205
787.369838	0.207472
787.562936	0.207650
787.756017	0.207841
787.949079	0.208147
788.142123	0.208225
788.335149	0.208565
788.528156	0.208452
788.721146	0.208278
788.914117	0.208379
789.107070	0.208515
789.300005	0.208636
789.492921	0.208626
789.685819	0.208751
789.878699	0.208750
790.071561	0.208609
790.264405	0.208703
790.457230	0.209024
790.650037	0.209344
790.842826	0.209191
791.035597	0.208996
791.228349	0.209230
791.421084	0.209492
791.613800	0.209623
791.806497	0.209904
791.999177	0.210094
792.191838	0.210178
792.384481	0.209970
792.577106	0.210240
792.769713	0.210461
792.962301	0.210439
793.154871	0.210509
793.347423	0.210794
793.539957	0.210863
793.732473	0.210773
793.924970	0.210958
794.117449	0.211134
794.309910	0.211225
794.502353	0.211682
794.694777	0.211983
794.887183	0.212281
795.079571	0.212564
795.271941	0.212767
795.464293	0.213108
795.656626	0.213093
795.848941	0.213301
796.041238	0.213617
796.233516	0.213757
796.425777	0.213903
796.618019	0.214193
796.810243	0.214087
797.002449	0.214086
797.194636	0.214291
797.386805	0.214643
797.578956	0.215122
797.771089	0.215107
797.963204	0.215195
798.155300	0.215332
798.347378	0.215222
798.539438	0.215608
798.731480	0.216038
798.923503	0.216408
799.115509	0.216889
799.307496	0.216899
799.499465	0.217231
799.691415	0.217381
799.883348	0.217768
800.075262	0.218129
800.267158	0.218367
800.459035	0.218529
800.650895	0.218770
800.842736	0.218746
801.034559	0.219070
801.226364	0.219425
801.418150	0.219795
801.609919	0.219928
801.801669	0.220111
801.993401	0.220324
802.185114	0.220932
802.376810	0.221392
802.568487	0.221773
802.760146	0.222060
802.951787	0.222243
803.143409	0.222488
803.335014	0.223005
803.526600	0.223214
803.718168	0.223364
803.909717	0.223234
804.101249	0.223138
804.292762	0.223217
804.484257	0.223193
804.675734	0.223574
804.867192	0.224020
805.058632	0.224255
805.250054	0.224650
805.441458	0.225213
805.632844	0.226000
805.824211	0.226489
806.015561	0.226947
806.206891	0.227598
806.398204	0.227945
806.589499	0.228314
806.780775	0.228595
806.972033	0.229038
807.163273	0.229611
807.354495	0.229837
807.545698	0.230227
807.736883	0.230399
807.928050	0.230748
808.119199	0.231328
808.310329	0.231530
808.501441	0.231934
808.692535	0.232078
808.883611	0.232479
809.074669	0.232528
809.265708	0.233000
809.456729	0.233405
809.647732	0.233897
809.838717	0.234012
810.029683	0.234256
810.220632	0.234527
810.411562	0.235002
810.602474	0.234954
810.793367	0.235529
810.984242	0.235738
811.175100	0.236225
811.365938	0.236571
811.556759	0.236796
811.747562	0.237114
811.938346	0.237360
812.129112	0.237664
812.319860	0.238140
812.510589	0.238241
812.701300	0.238746
812.891994	0.239202
813.082668	0.239489
813.273325	0.240173
813.463964	0.240844
813.654584	0.241515
813.845186	0.241993
814.035769	0.242315
814.226335	0.242933
814.416882	0.243114
814.607411	0.243070
814.797922	0.243545
814.988415	0.243926
815.178889	0.244305
815.369345	0.244562
815.559783	0.245175
815.750203	0.245747
815.940605	0.245807
816.130988	0.246308
816.321353	0.246846
816.511700	0.247238
816.702028	0.247521
816.892339	0.247804
817.082631	0.248206
817.272905	0.248270
817.463161	0.248577
817.653398	0.249252
817.843617	0.249860
818.033819	0.250524
818.224001	0.250921
818.414166	0.251360
818.604312	0.251760
818.794440	0.252364
818.984550	0.252892
819.174642	0.253426
819.364716	0.253950
819.554771	0.254209
819.744808	0.254720
819.934827	0.255240
820.124827	0.255708
820.314810	0.256143
820.504774	0.256522
820.694720	0.257047
820.884647	0.257948
821.074557	0.258681
821.264448	0.259210
821.454321	0.259856
821.644176	0.260371
821.834012	0.261006
822.023831	0.261602
822.213631	0.262124
822.403413	0.262589
822.593176	0.262607
822.782922	0.262888
822.972649	0.263446
823.162358	0.263920
823.352049	0.264442
823.541721	0.264478
823.731376	0.264982
823.921012	0.265276
824.110629	0.265933
824.300229	0.266430
824.489811	0.267108
824.679374	0.267730
824.868919	0.267897
825.058445	0.268125
825.247954	0.268866
825.437444	0.269327
825.626916	0.269889
825.816370	0.270150
826.005806	0.270537
826.195223	0.270902
826.384622	0.271222
826.574003	0.271818
826.763366	0.272428
826.952711	0.272864
827.142037	0.273279
827.331345	0.273509
827.520635	0.273945
827.709906	0.274335
827.899160	0.274614
828.088395	0.274938
828.277612	0.275323
828.466810	0.275597
828.655991	0.276066
828.845153	0.276393
829.034297	0.277198
829.223423	0.277916
829.412531	0.278240
829.601620	0.278918
829.790691	0.279666
829.979744	0.280629
830.168779	0.281403
830.357795	0.282201
830.546793	0.282732
830.735773	0.283086
830.924735	0.283469
831.113679	0.284092
831.302604	0.284498
831.491511	0.284850
831.680400	0.285067
831.869271	0.285433
832.058123	0.285696
832.246957	0.286224
832.435773	0.287075
832.624571	0.287476
832.813351	0.288023
833.002112	0.288416
833.190855	0.288762
833.379580	0.289239
833.568287	0.289653
833.756975	0.290304
833.945645	0.290982
834.134297	0.291455
834.322931	0.292001
834.511547	0.292695
834.700144	0.293356
834.888723	0.293900
835.077284	0.294226
835.265826	0.295070
835.454351	0.295494
835.642857	0.296179
835.831345	0.296780
836.019815	0.297492
836.208266	0.298105
836.396699	0.298422
836.585114	0.299178
836.773511	0.299792
836.961890	0.300297
837.150250	0.301139
837.338592	0.301446
837.526916	0.301955
837.715222	0.302321
837.903510	0.302672
838.091779	0.303583
838.280030	0.304018
838.468263	0.304728
838.656477	0.305367
838.844674	0.306075
839.032852	0.306725
839.221012	0.307214
839.409153	0.308377
839.597277	0.309168
839.785382	0.309680
839.973469	0.310544
840.161538	0.311243
840.349589	0.311525
840.537621	0.311682
840.725635	0.312352
840.913631	0.312681
841.101609	0.313065
841.289568	0.313652
841.477509	0.314212
841.665432	0.314716
841.853337	0.315429
842.041224	0.316520
842.229092	0.317174
842.416942	0.317863
842.604774	0.318590
842.792588	0.318930
842.980383	0.319375
843.168160	0.319984
843.355919	0.320286
843.543660	0.320576
843.731382	0.320851
843.919087	0.320990
844.106773	0.321510
844.294441	0.322488
844.482090	0.322993
844.669722	0.323544
844.857335	0.324364
845.044930	0.324924
845.232507	0.325445
845.420065	0.326019
845.607605	0.327387
845.795127	0.327876
845.982631	0.328302
846.170117	0.328840
846.357584	0.329432
846.545033	0.329821
846.732464	0.330748
846.919877	0.331299
847.107272	0.332033
847.294648	0.332016
847.482006	0.332573
847.669346	0.332826
847.856667	0.333627
848.043971	0.334130
848.231256	0.334805
848.418523	0.334902
848.605771	0.335737
848.793002	0.335952
848.980214	0.336724
849.167408	0.337223
849.354584	0.337620
849.541742	0.338158
849.728881	0.338893
849.916002	0.339248
850.103105	0.339966
850.290190	0.340375
850.477256	0.341163
850.664304	0.341652
850.851334	0.342467
851.038346	0.343309
851.225340	0.343783
851.412315	0.344196
851.599272	0.344944
851.786211	0.345943
851.973132	0.346418
852.160034	0.347202
852.346918	0.347781
852.533784	0.348475
852.720632	0.348950
852.907462	0.349801
853.094273	0.350651
853.281066	0.351007
853.467841	0.351589
853.654598	0.352231
853.841336	0.352428
854.028056	0.353260
854.214758	0.353451
854.401442	0.354159
854.588107	0.354174
854.774755	0.354614
854.961384	0.354918
855.147995	0.355118
855.334587	0.355198
855.521162	0.355657
855.707718	0.356230
855.894256	0.356944
856.080775	0.357552
856.267277	0.358032
856.453760	0.358508
856.640225	0.359461
856.826672	0.360090
857.013101	0.361569
857.199511	0.361882
857.385903	0.362124
857.572277	0.362729
857.758633	0.363269
857.944970	0.364095
858.131290	0.364890
858.317591	0.365327
858.503873	0.366307
858.690138	0.366535
858.876384	0.367746
859.062612	0.368634
859.248822	0.369037
859.435014	0.369575
859.621188	0.370284
859.807343	0.370683
859.993480	0.371305
860.179599	0.371374
860.365699	0.371973
860.551781	0.372296
860.737846	0.372923
860.923891	0.373336
861.109919	0.373680
861.295929	0.374251
861.481920	0.374789
861.667893	0.375330
861.853848	0.375961
862.039784	0.376605
862.225702	0.377294
862.411603	0.377801
862.597484	0.378493
862.783348	0.379077
862.969193	0.379355
863.155021	0.379812
863.340830	0.379781
863.526620	0.380072
863.712393	0.380616
863.898147	0.380743
864.083883	0.380987
864.269601	0.381735
864.455301	0.382138
864.640982	0.382595
864.826645	0.382772
865.012290	0.384006
865.197917	0.384703
865.383526	0.384678
865.569116	0.385562
865.754688	0.386203
865.940242	0.386582
866.125777	0.387259
866.311295	0.387695
866.496794	0.388350
866.682275	0.388430
866.867737	0.388767
867.053182	0.389353
867.238608	0.389615
867.424016	0.389869
867.609406	0.389996
867.794778	0.390210
867.980131	0.391134
868.165466	0.391624
868.350783	0.391948
868.536082	0.392479
868.721362	0.392768
868.906625	0.393276
869.091869	0.394061
869.277094	0.394606
869.462302	0.395014
869.647491	0.395385
869.832662	0.395885
870.017815	0.396527
870.202950	0.397050
870.388066	0.397958
870.573165	0.398408
870.758245	0.398634
870.943306	0.398744
871.128350	0.399361
871.313375	0.399521
871.498382	0.400197
871.683371	0.400887
871.868342	0.401036
872.053294	0.400739
872.238229	0.400528
872.423144	0.400645
872.608042	0.400950
872.792922	0.401104
872.977783	0.401614
873.162626	0.401459
873.347451	0.401391
873.532258	0.401873
873.717046	0.402749
873.901816	0.403833
874.086568	0.404229
874.271302	0.404840
874.456017	0.405217
874.640715	0.405288
874.825394	0.405895
875.010055	0.406378
875.194697	0.406651
875.379322	0.406989
875.563928	0.406910
875.748516	0.407069
875.933085	0.407554
876.117637	0.407909
876.302170	0.408293
876.486685	0.408279
876.671182	0.408344
876.855661	0.408744
877.040121	0.408950
877.224563	0.409362
877.408987	0.409855
877.593393	0.409905
877.777780	0.410688
877.962150	0.411014
878.146501	0.411447
878.330833	0.411643
878.515148	0.412137
878.699444	0.412329
878.883722	0.412428
879.067982	0.412556
879.252224	0.413144
879.436447	0.412951
879.620653	0.412863
879.804840	0.413436
879.989008	0.414302
880.173159	0.414279
880.357291	0.414517
880.541405	0.414597
880.725501	0.415026
880.909579	0.415007
881.093638	0.414995
881.277680	0.415237
881.461703	0.415276
881.645707	0.414918
881.829694	0.415241
882.013662	0.415407
882.197612	0.415628
882.381544	0.415857
882.565458	0.415687
882.749353	0.415929
882.933230	0.416001
883.117089	0.415981
883.300930	0.416186
883.484753	0.415958
883.668557	0.415585
883.852343	0.415832
884.036111	0.416027
884.219861	0.416270
884.403592	0.416894
884.587305	0.417469
884.771000	0.417342
884.954677	0.417510
885.138335	0.417632
885.321976	0.418682
885.505598	0.418892
885.689201	0.418637
885.872787	0.419028
886.056354	0.418756
886.239904	0.418920
886.423434	0.419161
886.606947	0.419226
886.790442	0.419429
886.973918	0.419217
887.157376	0.419321
887.340816	0.419402
887.524237	0.419163
887.707641	0.419128
887.891026	0.419139
888.074393	0.419726
888.257741	0.420415
888.441072	0.420367
888.624384	0.419718
888.807678	0.419685
888.990954	0.419226
889.174211	0.419197
889.357451	0.419322
889.540672	0.419240
889.723875	0.418154
889.907059	0.417730
890.090226	0.417885
890.273374	0.418395
890.456504	0.418447
890.639616	0.418909
890.822709	0.419135
891.005785	0.418932
891.188842	0.418927
891.371881	0.419616
891.554901	0.419293
891.737904	0.418634
891.920888	0.418506
892.103854	0.418642
892.286802	0.418352
892.469731	0.418429
892.652643	0.418995
892.835536	0.419233
893.018410	0.419159
893.201267	0.418890
893.384106	0.419500
893.566926	0.419211
893.749728	0.419025
893.932511	0.419134
894.115277	0.418769
894.298024	0.417979
894.480753	0.417183
894.663464	0.416390
894.846157	0.416683
895.028831	0.416516
895.211487	0.416643
895.394125	0.416329
895.576745	0.416117
895.759346	0.415870
895.941930	0.415487
896.124495	0.414992
896.307041	0.415464
896.489570	0.414648
896.672080	0.414659
896.854573	0.414802
897.037046	0.414852
897.219502	0.414363
897.401940	0.413793
897.584359	0.414096
897.766760	0.414638
897.949143	0.414459
898.131507	0.414312
898.313854	0.413470
898.496182	0.412971
898.678492	0.412525
898.860783	0.412722
899.043057	0.413208
899.225312	0.412827
899.407549	0.412001
899.589768	0.410790
899.771968	0.410946
899.954151	0.410626
900.136315	0.409646
900.318461	0.409195
900.500588	0.408481
900.682698	0.407807
900.864789	0.407512
901.046862	0.407098
901.228917	0.407490
901.410953	0.407202
901.592971	0.406789
901.774972	0.406901
901.956953	0.406725
902.138917	0.407079
902.320862	0.407072
902.502790	0.406776
902.684699	0.406797
902.866589	0.406292
903.048462	0.405805
903.230316	0.405607
903.412152	0.405547
903.593970	0.404963
903.775770	0.404189
903.957551	0.403397
904.139314	0.403104
904.321059	0.402306
904.502786	0.402666
904.684494	0.401958
904.866185	0.401481
905.047857	0.401079
905.229510	0.400844
905.411146	0.400140
905.592763	0.400341
905.774363	0.399395
905.955943	0.399092
906.137506	0.398105
906.319051	0.398165
906.500577	0.397348
906.682085	0.396703
906.863575	0.396400
907.045046	0.396307
907.226500	0.395452
907.407935	0.394768
907.589352	0.394379
907.770750	0.393855
907.952131	0.393408
908.133493	0.393361
908.314837	0.392773
908.496163	0.392095
908.677470	0.391179
908.858760	0.390169
909.040031	0.389857
909.221284	0.389355
909.402518	0.388918
909.583735	0.387874
909.764933	0.387113
909.946113	0.386306
910.127275	0.385821
910.308418	0.385201
910.489544	0.385301
910.670651	0.385173
910.851740	0.384159
911.032810	0.383764
911.213863	0.383249
911.394897	0.382832
911.575913	0.382365
911.756911	0.381234
911.937890	0.380629
912.118851	0.379534
912.299794	0.378610
912.480719	0.378247
912.661626	0.377039
912.842514	0.375894
913.023384	0.375407
913.204236	0.374594
913.385070	0.374678
913.565886	0.374288
913.746683	0.373404
913.927462	0.372836
914.108223	0.372743
914.288965	0.372182
914.469690	0.371815
914.650396	0.370864
914.831084	0.369834
915.011754	0.368509
915.192405	0.367600
915.373038	0.366721
915.553653	0.365896
915.734250	0.364547
915.914829	0.363315
916.095389	0.362562
916.275931	0.362039
916.456455	0.361613
916.636961	0.360774
916.817448	0.359753
916.997917	0.358980
917.178368	0.358237
917.358801	0.357002
917.539216	0.356443
917.719612	0.355692
917.899990	0.354967
918.080350	0.354269
918.260692	0.353382
918.441015	0.353171
918.621320	0.352464
918.801607	0.350987
918.981876	0.350861
919.162127	0.350289
919.342359	0.349588
919.522573	0.347981
919.702769	0.347162
919.882947	0.346436
920.063106	0.345396
920.243247	0.344662
920.423370	0.344649
920.603475	0.343776
920.783562	0.343433
920.963630	0.342577
921.143680	0.342523
921.323712	0.341681
921.503725	0.340490
921.683721	0.339614
921.863698	0.339048
922.043657	0.337453
922.223598	0.336873
922.403520	0.335351
922.583424	0.333954
922.763311	0.332950
922.943178	0.331731
923.123028	0.331441
923.302859	0.329774
923.482673	0.328785
923.662467	0.328007
923.842244	0.326748
924.022003	0.326109
924.201743	0.324483
924.381465	0.323895
924.561169	0.323277
924.740854	0.321725
924.920522	0.322094
925.100171	0.320445
925.279802	0.320165
925.459414	0.318728
925.639009	0.317041
925.818585	0.317043
925.998143	0.315012
926.177683	0.313784
926.357205	0.312894
926.536708	0.310934
926.716193	0.309731
926.895660	0.308650
927.075109	0.307552
927.254539	0.306621
927.433951	0.306071
927.613345	0.305981
927.792721	0.304775
927.972079	0.303817
928.151418	0.302305
928.330739	0.301678
928.510042	0.300143
928.689327	0.299144
928.868593	0.298382
929.047841	0.296537
929.227071	0.294818
929.406283	0.293766
929.585476	0.291938
929.764652	0.291007
929.943809	0.289111
930.122948	0.287391
930.302068	0.286165
930.481171	0.284485
930.660255	0.283729
930.839321	0.282579
931.018369	0.281041
931.197398	0.280130
931.376409	0.279210
931.555402	0.279033
931.734377	0.278497
931.913334	0.277436
932.092272	0.276845
932.271192	0.275206
932.450094	0.274367
932.628978	0.273791
932.807844	0.273348
932.986691	0.271678
933.165520	0.269875
933.344331	0.268972
933.523123	0.267794
933.701898	0.266664
933.880654	0.266020
934.059392	0.264167
934.238111	0.262618
934.416813	0.260724
934.595496	0.259590
934.774161	0.258630
934.952808	0.256921
935.131437	0.255382
935.310047	0.253162
935.488639	0.251804
935.667213	0.250852
935.845769	0.249906
936.024306	0.247710
936.202825	0.246881
936.381326	0.244978
936.559809	0.243613
936.738274	0.242304
936.916720	0.241670
937.095148	0.240097
937.273558	0.236963
937.451950	0.235980
937.630323	0.236162
937.808678	0.235465
937.987015	0.234772
938.165334	0.233585
938.343635	0.232205
938.521917	0.230643
938.700181	0.229784
938.878427	0.230021
939.056655	0.228527
939.234864	0.227307
939.413055	0.225683
939.591228	0.224666
939.769383	0.223181
939.947519	0.222233
940.125638	0.221753
940.303738	0.219541
940.481820	0.218140
940.659883	0.217142
940.837929	0.215006
941.015956	0.214384
941.193965	0.213603
941.371955	0.212272
941.549928	0.210083
941.727882	0.209726
941.905818	0.208483
942.083736	0.207906
942.261636	0.205820
942.439517	0.204473
942.617380	0.203028
942.795225	0.201734
942.973052	0.199820
943.150860	0.200116
943.328651	0.197267
943.506423	0.197175
943.684176	0.196025
943.861912	0.194729
944.039629	0.194528
944.217328	0.192069
944.395009	0.190202
944.572672	0.189693
944.750317	0.187056
944.927943	0.186117
945.105551	0.184455
945.283141	0.182367
945.460712	0.180685
945.638265	0.179156
945.815801	0.178067
945.993317	0.176965
946.170816	0.175470
946.348297	0.174463
946.525759	0.173763
946.703203	0.173058
946.880629	0.171877
947.058036	0.171034
947.235425	0.169732
947.412797	0.168638
947.590149	0.166507
947.767484	0.164452
947.944800	0.164114
948.122099	0.161180
948.299379	0.158260
948.476640	0.155945
948.653884	0.154240
948.831109	0.152946
949.008316	0.151311
949.185505	0.150655
949.362676	0.150373
949.539828	0.148300
949.716962	0.146492
949.894078	0.144376
950.071176	0.143974
950.248256	0.142328
950.425317	0.140988
950.602360	0.139180
950.779385	0.136968
950.956391	0.135401
951.133380	0.132970
951.310350	0.132845
951.487302	0.132067
951.664235	0.130276
951.841151	0.129264
952.018048	0.126905
952.194927	0.126066
952.371788	0.124865
952.548631	0.124038
952.725455	0.124172
952.902261	0.121110
953.079049	0.121547
953.255819	0.119885
953.432570	0.117646
953.609303	0.118468
953.786018	0.118674
953.962715	0.117276
954.139394	0.113898
954.316054	0.110980
954.492696	0.110597
954.669320	0.107568
954.845926	0.106858
955.022513	0.106144
955.199083	0.103953
955.375634	0.101656
955.552166	0.101033
955.728681	0.100741
955.905177	0.099902
956.081655	0.099325
956.258115	0.097617
956.434557	0.097453
956.610980	0.097708
956.787385	0.097307
956.963772	0.094873
957.140141	0.092945
957.316492	0.093073
957.492824	0.092152
957.669138	0.090741
957.845434	0.090082
958.021712	0.088441
958.197971	0.086654
958.374212	0.083961
958.550435	0.084017
958.726640	0.084888
958.902826	0.084867
959.078995	0.086181
959.255145	0.085885
959.431277	0.085880
959.607390	0.084882
959.783486	0.082891
959.959563	0.081456
960.135622	0.081738
960.311662	0.080003
960.487685	0.078452
960.663689	0.076306
960.839675	0.076235
961.015643	0.075841
961.191593	0.076218
961.367524	0.076171
961.543437	0.076190
961.719332	0.075173
961.895209	0.074838
962.071067	0.073704
962.246907	0.073791
962.422730	0.074252
962.598533	0.072329
962.774319	0.071763
962.950086	0.073219
963.125835	0.073390
963.301566	0.073513
963.477279	0.073858
963.652973	0.073414
963.828650	0.072988
964.004308	0.070020
964.179947	0.071256
964.355569	0.068930
964.531172	0.069159
964.706757	0.069684
964.882324	0.067845
965.057873	0.066064
965.233403	0.065163
965.408916	0.062610
965.584410	0.062861
965.759885	0.062709
965.935343	0.062385
966.110782	0.059373
966.286203	0.058589
966.461606	0.059973
966.636991	0.060398
966.812357	0.062303
966.987705	0.065317
967.163035	0.065080
967.338347	0.065839
967.513641	0.067791
967.688916	0.068530
967.864173	0.066365
968.039412	0.064563
968.214632	0.066033
968.389835	0.064342
968.565019	0.062076
968.740185	0.063524
968.915333	0.062216
969.090462	0.062058
969.265573	0.062801
969.440667	0.063454
969.615741	0.062733
969.790798	0.061955
969.965836	0.060942
970.140856	0.062361
970.315858	0.061751
970.490842	0.063593
970.665808	0.063128
970.840755	0.061909
971.015684	0.063855
971.190595	0.065250
971.365487	0.063477
971.540362	0.064191
971.715218	0.064530
971.890056	0.064554
972.064875	0.061684
972.239677	0.061972
972.414460	0.061991
972.589225	0.061255
972.763972	0.061656
972.938700	0.061495
973.113411	0.060504
973.288103	0.059558
973.462777	0.059277
973.637432	0.058801
973.812070	0.058893
973.986689	0.059113
974.161290	0.059564
974.335873	0.056530
974.510437	0.057201
974.684984	0.057509
974.859512	0.059062
975.034022	0.056595
975.208513	0.056173
975.382987	0.054593
975.557442	0.056233
975.731879	0.055119
975.906298	0.057246
976.080698	0.059053
976.255080	0.058103
976.429445	0.056904
976.603790	0.060475
976.778118	0.063449
976.952427	0.066220
977.126719	0.065009
977.300992	0.066316
977.475246	0.066472
977.649483	0.065363
977.823701	0.065133
977.997901	0.064744
978.172083	0.061396
978.346247	0.060827
978.520392	0.058292
978.694519	0.056264
978.868628	0.054534
979.042719	0.055393
979.216791	0.054931
979.390845	0.056424
979.564882	0.055649
979.738899	0.057106
979.912899	0.056665
980.086880	0.056673
980.260843	0.057332
980.434788	0.058062
980.608715	0.055795
980.782623	0.054053
980.956514	0.054217
981.130386	0.056806
981.304240	0.058048
981.478075	0.057442
981.651892	0.057643
981.825692	0.059326
981.999472	0.057723
982.173235	0.058697
982.346980	0.058865
982.520706	0.059560
982.694414	0.056274
982.868104	0.055936
983.041775	0.055253
983.215428	0.056581
983.389064	0.054337
983.562680	0.053116
983.736279	0.053382
983.909860	0.055821
984.083422	0.056538
984.256966	0.058907
984.430491	0.059494
984.603999	0.059561
984.777488	0.056801
984.950959	0.056648
985.124412	0.057790
985.297847	0.056785
985.471263	0.056194
985.644661	0.056421
985.818041	0.055417
985.991403	0.054231
986.164747	0.054307
986.338072	0.055747
986.511379	0.056249
986.684668	0.056479
986.857938	0.057684
987.031191	0.057316
987.204425	0.056428
987.377641	0.056304
987.550839	0.055800
987.724018	0.057518
987.897179	0.055661
988.070322	0.055619
988.243447	0.056268
988.416554	0.055321
988.589642	0.055743
988.762712	0.056111
988.935764	0.054483
989.108798	0.055772
989.281813	0.055071
989.454811	0.058175
989.627790	0.059327
989.800751	0.059850
989.973693	0.060121
990.146617	0.058918
990.319524	0.059204
990.492412	0.060886
990.665281	0.059340
990.838133	0.058980
991.010966	0.057564
991.183781	0.057546
991.356578	0.056088
991.529356	0.056216
991.702117	0.058485
991.874859	0.055327
992.047583	0.055121
992.220288	0.055201
992.392976	0.056115
992.565645	0.056102
992.738296	0.058099
992.910929	0.058606
993.083543	0.059960
993.256139	0.058642
993.428718	0.059332
993.601277	0.058994
993.773819	0.058320
993.946342	0.058806
994.118848	0.059314
994.291335	0.057862
994.463803	0.058141
994.636254	0.056379
994.808686	0.055450
994.981100	0.056964
995.153496	0.059116
995.325874	0.059468
995.498233	0.058651
995.670574	0.058145
995.842897	0.056592
996.015202	0.056861
996.187488	0.057008
996.359757	0.058233
996.532007	0.057059
996.704239	0.055850
996.876452	0.057155
997.048648	0.055918
997.220825	0.055786
997.392984	0.057238
997.565124	0.057153
997.737247	0.056585
997.909351	0.057418
998.081437	0.058158
998.253505	0.057737
998.425554	0.056368
998.597586	0.056493
998.769599	0.056936
998.941594	0.056474
999.113571	0.055950
999.285529	0.056556
999.457469	0.055431
999.629391	0.054140
999.801295	0.053522
999.973181	0.054661
1000.145048	0.055025
1000.316897	0.055084
1000.488728	0.055026
1000.660541	0.056651
1000.832335	0.055729
1001.004111	0.056206
1001.175869	0.058131
1001.347609	0.061155
1001.519331	0.060580
1001.691034	0.059611
1001.862719	0.058823
1002.034386	0.057950
1002.206035	0.056272
1002.377665	0.058171
1002.549277	0.056440
1002.720871	0.056184
1002.892447	0.052944
1003.064004	0.053806
1003.235544	0.054731
1003.407065	0.055531
1003.578568	0.055232
1003.750052	0.054680
1003.921519	0.054824
1004.092967	0.054751
1004.264397	0.054111
1004.435809	0.055471
1004.607202	0.054329
1004.778577	0.053317
1004.949934	0.054145
1005.121273	0.056575
1005.292594	0.057962
1005.463896	0.056433
1005.635180	0.055934
1005.806446	0.056455
1005.977694	0.058066
1006.148923	0.060074
1006.320135	0.062547
1006.491328	0.060935
1006.662503	0.060590
1006.833659	0.058964
1007.004798	0.058600
1007.175918	0.060759
1007.347020	0.060574
1007.518103	0.057761
1007.689169	0.056046
1007.860216	0.055104
1008.031245	0.055647
1008.202256	0.053558
1008.373248	0.053966
1008.544223	0.053929
1008.715179	0.053566
1008.886117	0.052968
1009.057036	0.053441
1009.227938	0.053725
1009.398821	0.053535
1009.569686	0.054063
1009.740533	0.055010
1009.911361	0.055477
1010.082172	0.054957
1010.252964	0.053879
1010.423738	0.053844
1010.594493	0.053907
1010.765231	0.053343
1010.935950	0.053427
1011.106651	0.052400
1011.277334	0.051837
1011.447998	0.052703
1011.618645	0.055728
1011.789273	0.055586
1011.959882	0.055961
1012.130474	0.056280
1012.301048	0.056845
1012.471603	0.056929
1012.642140	0.058083
1012.812658	0.058334
1012.983159	0.056651
1013.153641	0.054996
1013.324105	0.056743
1013.494551	0.055591
1013.664979	0.055736
1013.835388	0.056731
1014.005779	0.057056
1014.176152	0.055845
1014.346507	0.055993
1014.516843	0.057609
1014.687162	0.058018
1014.857462	0.057462
1015.027744	0.056757
1015.198007	0.055381
1015.368252	0.052807
1015.538480	0.051873
1015.708689	0.052837
1015.878879	0.052444
1016.049052	0.050882
1016.219206	0.050665
1016.389342	0.049327
1016.559460	0.051452
1016.729559	0.052718
1016.899641	0.053311
1017.069704	0.053042
1017.239749	0.051216
1017.409775	0.050201
1017.579784	0.050592
1017.749774	0.050837
1017.919746	0.050250
1018.089700	0.049960
1018.259635	0.049907
1018.429553	0.051519
1018.599452	0.051613
1018.769333	0.051599
1018.939195	0.055065
1019.109040	0.055986
1019.278866	0.054317
1019.448674	0.055746
1019.618464	0.054989
1019.788235	0.053841
1019.957989	0.054160
1020.127724	0.054040
1020.297441	0.055750
1020.467139	0.053508
1020.636820	0.053154
1020.806482	0.054535
1020.976126	0.055154
1021.145752	0.057267
1021.315359	0.057681
1021.484948	0.056751
1021.654519	0.057802
1021.824072	0.057767
1021.993607	0.058858
1022.163123	0.058655
1022.332621	0.059119
1022.502101	0.056893
1022.671563	0.055973
1022.841007	0.055975
1023.010432	0.056953
1023.179839	0.055314
1023.349228	0.054849
1023.518598	0.052913
1023.687951	0.052421
1023.857285	0.051015
1024.026601	0.052698
1024.195899	0.051811
1024.365178	0.052236
1024.534439	0.051347
1024.703682	0.050789
1024.872907	0.050974
1025.042114	0.051520
1025.211302	0.049649
1025.380472	0.051063
1025.549624	0.049514
1025.718758	0.050696
1025.887873	0.049672
1026.056970	0.047708
1026.226049	0.048737
1026.395110	0.046605
1026.564153	0.046677
1026.733177	0.048462
1026.902183	0.048330
1027.071171	0.048914
1027.240141	0.049185
1027.409092	0.048469
1027.578026	0.051202
1027.746940	0.051074
1027.915837	0.053068
1028.084716	0.052775
1028.253576	0.054759
1028.422418	0.053138
1028.591242	0.054541
1028.760048	0.053171
1028.928835	0.055227
1029.097604	0.054344
1029.266355	0.054711
1029.435088	0.054818
1029.603803	0.054450
1029.772499	0.052348
1029.941177	0.051933
1030.109837	0.051552
1030.278478	0.050672
1030.447102	0.049599
1030.615707	0.050701
1030.784294	0.050799
1030.952863	0.048689
1031.121413	0.048396
1031.289945	0.048968
1031.458460	0.049799
1031.626955	0.049405
1031.795433	0.050857
1031.963892	0.051846
1032.132334	0.050284
1032.300756	0.048619
1032.469161	0.050432
1032.637548	0.051298
1032.805916	0.052129
1032.974266	0.053283
1033.142598	0.055275
1033.310911	0.053039
1033.479207	0.053313
1033.647484	0.054381
1033.815743	0.056345
1033.983983	0.055954
1034.152206	0.056273
1034.320410	0.054923
1034.488596	0.053277
1034.656764	0.050073
1034.824914	0.050300
1034.993045	0.049891
1035.161158	0.048280
1035.329253	0.047603
1035.497330	0.047784
1035.665388	0.048140
1035.833428	0.047308
1036.001450	0.047770
1036.169454	0.049121
1036.337440	0.048583
1036.505407	0.045919
1036.673356	0.045533
1036.841287	0.044607
1037.009200	0.043754
1037.177094	0.042435
1037.344970	0.044123
1037.512828	0.044681
1037.680668	0.044103
1037.848489	0.046082
1038.016293	0.047824
1038.184078	0.049386
1038.351845	0.049349
1038.519593	0.050567
1038.687324	0.051313
1038.855036	0.050627
1039.022730	0.048860
1039.190406	0.049799
1039.358063	0.048515
1039.525702	0.047005
1039.693323	0.045079
1039.860926	0.044773
1040.028511	0.043299
1040.196077	0.045445
1040.363625	0.045957
1040.531155	0.047390
1040.698667	0.046035
1040.866161	0.047980
1041.033636	0.050349
1041.201093	0.050801
1041.368532	0.051843
1041.535952	0.052607
1041.703355	0.050100
1041.870739	0.048580
1042.038105	0.049144
1042.205452	0.050077
1042.372782	0.050338
1042.540093	0.050050
1042.707386	0.050218
1042.874661	0.050788
1043.041918	0.051071
1043.209156	0.050611
1043.376376	0.050993
1043.543578	0.050795
1043.710762	0.050812
1043.877927	0.050306
1044.045074	0.050520
1044.212203	0.051380
1044.379314	0.050369
1044.546407	0.051921
1044.713481	0.051841
1044.880537	0.051631
1045.047575	0.051324
1045.214595	0.052577
1045.381596	0.051230
1045.548579	0.051359
1045.715544	0.050869
1045.882491	0.051776
1046.049420	0.050035
1046.216330	0.051567
1046.383222	0.052640
1046.550096	0.052231
1046.716951	0.051598
1046.883789	0.052265
1047.050608	0.050003
1047.217409	0.050302
1047.384192	0.049665
1047.550956	0.050306
1047.717703	0.048817
1047.884431	0.048607
1048.051140	0.050637
1048.217832	0.048761
1048.384505	0.050498
1048.551161	0.050979
1048.717798	0.052060
1048.884416	0.052789
1049.051017	0.052305
1049.217599	0.054210
1049.384163	0.053566
1049.550709	0.051835
1049.717237	0.053339
1049.883746	0.052556
1050.050237	0.054546
1050.216710	0.053306
1050.383165	0.053183
1050.549601	0.053675
1050.716019	0.053276
1050.882420	0.052985
1051.048801	0.052573
1051.215165	0.052708
1051.381510	0.051860
1051.547837	0.051489
1051.714146	0.050948
1051.880437	0.051848
1052.046709	0.052468
1052.212964	0.052034
1052.379200	0.053445
1052.545417	0.054459
1052.711617	0.053849
1052.877798	0.053308
1053.043961	0.054512
1053.210106	0.055098
1053.376233	0.054322
1053.542341	0.054399
1053.708432	0.053508
1053.874504	0.052916
1054.040557	0.052942
1054.206593	0.052362
1054.372610	0.052345
1054.538609	0.050789
1054.704590	0.050880
1054.870553	0.050750
1055.036497	0.049763
1055.202424	0.052603
1055.368331	0.053708
1055.534221	0.054383
1055.700093	0.054913
1055.865946	0.056137
1056.031781	0.056456
1056.197598	0.056194
1056.363397	0.058027
1056.529177	0.057455
1056.694939	0.054499
1056.860683	0.054134
1057.026409	0.050463
1057.192116	0.049924
1057.357806	0.051040
1057.523477	0.051033
1057.689130	0.051932
1057.854764	0.050920
1058.020381	0.053122
1058.185979	0.055252
1058.351559	0.054839
1058.517120	0.058143
1058.682664	0.058761
1058.848189	0.056557
1059.013696	0.057769
1059.179185	0.057724
1059.344656	0.057731
1059.510108	0.056905
1059.675542	0.057528
1059.840958	0.056686
1060.006356	0.055433
1060.171735	0.057971
1060.337096	0.059465
1060.502439	0.058182
1060.667764	0.059088
1060.833071	0.058548
1060.998359	0.058499
1061.163629	0.056488
1061.328881	0.057900
1061.494115	0.059744
1061.659330	0.056592
1061.824527	0.056895
1061.989706	0.056814
1062.154867	0.055815
1062.320010	0.057769
1062.485134	0.056262
1062.650240	0.058531
1062.815328	0.060522
1062.980398	0.060032
1063.145449	0.061458
1063.310482	0.061071
1063.475497	0.061342
1063.640494	0.061534
1063.805473	0.060641
1063.970433	0.060991
1064.135375	0.059592
1064.300299	0.058422
1064.465204	0.057640
1064.630092	0.057621
1064.794961	0.056359
1064.959812	0.056999
1065.124645	0.056708
1065.289459	0.055486
1065.454256	0.055707
1065.619034	0.056421
1065.783793	0.056503
1065.948535	0.056623
1066.113258	0.057986
1066.277964	0.060322
1066.442651	0.058922
1066.607319	0.059917
1066.771970	0.060465
1066.936602	0.061389
1067.101216	0.061627
1067.265812	0.061237
1067.430389	0.061267
1067.594949	0.059277
1067.759490	0.056437
1067.924013	0.057906
1068.088518	0.057494
1068.253004	0.060262
1068.417472	0.061651
1068.581922	0.059697
1068.746354	0.059899
1068.910768	0.057634
1069.075163	0.059093
1069.239540	0.061694
1069.403899	0.064457
1069.568240	0.062941
1069.732562	0.061208
1069.896866	0.060325
1070.061152	0.060782
1070.225420	0.060113
1070.389670	0.062707
1070.553901	0.063171
1070.718114	0.063250
1070.882309	0.060217
1071.046486	0.061613
1071.210644	0.060346
1071.374784	0.058176
1071.538906	0.058210
1071.703010	0.059175
1071.867096	0.059946
1072.031163	0.059237
1072.195212	0.058465
1072.359243	0.059912
1072.523256	0.062530
1072.687250	0.063241
1072.851226	0.066023
1073.015184	0.066112
1073.179124	0.064407
1073.343045	0.065205
1073.506949	0.063749
1073.670834	0.065357
1073.834701	0.062214
1073.998549	0.058641
1074.162380	0.058789
1074.326192	0.058918
1074.489986	0.059987
1074.653761	0.060644
1074.817519	0.059491
1074.981258	0.061268
1075.144979	0.060670
1075.308682	0.063100
1075.472367	0.064578
1075.636033	0.063992
1075.799681	0.063788
1075.963311	0.063915
1076.126923	0.065292
1076.290516	0.065310
1076.454092	0.065053
1076.617649	0.064463
1076.781187	0.063729
1076.944708	0.064031
1077.108210	0.065823
1077.271695	0.065251
1077.435160	0.066326
1077.598608	0.065770
1077.762038	0.066479
1077.925449	0.068021
1078.088842	0.070060
1078.252217	0.071049
1078.415573	0.071856
1078.578912	0.069650
1078.742232	0.071392
1078.905534	0.070427
1079.068817	0.072448
1079.232083	0.075226
1079.395330	0.075606
1079.558559	0.073239
1079.721770	0.076494
1079.884962	0.076947
1080.048136	0.076786
1080.211293	0.076622
1080.374430	0.076531
1080.537550	0.074745
1080.700651	0.072571
1080.863735	0.070827
1081.026800	0.072356
1081.189846	0.070039
1081.352875	0.068472
1081.515885	0.070146
1081.678877	0.069859
1081.841851	0.068884
1082.004807	0.070406
1082.167744	0.071292
1082.330663	0.071740
1082.493564	0.070565
1082.656447	0.072299
1082.819312	0.073889
1082.982158	0.074386
1083.144986	0.073320
1083.307796	0.075450
1083.470587	0.072286
1083.633361	0.069662
1083.796116	0.068893
1083.958853	0.070714
1084.121571	0.069177
1084.284272	0.069151
1084.446954	0.068966
1084.609618	0.067796
1084.772264	0.067442
1084.934892	0.070110
1085.097501	0.074746
1085.260092	0.079989
1085.422665	0.081055
1085.585220	0.079051
1085.747756	0.079625
1085.910274	0.079897
1086.072774	0.084345
1086.235256	0.081813
1086.397720	0.083513
1086.560165	0.079923
1086.722592	0.074347
1086.885001	0.070497
1087.047392	0.071211
1087.209764	0.071923
1087.372119	0.072671
1087.534455	0.069446
1087.696772	0.074518
1087.859072	0.072528
1088.021353	0.074790
1088.183616	0.077956
1088.345861	0.079221
1088.508088	0.082822
1088.670296	0.080700
1088.832486	0.080922
1088.994658	0.083620
1089.156812	0.080144
1089.318948	0.081121
1089.481065	0.079401
1089.643164	0.079577
1089.805245	0.082309
1089.967308	0.081835
1090.129352	0.085546
1090.291378	0.083421
1090.453386	0.084623
1090.615376	0.085514
1090.777347	0.086519
1090.939301	0.087189
1091.101236	0.086476
1091.263153	0.084895
1091.425051	0.083380
1091.586932	0.079744
1091.748794	0.084685
1091.910638	0.082826
1092.072463	0.081106
1092.234271	0.082747
1092.396060	0.081126
1092.557831	0.082882
1092.719584	0.085313
1092.881319	0.086340
1093.043035	0.087083
1093.204733	0.081608
1093.366413	0.078901
1093.528075	0.083708
1093.689718	0.081374
1093.851343	0.084598
1094.012950	0.081663
1094.174539	0.081193
1094.336110	0.082604
1094.497662	0.083339
1094.659196	0.088971
1094.820712	0.097419
1094.982210	0.097200
1095.143689	0.098729
1095.305151	0.099996
1095.466594	0.100573
1095.628018	0.099916
1095.789425	0.096847
1095.950813	0.095496
1096.112183	0.092991
1096.273535	0.087438
1096.434869	0.086703
1096.596184	0.086579
1096.757482	0.083655
1096.918761	0.085098
1097.080021	0.085797
1097.241264	0.089367
1097.402488	0.091986
1097.563694	0.092973
1097.724882	0.088555
1097.886052	0.089056
1098.047203	0.087116
1098.208336	0.087207
1098.369451	0.086298
1098.530548	0.085694
1098.691627	0.084250
1098.852687	0.083002
1099.013729	0.084732
1099.174753	0.092059
1099.335758	0.086323
1099.496746	0.088121
1099.657715	0.086627
1099.818666	0.090416
1099.979599	0.089761
1100.140513	0.086428
1100.301409	0.090361
1100.462287	0.086875
1100.623147	0.085987
1100.783989	0.092441
1100.944812	0.091387
1101.105617	0.096888
1101.266404	0.097616
1101.427173	0.098906
1101.587923	0.100724
1101.748656	0.097597
1101.909370	0.102601
1102.070066	0.101315
1102.230743	0.100207
1102.391403	0.101791
1102.552044	0.099195
1102.712667	0.093806
1102.873271	0.095421
1103.033858	0.095088
1103.194426	0.095612
1103.354976	0.092785
1103.515508	0.092284
1103.676021	0.090238
1103.836517	0.090131
1103.996994	0.087247
1104.157453	0.090214
1104.317893	0.087689
1104.478316	0.091697
1104.638720	0.092726
1104.799106	0.091316
1104.959474	0.092053
1105.119823	0.098651
1105.280155	0.100949
1105.440468	0.105006
1105.600763	0.105990
1105.761039	0.104799
1105.921298	0.102796
1106.081538	0.101738
1106.241760	0.106315
1106.401964	0.105024
1106.562149	0.099365
1106.722316	0.098915
1106.882465	0.099259
1107.042596	0.096438
1107.202709	0.098233
1107.362803	0.098408
1107.522879	0.100722
1107.682937	0.101520
1107.842977	0.104348
1108.002999	0.103020
1108.163002	0.101542
1108.322987	0.101246
1108.482954	0.105811
1108.642902	0.105243
1108.802833	0.104001
1108.962745	0.103073
1109.122639	0.099454
1109.282515	0.093525
1109.442372	0.098266
1109.602211	0.097737
1109.762032	0.097114
1109.921835	0.094262
1110.081620	0.095378
1110.241386	0.094398
1110.401134	0.090428
1110.560864	0.091998
1110.720576	0.098233
1110.880269	0.094658
1111.039945	0.092786
1111.199602	0.092219
1111.359240	0.088346
1111.518861	0.087121
1111.678463	0.086955
1111.838047	0.094378
1111.997613	0.095556
1112.157161	0.095072
1112.316690	0.101986
1112.476202	0.105778
1112.635695	0.107285
1112.795169	0.111141
1112.954626	0.115224
1113.114064	0.115607
1113.273484	0.113111
1113.432886	0.112087
1113.592270	0.113786
1113.751635	0.110738
1113.910983	0.110749
1114.070312	0.107935
1114.229622	0.109198
1114.388915	0.107921
1114.548189	0.110413
1114.707445	0.108828
1114.866683	0.105921
1115.025903	0.106531
1115.185104	0.105999
1115.344287	0.103725
1115.503452	0.112807
1115.662599	0.114363
1115.821727	0.115046
1115.980838	0.114213
1116.139930	0.118823
1116.299004	0.126440
1116.458059	0.121170
1116.617097	0.122801
1116.776116	0.124298
1116.935117	0.118902
1117.094099	0.115618
1117.253064	0.115076
1117.412010	0.119841
1117.570938	0.118443
1117.729848	0.109856
1117.888740	0.111286
1118.047613	0.111098
1118.206468	0.112769
1118.365305	0.112322
1118.524124	0.114141
1118.682924	0.116168
1118.841707	0.115269
1119.000471	0.111358
1119.159216	0.117824
1119.317944	0.118047
1119.476653	0.113456
1119.635344	0.112162
1119.794017	0.116481
1119.952672	0.115791
1120.111308	0.115943
1120.269927	0.110169
1120.428527	0.111920
1120.587108	0.108444
1120.745672	0.111671
1120.904217	0.111789
1121.062744	0.112122
1121.221253	0.102093
1121.379744	0.105181
1121.538216	0.098262
1121.696671	0.100792
1121.855107	0.098677
1122.013524	0.099181
1122.171924	0.097176
1122.330305	0.098770
1122.488668	0.098497
1122.647013	0.101712
1122.805340	0.104399
1122.963648	0.108222
1123.121938	0.108609
1123.280210	0.114984
1123.438464	0.114926
1123.596700	0.118509
1123.754917	0.120161
1123.913116	0.124450
1124.071297	0.125950
1124.229459	0.121820
1124.387604	0.122814
1124.545730	0.124242
1124.703838	0.120292
1124.861928	0.122440
1125.019999	0.124540
1125.178052	0.123872
1125.336088	0.122469
1125.494104	0.130548
1125.652103	0.133275
1125.810083	0.132607
1125.968045	0.133891
1126.125989	0.136751
1126.283915	0.138143
1126.441823	0.135160
1126.599712	0.134415
1126.757583	0.131136
1126.915436	0.127028
1127.073270	0.123568
1127.231087	0.129605
1127.388885	0.130675
1127.546665	0.126219
1127.704426	0.127945
1127.862170	0.122199
1128.019895	0.129575
1128.177602	0.129152
1128.335291	0.129578
1128.492961	0.130563
1128.650614	0.124061
1128.808248	0.124102
1128.965864	0.123362
1129.123461	0.116898
1129.281041	0.124272
1129.438602	0.119190
1129.596145	0.124582
1129.753670	0.122183
1129.911176	0.123277
1130.068665	0.128850
1130.226135	0.123425
1130.383587	0.123129
1130.541020	0.127395
1130.698436	0.120248
1130.855833	0.114751
1131.013212	0.111927
1131.170573	0.111106
1131.327915	0.109679
1131.485239	0.111354
1131.642545	0.123025
1131.799833	0.120073
1131.957103	0.122412
1132.114354	0.121803
1132.271588	0.127285
1132.428803	0.129677
1132.585999	0.123203
1132.743178	0.123140
1132.900338	0.116671
1133.057480	0.103022
1133.214604	0.110718
1133.371710	0.115687
1133.528797	0.121061
1133.685866	0.126387
1133.842917	0.123352
1133.999950	0.132815
1134.156964	0.130790
1134.313960	0.130027
1134.470938	0.140120
1134.627898	0.141297
1134.784840	0.128336
1134.941763	0.131328
1135.098668	0.124244
1135.255555	0.123950
1135.412424	0.121286
1135.569274	0.118572
1135.726107	0.119458
1135.882921	0.122429
1136.039716	0.122868
1136.196494	0.129035
1136.353253	0.122886
1136.509995	0.122507
1136.666717	0.125574
1136.823422	0.135426
1136.980109	0.137178
1137.136777	0.138810
1137.293427	0.131139
1137.450059	0.128785
1137.606672	0.128982
1137.763267	0.134107
1137.919844	0.132069
1138.076403	0.130966
1138.232944	0.126893
1138.389466	0.126121
1138.545971	0.127605
1138.702457	0.128733
1138.858924	0.130825
1139.015374	0.131405
1139.171805	0.133091
1139.328218	0.139898
1139.484613	0.138366
1139.640990	0.138207
1139.797348	0.144443
1139.953688	0.145896
1140.110010	0.143398
1140.266314	0.135665
1140.422600	0.131362
1140.578867	0.130265
1140.735116	0.126127
1140.891347	0.127424
1141.047559	0.123811
1141.203754	0.124526
1141.359930	0.128859
1141.516088	0.131609
1141.672228	0.136643
1141.828349	0.134288
1141.984452	0.136064
1142.140537	0.144593
1142.296604	0.149418
1142.452653	0.153980
1142.608683	0.150559
1142.764695	0.136748
1142.920689	0.137831
1143.076665	0.134390
1143.232622	0.136252
1143.388562	0.126625
1143.544483	0.117654
1143.700385	0.113954
1143.856270	0.122358
1144.012136	0.128388
1144.167985	0.146256
1144.323814	0.145572
1144.479626	0.148736
1144.635420	0.156344
1144.791195	0.164219
1144.946952	0.164924
1145.102691	0.167244
1145.258411	0.155015
1145.414113	0.145676
1145.569798	0.132659
1145.725463	0.140397
1145.881111	0.141543
1146.036741	0.141699
1146.192352	0.148717
1146.347945	0.148803
1146.503519	0.147010
1146.659076	0.146049
1146.814614	0.141705
1146.970134	0.136892
1147.125636	0.131687
1147.281120	0.134383
1147.436585	0.127164
1147.592032	0.118184
1147.747461	0.121513
1147.902872	0.110982
1148.058265	0.113983
1148.213639	0.129125
1148.368995	0.131798
1148.524333	0.129369
1148.679653	0.123467
1148.834954	0.112165
1148.990237	0.105984
1149.145502	0.107831
1149.300749	0.113064
1149.455977	0.113295
1149.611188	0.109388
1149.766380	0.118196
1149.921553	0.122172
1150.076709	0.127093
1150.231846	0.143873
1150.386966	0.154045
1150.542066	0.158590
1150.697149	0.149145
1150.852214	0.150897
1151.007260	0.148305
1151.162288	0.142477
1151.317298	0.143858
1151.472289	0.144397
1151.627263	0.142069
1151.782218	0.142833
1151.937155	0.134697
1152.092073	0.148451
1152.246974	0.132373
1152.401856	0.138367
1152.556720	0.150490
1152.711566	0.144836
1152.866393	0.138001
1153.021203	0.137212
1153.175994	0.140421
1153.330767	0.146058
1153.485521	0.145118
1153.640258	0.149617
1153.794976	0.151774
1153.949676	0.142038
1154.104358	0.142402
1154.259021	0.146522
1154.413667	0.144562
1154.568294	0.142800
1154.722903	0.140623
1154.877493	0.149603
1155.032066	0.158818
1155.186620	0.149217
1155.341156	0.140638
1155.495674	0.144483
1155.650173	0.143637
1155.804654	0.146210
1155.959118	0.145696
1156.113562	0.146105
1156.267989	0.132963
1156.422397	0.128472
1156.576788	0.120523
1156.731160	0.128716
1156.885513	0.126534
1157.039849	0.129045
1157.194166	0.122753
1157.348465	0.118277
1157.502746	0.118084
1157.657009	0.122925
1157.811253	0.126336
1157.965479	0.139963
1158.119687	0.133695
1158.273877	0.127926
1158.428048	0.126141
1158.582201	0.131799
1158.736337	0.136836
1158.890453	0.135715
1159.044552	0.138880
1159.198632	0.144581
1159.352694	0.142036
1159.506738	0.152642
1159.660764	0.151854
1159.814771	0.153965
1159.968761	0.144944
1160.122732	0.138395
1160.276685	0.134460
1160.430619	0.128384
1160.584535	0.126371
1160.738434	0.133358
1160.892313	0.122180
1161.046175	0.125373
1161.200019	0.119079
1161.353844	0.128519
1161.507651	0.124413
1161.661440	0.127088
1161.815210	0.134754
1161.968962	0.127593
1162.122697	0.126566
1162.276412	0.137378
1162.430110	0.143297
1162.583789	0.143067
1162.737451	0.135236
1162.891094	0.133504
1163.044718	0.141154
1163.198325	0.138242
1163.351913	0.128843
1163.505483	0.103306
1163.659035	0.099027
1163.812569	0.088304
1163.966084	0.088468
1164.119581	0.093486
1164.273060	0.110800
1164.426521	0.101168
1164.579964	0.106938
1164.733388	0.126886
1164.886794	0.143883
1165.040182	0.144332
1165.193551	0.145214
1165.346903	0.159996
1165.500236	0.175782
1165.653551	0.168261
1165.806848	0.170451
1165.960126	0.170989
1166.113386	0.160869
1166.266628	0.152073
1166.419852	0.152805
1166.573058	0.151154
1166.726245	0.141114
1166.879414	0.128759
1167.032565	0.120221
1167.185698	0.122509
1167.338812	0.109214
1167.491909	0.117864
1167.644987	0.128494
1167.798046	0.124330
1167.951088	0.146040
1168.104111	0.144905
1168.257117	0.146789
1168.410103	0.147624
1168.563072	0.146571
1168.716023	0.142064
1168.868955	0.131907
1169.021869	0.128359
1169.174765	0.145753
1169.327642	0.138060
1169.480501	0.136294
1169.633343	0.143369
1169.786165	0.143470
1169.938970	0.135397
1170.091757	0.142195
1170.244525	0.148920
1170.397275	0.143149
1170.550007	0.124325
1170.702720	0.116233
1170.855415	0.137090
1171.008092	0.120148
1171.160751	0.118696
1171.313392	0.119681
1171.466014	0.328739
1171.618619	0.080412
1171.771205	0.080412
1171.923772	0.080412
