sample name	sample
index	1517
start time	 05-18-2021  03:16:34 PM
880	0.348991
Peak Time (s)	92.537
Peak Height 	0.349
calc peak height	90,93
Baseline Time (s)	11.537
Baseline Value 	-0.004596
subtract baseline	10,4
Abs	0.222672
Peak Time (s)	91.535
Peak Height 	0.2227
calc peak height	90,93
Baseline Time (s)	9.036
Baseline Value 	2.0272E-4
subtract baseline	10,3
PK_550	0.126642
Peak Time (s)	90.535
Peak Height 	0.1266
calc peak height	90,93
Baseline Time (s)	11.037
Baseline Value 	1.9041E-4
subtract baseline	10,2
PK_880	0.207731
Peak Time (s)	90.535
Peak Height 	0.2077
calc peak height	90,93
Baseline Time (s)	9.036
Baseline Value 	0.002448
subtract baseline	10,1


Time (s)	A880-A510	A880-A775	A880-A975	A880	I510	I775	I975	I880	
0.038500	-0.003323	0.000021	-0.003140	0.003299	6575.874638	43902.010135	3997.480676	22769.783638
0.536000	-0.002623	-0.000634	-0.003591	0.003091	6583.317230	43860.016242	3996.922606	22779.254164
1.036500	-0.005773	-0.000595	-0.000051	0.006113	6533.061423	43580.747891	3998.116536	22642.244333
1.538000	-0.001467	0.000406	0.005388	0.001369	6607.004038	44120.409928	4021.887357	22857.794622
2.037000	-0.002889	-0.000057	0.000178	0.002436	6586.510054	43975.920456	4007.167226	22809.078926
2.536000	-0.001959	-0.000296	0.002415	0.000696	6608.497507	44117.673141	4016.468721	22888.551130
3.037500	-0.003692	0.000634	0.003995	0.006130	6549.783418	43693.926578	4007.454231	22641.461544
3.535000	0.000465	0.000302	0.007771	0.000874	6627.092674	44157.343464	4028.706162	22880.387371
4.035000	-0.003888	0.000129	-0.004348	0.001974	6582.105241	44037.012625	3997.753187	22830.154162
4.535000	-0.002368	-0.000158	0.002908	0.000088	6610.138559	44188.185439	4019.058687	22916.367920
5.035500	-0.002113	-0.001163	0.003549	-0.000119	6613.955658	44112.658121	4021.057516	22925.850628
5.535500	-0.002482	0.000289	0.002373	-0.000106	6610.797421	44248.900316	4018.253720	22925.246820
6.038500	-0.003699	-0.000854	0.004930	-0.000402	6603.199933	44168.756912	4024.992652	22938.850031
6.536500	-0.001686	0.000453	0.000479	0.000994	6608.288855	44160.282218	4011.234082	22874.918140
7.037000	-0.004341	-0.000695	0.002861	-0.000490	6598.639434	44192.111286	4020.309870	22942.897021
7.537500	-0.001460	0.000631	0.000343	0.000240	6616.396387	44248.646128	4012.680383	22909.435570
8.035000	-0.000995	0.000192	0.003058	-0.000023	6622.429653	44231.922179	4019.674768	22921.469354
8.535000	0.000631	0.000209	0.000614	0.000103	6634.888636	44221.607445	4013.636814	22915.710632
9.035500	0.000000	0.000380	0.000000	0.000138	6629.343081	44234.390331	4012.114343	22914.064799
9.535500	-0.000269	-0.000378	-0.000283	-0.000222	6630.102094	44196.777322	4012.296757	22930.594674
10.036000	-0.000448	-0.000509	-0.002070	-0.000311	6629.349504	44192.685673	4008.330963	22934.653755
10.538500	0.000219	0.000336	-0.000649	0.000328	6629.591704	44212.256126	4010.156156	22905.390237
11.036500	-0.000850	0.000000	0.003010	-0.000186	6624.981748	44229.115500	4019.943216	22928.923667
11.537000	0.000123	-0.000664	0.006765	0.000000	6631.514780	44148.647814	4028.390977	22920.409739
12.037000	-0.002123	-0.000201	0.001583	-0.000155	6614.171376	44207.175297	4016.513046	22927.504099
12.537000	-0.001934	0.000231	0.003110	0.000003	6614.426373	44233.098512	4019.732400	22920.251182
13.034500	-0.000465	0.000259	-0.000235	-0.000091	6627.388087	44244.721856	4012.101260	22924.578458
13.535000	-0.000859	-0.001180	0.000977	-0.000684	6629.037490	44164.562980	4016.333024	22951.785002
14.035500	-0.003353	0.000135	0.002046	0.001913	6586.996678	44043.381427	4012.750477	22832.946189
14.535500	-0.001820	-0.000031	0.003815	0.002054	6598.449014	44014.390239	4016.567218	22826.513929
15.041500	0.000041	-0.000135	0.004127	-0.000091	6631.593438	44207.422803	4022.358360	22924.599424
15.536500	-0.001260	0.000411	-0.001406	0.000278	6617.732539	44224.131865	4008.504735	22907.672904
16.039000	0.000381	0.000122	0.000101	-0.000026	6633.871563	44225.523275	4012.734779	22921.580084
16.536500	-0.000744	0.000550	-0.000158	-0.000153	6625.586902	44278.136812	4012.427409	22927.417978
17.037000	-0.000089	-0.000291	0.000793	-0.003618	6659.933682	44528.005300	4022.810583	23086.884745
17.537000	-0.001464	0.000505	-0.000773	0.001006	6610.028922	44164.023584	4008.285122	22874.364808
18.035000	-0.001490	0.000043	0.003982	0.001328	6607.152411	44089.889872	4018.666420	22859.636307
18.535000	-0.001832	-0.000547	0.000562	0.000398	6612.011683	44122.078727	4012.822758	22902.184668
19.035000	-0.002116	-0.000403	0.005139	0.000964	6604.991285	44082.135062	4022.254906	22876.278325
19.536000	-0.000795	-0.000068	-0.002704	0.001223	6613.768252	44089.394312	4003.291666	22864.460817
20.038500	0.000268	0.000451	-0.003390	0.001465	6620.564237	44115.592315	4001.142200	22853.407720
20.536500	-0.001175	-0.000046	0.000887	0.000977	6612.656414	44114.665484	4012.227713	22875.702883
21.036500	-0.001124	0.000761	0.001364	0.001399	6609.587309	44151.088646	4012.358297	22856.417381
21.537000	-0.002159	0.000825	0.002992	0.001488	6600.312651	44148.665154	4015.963600	22852.318203
22.037000	-0.001624	-0.000132	0.002668	0.001057	6608.286730	44099.015823	4016.215971	22872.039814
22.535000	-0.001896	-0.000297	0.002237	0.001195	6604.899287	44070.394731	4014.878616	22865.724599
23.035000	-0.003253	-0.001338	-0.004357	-0.000241	6605.552714	44107.675034	4002.854247	22931.471887
23.535000	-0.001115	0.000131	0.002235	0.001321	6610.306449	44098.935439	4014.581386	22859.984071
24.035500	-0.003200	-0.000415	-0.000602	0.000862	6596.893833	44090.650040	4009.019100	22880.956588
24.536000	-0.004096	0.000650	0.003642	0.001432	6584.850177	44137.514079	4017.622904	22854.902281
25.036500	-0.000587	0.000619	0.001941	0.001070	6616.753066	44168.825797	4014.478447	22871.455406
25.541500	-0.001883	0.000016	0.003067	0.000809	6608.199525	44136.480020	4017.737634	22883.393055
26.039500	-0.001164	-0.000199	-0.000340	0.000714	6614.927029	44125.152888	4009.975084	22887.732246
26.537000	-0.001146	0.000591	0.003461	0.000829	6614.114754	44188.922389	4018.615329	22882.447470
27.037500	-0.002695	0.000191	0.001286	0.001133	6598.821800	44122.250701	4012.794734	22868.536532
27.537000	0.001686	0.000396	0.002994	-0.000802	6651.229345	44325.190916	4021.359170	22957.191392
28.035000	-0.001496	0.000446	0.000861	0.001721	6603.858942	44090.855852	4010.427152	22841.697786
28.535500	0.000509	-0.000044	0.005011	-0.000766	6641.104763	44280.000253	4026.048493	22955.565897
29.035500	-0.001940	0.000087	0.000435	0.003870	6582.530845	43854.586558	4004.431579	22743.848423
29.539000	-0.000640	-0.000022	-0.002626	-0.000666	6630.716537	44272.582231	4007.862955	22950.972648
30.036500	0.000557	0.000684	0.000041	0.000142	6633.947257	44262.879512	4012.200962	22913.899231
30.537000	-0.000525	-0.000038	0.002630	0.001847	6610.837639	44033.273712	4014.272674	22835.957288
31.037000	-0.001682	0.000064	0.001506	0.002404	6596.699460	43990.389756	4010.339775	22810.558411
31.537000	-0.000953	-0.000087	0.002299	-0.000467	6626.458171	44247.539394	4018.931787	22941.821879
32.037000	0.000182	0.000262	-0.002344	0.000207	6630.284855	44216.719629	4006.485474	22910.912168
32.538000	-0.002192	0.000234	0.004398	-0.000137	6613.457078	44246.670918	4023.105403	22926.692135
33.035000	-0.003822	-0.001230	0.000422	0.002090	6581.696386	43898.140906	4008.543208	22824.881392
33.535500	0.000693	0.000809	0.003749	-0.001480	6648.596912	44429.074133	4024.747959	22988.368312
34.036000	-0.001219	-0.000642	-0.002265	0.000483	6616.375487	44105.032840	4006.028449	22898.296741
34.536500	-0.001664	0.000969	0.002049	0.002235	6598.239966	44091.732805	4012.004260	22818.271236
35.036500	-0.001397	-0.000403	0.001386	0.000942	6611.109435	44084.230866	4013.477088	22877.277572
35.536500	-0.002521	0.000261	0.000833	0.001272	6599.105849	44115.750227	4011.410489	22862.193944
36.037000	-0.002052	0.000558	-0.000810	0.001775	6598.836227	44096.419204	4006.408460	22839.250940
36.537000	-0.000105	0.000586	-0.002056	0.001724	6615.331388	44103.832172	4003.633067	22841.571505
37.037500	-0.002103	0.000748	0.003133	0.002181	6595.070167	44075.922670	4014.667042	22820.707702
37.535000	-0.002123	-0.000162	-0.005447	0.001091	6603.885129	44092.974508	3997.255744	22870.491834
38.035500	-0.001617	-0.000034	-0.000741	0.001632	6603.600833	44053.986770	4006.902237	22845.781322
38.535500	-0.000086	-0.000286	0.002450	0.001358	6618.513885	44055.934056	4014.996117	22858.252720
39.038500	0.000388	0.000248	0.000341	0.001779	6618.949173	44066.650600	4009.078746	22839.051201
39.536500	0.000061	0.000628	0.001587	0.001818	6615.929131	44098.898781	4011.899532	22837.291636
40.037000	-0.002585	0.000283	-0.000127	0.001117	6599.858389	44132.548498	4009.531795	22869.279887
40.537000	-0.001990	-0.000212	-0.001483	0.001120	6604.739599	44085.489413	4006.365408	22869.159625
41.037000	-0.000400	0.000929	0.005649	0.001947	6611.041795	44115.215683	4021.137904	22831.400073
41.541000	-0.000230	0.000712	-0.001103	0.001925	6612.625830	44096.686577	4005.377045	22832.377545
42.034500	-0.000722	0.000468	0.001040	0.001466	6612.359222	44117.094249	4011.441749	22853.351140
42.535000	-0.001440	-0.000313	-0.002461	0.000775	6612.129275	44108.485978	4004.893493	22884.907948
43.035500	-0.002130	-0.000291	-0.003256	0.000748	6606.654374	44113.095233	4003.110818	22886.142786
43.536000	-0.001177	0.000241	0.002922	0.000446	6617.034398	44192.072870	4018.249210	22899.979394
44.036000	-0.000092	0.000410	-0.000541	0.000872	6622.488251	44167.722396	4009.136378	22880.475357
44.536000	0.001851	0.000476	0.004811	-0.000285	6648.286331	44283.716240	4024.432551	22933.487198
45.036500	-0.002809	-0.000213	0.000935	0.000406	6603.871196	44152.842754	4013.675890	22901.808355
45.536500	-0.001248	-0.000080	0.004027	-0.000069	6620.713500	44210.473252	4022.067895	22923.574606
46.034500	-0.000371	-0.000095	0.006331	0.000006	6627.362938	44202.015898	4027.347685	22920.154803
46.535000	-0.001945	-0.000772	0.001079	-0.000965	6622.362507	44229.871750	4017.233270	22964.696334
47.035000	-0.002956	-0.000545	0.003526	0.002649	6584.210782	43909.898998	4014.492132	22799.380393
47.535500	-0.002962	-0.000112	0.004329	0.001641	6592.440995	44045.707908	4018.747187	22845.332397
48.036000	-0.003188	0.000079	-0.001149	0.000939	6596.360914	44130.074469	4007.563624	22877.413178
48.535500	0.002120	0.001388	0.004718	0.000946	6640.266499	44253.438050	4021.302743	22877.119466
49.036000	-0.002471	-0.000507	0.001748	-0.000432	6613.589987	44204.345144	4017.551828	22940.202999
49.536500	-0.001141	0.000244	0.001557	-0.002678	6643.290296	44489.333843	4022.394957	23043.503003
50.037000	-0.000342	0.001400	0.002961	0.001390	6616.131310	44212.456811	4016.122207	22856.812461
50.537000	-0.000432	-0.000420	-0.000536	0.004858	6586.799736	43714.296824	3999.893719	22699.020764
51.037500	-0.001779	-0.016228	0.057100	0.453361	4286.901118	17013.185888	3404.272398	10025.294742
51.535000	-0.001734	-0.015321	-0.015549	0.049072	6232.046309	38539.903962	3871.940309	20794.008799
52.035000	-0.020095	-0.053036	-0.018146	-0.205231	8548.963273	61485.138448	4559.634574	34943.347176
52.535500	-0.013514	-0.082975	-0.006658	-0.258364	9363.706720	64690.518012	4810.465363	39098.174393
53.038500	-0.015322	-0.051959	0.002750	-0.196467	8498.392043	60459.869601	4603.923503	34305.523080
53.536000	0.012685	-0.017161	0.015715	-0.115765	7872.585133	54701.954897	4371.747758	28999.856074
54.036000	0.011020	-0.025905	0.019596	-0.149385	8242.980040	57746.633941	4495.800958	31091.049434
54.536500	0.011177	-0.017577	0.017498	-0.135999	8086.329061	57113.318424	4443.278339	30238.967284
55.036500	0.015530	-0.023604	0.026107	-0.166722	8512.374190	60276.546641	4580.451478	32234.409017
55.537000	0.028499	-0.012348	0.044245	-0.131724	8240.791987	57232.230698	4520.123102	29972.317349
56.034000	0.039666	0.000655	0.056958	-0.071931	7687.934235	51698.710281	4363.564315	26505.480141
56.534500	0.047773	0.011907	0.058384	0.013696	6925.087648	44042.332170	4122.574552	22302.558450
57.035000	0.059511	0.024192	0.072131	0.053454	6681.180798	41529.772518	4057.094473	20615.543864
57.536000	0.075184	0.033013	0.088615	0.089005	6517.445635	39233.104481	4011.527250	19232.431061
58.035500	0.091611	0.041688	0.102088	0.124724	6365.550960	37048.894698	3960.828153	17952.238075
58.536500	0.103320	0.048684	0.113428	0.150965	6255.497883	35575.278453	3928.291926	17076.591990
59.035500	0.114528	0.057070	0.122751	0.182294	6109.082358	33901.827540	3882.237759	16098.161395
59.536500	0.132390	0.066608	0.140929	0.215023	6005.170652	32297.768970	3853.043791	15148.659583
60.037000	0.134191	0.069637	0.142593	0.246444	5808.453124	30447.169018	3796.302093	14302.023737
60.538500	0.144821	0.076244	0.151334	0.242964	5900.494597	31090.856382	3819.135711	14392.816363
61.037500	0.150227	0.081243	0.162300	0.241338	5947.487618	31521.764195	3843.344020	14435.466755
61.535000	0.153394	0.086168	0.172853	0.281496	5708.581893	29303.524731	3787.521797	13427.097422
62.035000	0.162713	0.092446	0.172257	0.322709	5518.309055	27274.666021	3714.894286	12484.728746
62.538000	0.162218	0.096162	0.173817	0.307621	5603.637600	28346.425478	3742.980204	12819.400547
63.036000	0.167093	0.097362	0.169869	0.306215	5641.257886	28498.629587	3738.622366	12851.186958
63.536000	0.170332	0.101281	0.180690	0.308786	5645.289913	28577.710385	3752.858412	12793.142566
64.040000	0.176854	0.103350	0.183276	0.313327	5657.281492	28432.853986	3749.461515	12691.468630
64.537000	0.178581	0.105672	0.184167	0.317696	5641.298204	28313.540141	3743.453686	12594.648171
65.037000	0.175838	0.106322	0.189935	0.319290	5615.263309	28258.686420	3750.668889	12559.551900
65.537500	0.182397	0.107945	0.184823	0.321939	5638.717946	28199.206397	3737.305202	12501.525045
66.035000	0.182071	0.108469	0.188538	0.323814	5625.488240	28121.078595	3740.452362	12460.674139
66.535500	0.186077	0.110494	0.193083	0.327330	5628.427648	28035.170038	3742.217910	12384.540642
67.036000	0.183496	0.111557	0.190868	0.329671	5599.049926	27961.800779	3734.431915	12334.189553
67.538500	0.187209	0.112753	0.194971	0.329495	5622.237955	28040.598147	3741.743067	12337.966568
68.036000	0.187343	0.112444	0.193850	0.328368	5629.803426	28087.704583	3741.752827	12362.192541
68.536000	0.191006	0.114477	0.199415	0.328636	5650.272607	28189.688982	3750.901654	12356.424158
69.036500	0.192896	0.117845	0.198815	0.331119	5646.688419	28240.966737	3745.563182	12303.190742
69.537000	0.196546	0.118453	0.200608	0.332892	5658.056167	28173.492510	3745.597816	12265.357135
70.037000	0.198019	0.119488	0.207620	0.335090	5653.651354	28106.263224	3753.949111	12218.661081
70.534500	0.198044	0.119683	0.200234	0.334978	5654.486061	28123.993070	3741.365759	12221.049782
71.034500	0.198113	0.121621	0.203275	0.337403	5640.240468	28095.879678	3742.421359	12169.789745
71.535500	0.197475	0.120836	0.195175	0.336896	5639.450476	28079.868326	3729.489394	12180.484102
72.038500	0.200949	0.120883	0.203979	0.338280	5652.081006	28002.999366	3742.126091	12151.347285
72.536000	0.202290	0.123484	0.201503	0.339240	5654.391888	28097.398677	3736.247572	12131.172236
73.036000	0.202595	0.123306	0.204069	0.340279	5649.944831	28027.324809	3738.854373	12109.401082
73.536500	0.201821	0.125081	0.209506	0.341482	5638.003895	28060.215713	3746.129532	12084.252383
74.036000	0.203087	0.124147	0.208946	0.342201	5641.298352	27965.210722	3743.922589	12069.241007
74.536500	0.200747	0.123553	0.204516	0.342044	5628.165635	27940.162208	3736.602950	12072.520637
75.037500	0.202808	0.124138	0.205812	0.343092	5634.254584	27913.658160	3737.025944	12050.693774
75.534500	0.204937	0.126492	0.209788	0.345264	5633.999489	27924.112733	3740.111340	12005.648273
76.035000	0.204394	0.126365	0.211344	0.345282	5630.622470	27915.744442	3742.748042	12005.262611
76.538000	0.204997	0.125688	0.210832	0.344340	5639.916842	27930.954500	3743.487649	12024.772995
77.036000	0.207632	0.125859	0.209730	0.345161	5650.882603	27893.751761	3740.187597	12007.774040
77.536500	0.204562	0.126282	0.212685	0.344840	5634.292579	27936.368492	3745.821044	12014.419543
78.036000	0.207213	0.127072	0.210821	0.345467	5646.494194	27945.674345	3741.532698	12001.437196
78.536500	0.209711	0.127171	0.217929	0.345177	5663.401322	27968.005554	3754.338521	12007.442101
79.037000	0.209889	0.127730	0.212347	0.344451	5668.910710	28041.827947	3745.908869	12022.487770
79.537000	0.211389	0.128450	0.210309	0.343850	5681.743765	28117.930129	3743.430619	12034.940096
80.035000	0.209145	0.128680	0.211036	0.344185	5665.992696	28111.863655	3744.106139	12027.986567
80.535000	0.207937	0.128739	0.209566	0.344316	5657.854284	28107.751058	3741.354931	12025.288306
81.035000	0.208734	0.128477	0.212599	0.343462	5667.900159	28141.920487	3748.054651	12043.017015
81.535500	0.208430	0.129324	0.207945	0.343587	5665.285415	28183.667387	3739.827037	12040.421449
82.036000	0.209009	0.128349	0.214746	0.343058	5672.036190	28157.823842	3752.483943	12051.410535
82.536000	0.207648	0.128612	0.218728	0.343807	5659.191327	28129.790066	3758.135344	12035.851029
83.039500	0.209563	0.129600	0.210561	0.344093	5669.102069	28170.339631	3743.446628	12029.907546
83.537000	0.208421	0.128365	0.216946	0.343099	5668.203823	28156.430711	3756.253346	12050.565477
84.036500	0.207805	0.129129	0.208234	0.343850	5659.879240	28157.126773	3739.869263	12034.940035
84.537500	0.206229	0.126942	0.206690	0.342064	5661.161093	28134.017672	3740.285199	12072.116744
85.035000	0.208915	0.128030	0.211453	0.344017	5665.615117	28084.090769	3745.114419	12031.481517
85.537000	0.205550	0.128160	0.205482	0.343763	5646.746128	28106.225541	3735.321712	12036.758861
86.038500	0.208318	0.128194	0.213905	0.344338	5660.029442	28075.003069	3748.796892	12024.814025
86.536000	0.206434	0.127509	0.207595	0.343997	5650.680523	28055.248649	3738.525435	12031.904481
87.035500	0.206296	0.127227	0.210926	0.345041	5643.527266	27978.998223	3742.443307	12010.247991
87.536000	0.205267	0.126261	0.209857	0.343888	5644.275854	27989.736557	3742.588608	12034.150991
88.036500	0.208568	0.127489	0.215785	0.344822	5658.613791	28006.630776	3751.222622	12014.796934
88.536500	0.206385	0.127140	0.208049	0.345360	5642.139877	27955.690542	3736.972375	12003.649657
89.037500	0.203004	0.125237	0.206703	0.343620	5632.260509	27946.404868	3737.645416	12039.731970
89.534500	0.207421	0.126622	0.212891	0.345474	5647.711520	27919.496392	3745.082264	12001.300299
90.035000	0.203813	0.125017	0.215285	0.345844	5623.768283	27806.685657	3748.581410	11993.652570
90.535000	0.207731	0.126642	0.217776	0.346402	5643.975944	27867.552256	3751.935255	11982.111145
91.035000	0.203369	0.124784	0.212090	0.345861	5621.001162	27792.421602	3743.036321	11993.292173
91.535500	0.205863	0.126343	0.222672	0.348253	5621.614420	27744.991891	3757.253363	11943.988341
92.039000	0.204448	0.124737	0.210829	0.348948	5609.013091	27614.542956	3735.595342	11929.718632
92.536500	0.206628	0.125198	0.213162	0.348991	5621.773762	27638.193541	3739.505690	11928.839465
93.039500	0.202415	0.124889	0.217791	0.348918	5597.104962	27624.846027	3747.595371	11930.332125
93.540500	0.204531	0.123972	0.219885	0.349897	5603.859938	27517.811670	3749.528683	11910.273282
94.037500	0.204439	0.122521	0.209192	0.350753	5598.227967	27388.183859	3729.759427	11892.759016
94.537500	0.203174	0.124203	0.215984	0.355041	5565.488296	27242.643849	3734.002311	11805.578196
95.035000	0.204572	0.123971	0.214848	0.352808	5586.845692	27354.288431	3735.865977	11850.860219
95.538000	0.206213	0.124229	0.222075	0.353728	5591.112013	27317.336622	3746.688222	11832.185055
96.036000	0.204891	0.123521	0.214651	0.354127	5580.945829	27255.556008	3733.288697	11824.077602
