sample name	sample
index	66
start time	 02-11-2021  03:25:54 PM


Wavelength (nm)	Absorbance
494.344910	-0.834633
494.563924	-0.834633
494.782919	-0.834633
495.001897	NaN
495.220856	-0.378065
495.439797	-0.292256
495.658719	-0.350143
495.877624	-0.368946
496.096510	-0.855895
496.315378	-0.668289
496.534227	-0.956480
496.753059	-0.617998
496.971872	-0.850819
497.190667	0.137828
497.409444	0.149258
497.628203	0.137732
497.846943	0.144458
498.065665	0.142496
498.284369	0.146472
498.503055	0.150110
498.721723	0.149614
498.940372	0.149025
499.159003	0.151104
499.377616	0.152082
499.596210	0.155822
499.814787	0.154823
500.033345	0.154932
500.251885	0.153021
500.470406	0.153245
500.688910	0.153547
500.907395	0.152881
501.125862	0.152637
501.344311	0.153730
501.562742	0.154449
501.781154	0.155088
501.999548	0.156321
502.217924	0.158196
502.436282	0.155222
502.654621	0.155339
502.872942	0.155624
503.091245	0.158999
503.309530	0.154694
503.527797	0.154681
503.746045	0.151287
503.964275	0.150324
504.182487	0.149302
504.400681	0.151046
504.618856	0.150612
504.837013	0.149790
505.055152	0.146078
505.273273	0.147655
505.491376	0.146856
505.709460	0.150432
505.927526	0.150565
506.145574	0.149309
506.363604	0.150680
506.581615	0.153475
506.799608	0.154207
507.017583	0.156202
507.235540	0.156669
507.453478	0.155984
507.671399	0.155920
507.889301	0.157455
508.107185	0.159143
508.325050	0.156552
508.542898	0.154528
508.760727	0.154423
508.978538	0.154982
509.196330	0.157052
509.414105	0.159424
509.631861	0.159734
509.849599	0.159781
510.067319	0.159339
510.285021	0.159677
510.502704	0.160442
510.720369	0.160634
510.938016	0.158601
511.155645	0.156750
511.373255	0.155474
511.590848	0.155589
511.808422	0.155918
512.025977	0.156162
512.243515	0.157408
512.461034	0.156732
512.678536	0.158132
512.896018	0.160046
513.113483	0.160246
513.330930	0.160129
513.548358	0.160494
513.765768	0.161169
513.983160	0.160419
514.200533	0.159565
514.417889	0.159569
514.635226	0.158390
514.852545	0.159907
515.069845	0.160655
515.287128	0.161303
515.504392	0.163244
515.721638	0.162537
515.938866	0.163120
516.156075	0.166457
516.373267	0.168164
516.590440	0.169509
516.807594	0.167426
517.024731	0.167174
517.241850	0.166127
517.458950	0.163924
517.676032	0.164189
517.893095	0.165081
518.110141	0.162203
518.327168	0.163221
518.544177	0.162778
518.761168	0.163616
518.978141	0.164315
519.195095	0.165762
519.412031	0.166411
519.628949	0.165777
519.845849	0.165886
520.062731	0.167384
520.279594	0.165896
520.496439	0.167204
520.713266	0.166679
520.930074	0.165414
521.146865	0.165354
521.363637	0.165801
521.580391	0.166337
521.797127	0.165124
522.013844	0.164092
522.230543	0.164759
522.447224	0.164073
522.663887	0.165127
522.880532	0.166866
523.097158	0.167118
523.313766	0.168310
523.530356	0.168561
523.746928	0.170264
523.963481	0.171184
524.180017	0.171249
524.396534	0.171556
524.613032	0.170587
524.829513	0.170202
525.045975	0.170965
525.262420	0.169790
525.478845	0.169652
525.695253	0.169824
525.911643	0.170200
526.128014	0.170004
526.344367	0.171007
526.560702	0.172603
526.777018	0.174113
526.993316	0.174488
527.209597	0.175084
527.425858	0.176539
527.642102	0.176851
527.858328	0.177931
528.074535	0.177882
528.290724	0.177286
528.506894	0.176878
528.723047	0.175714
528.939181	0.176461
529.155297	0.176660
529.371395	0.176569
529.587475	0.176344
529.803536	0.176240
530.019579	0.177425
530.235604	0.178635
530.451611	0.180755
530.667600	0.181524
530.883570	0.181341
531.099522	0.182392
531.315456	0.182856
531.531372	0.184175
531.747269	0.183837
531.963148	0.184039
532.179009	0.185542
532.394852	0.184744
532.610676	0.186026
532.826482	0.186568
533.042271	0.186016
533.258040	0.186120
533.473792	0.185624
533.689525	0.186053
533.905240	0.185604
534.120937	0.184689
534.336616	0.184652
534.552277	0.184424
534.767919	0.184673
534.983543	0.185585
535.199149	0.185729
535.414736	0.186975
535.630306	0.187600
535.845857	0.188763
536.061390	0.188701
536.276904	0.189338
536.492401	0.189975
536.707879	0.190030
536.923339	0.190128
537.138781	0.190448
537.354204	0.189917
537.569610	0.190828
537.784997	0.190820
538.000366	0.191662
538.215716	0.191619
538.431049	0.191117
538.646363	0.191326
538.861659	0.190989
539.076937	0.191364
539.292196	0.192274
539.507438	0.191685
539.722661	0.191820
539.937866	0.191874
540.153052	0.192474
540.368221	0.192921
540.583371	0.193235
540.798503	0.194973
541.013617	0.195832
541.228712	0.196246
541.443789	0.196437
541.658848	0.197565
541.873889	0.197751
542.088912	0.198036
542.303916	0.199363
542.518902	0.199699
542.733870	0.199282
542.948820	0.199545
543.163752	0.199394
543.378665	0.200341
543.593560	0.200192
543.808437	0.200850
544.023295	0.201079
544.238136	0.200060
544.452958	0.199779
544.667762	0.199840
544.882548	0.199879
545.097315	0.200117
545.312064	0.200325
545.526795	0.200671
545.741508	0.200087
545.956203	0.200210
546.170879	0.200186
546.385537	0.200979
546.600177	0.201565
546.814799	0.201698
547.029402	0.201760
547.243988	0.201234
547.458555	0.201434
547.673103	0.202294
547.887634	0.202902
548.102146	0.204238
548.316640	0.204752
548.531116	0.204381
548.745574	0.204371
548.960013	0.204433
549.174435	0.205584
549.388838	0.206028
549.603222	0.206805
549.817589	0.206932
550.031937	0.206559
550.246267	0.206268
550.460579	0.206261
550.674873	0.206746
550.889148	0.207440
551.103405	0.207588
551.317644	0.207415
551.531865	0.206820
551.746068	0.207402
551.960252	0.207024
552.174418	0.207007
552.388566	0.207914
552.602696	0.207925
552.816807	0.207480
553.030900	0.208005
553.244975	0.208534
553.459032	0.208803
553.673070	0.208190
553.887091	0.209647
554.101093	0.209644
554.315077	0.209102
554.529042	0.209141
554.742990	0.210615
554.956919	0.210858
555.170830	0.210326
555.384722	0.210337
555.598597	0.211180
555.812453	0.211273
556.026291	0.212573
556.240111	0.213900
556.453913	0.214367
556.667696	0.214464
556.881461	0.214329
557.095208	0.215620
557.308937	0.215721
557.522647	0.215256
557.736339	0.215209
557.950013	0.215411
558.163669	0.214966
558.377307	0.215752
558.590926	0.215626
558.804527	0.215662
559.018110	0.215643
559.231675	0.216152
559.445221	0.215903
559.658749	0.216226
559.872259	0.216150
560.085751	0.216685
560.299225	0.216606
560.512680	0.216666
560.726117	0.217454
560.939536	0.217785
561.152937	0.218069
561.366319	0.219387
561.579683	0.219158
561.793029	0.219902
562.006357	0.219772
562.219667	0.219475
562.432958	0.219606
562.646231	0.219978
562.859486	0.219396
563.072723	0.219081
563.285941	0.219103
563.499141	0.219632
563.712323	0.219040
563.925487	0.220126
564.138632	0.220535
564.351760	0.220972
564.564869	0.219803
564.777960	0.220338
564.991032	0.221112
565.204087	0.221256
565.417123	0.222154
565.630141	0.222367
565.843140	0.222110
566.056122	0.221911
566.269085	0.222350
566.482030	0.223811
566.694957	0.224441
566.907866	0.224820
567.120756	0.225044
567.333628	0.224100
567.546482	0.224209
567.759318	0.224550
567.972135	0.224811
568.184935	0.224419
568.397716	0.224376
568.610478	0.224017
568.823223	0.223344
569.035949	0.223839
569.248657	0.224135
569.461347	0.224103
569.674019	0.223778
569.886672	0.224513
570.099308	0.224504
570.311925	0.223904
570.524523	0.224266
570.737104	0.224930
570.949666	0.224616
571.162210	0.225112
571.374736	0.225584
571.587244	0.225587
571.799733	0.225077
572.012205	0.225337
572.224658	0.226128
572.437092	0.226034
572.649509	0.226277
572.861907	0.226080
573.074287	0.225939
573.286649	0.225947
573.498993	0.225797
573.711318	0.226604
573.923625	0.226399
574.135914	0.226224
574.348185	0.226466
574.560438	0.225948
574.772672	0.227056
574.984888	0.226884
575.197086	0.226864
575.409266	0.227676
575.621427	0.227750
575.833570	0.228420
576.045695	0.228010
576.257802	0.228412
576.469890	0.228787
576.681961	0.228781
576.894013	0.229499
577.106046	0.230253
577.318062	0.229989
577.530059	0.230106
577.742039	0.230175
577.954000	0.231513
578.165942	0.231384
578.377867	0.232526
578.589773	0.232174
578.801661	0.232725
579.013531	0.232183
579.225382	0.232945
579.437216	0.233297
579.649031	0.234050
579.860828	0.234077
580.072606	0.234162
580.284367	0.234324
580.496109	0.234640
580.707833	0.233629
580.919539	0.234532
581.131227	0.234302
581.342896	0.234154
581.554547	0.234398
581.766180	0.234582
581.977795	0.234842
582.189391	0.235284
582.400969	0.236327
582.612529	0.237592
582.824071	0.237263
583.035595	0.238058
583.247100	0.237986
583.458587	0.237970
583.670056	0.237781
583.881506	0.238110
584.092939	0.237980
584.304353	0.237853
584.515749	0.238100
584.727127	0.239402
584.938486	0.239158
585.149828	0.239782
585.361151	0.239838
585.572456	0.239761
585.783742	0.240260
585.995011	0.239889
586.206261	0.239570
586.417493	0.239490
586.628706	0.238987
586.839902	0.239636
587.051079	0.239346
587.262238	0.239535
587.473379	0.240398
587.684502	0.240749
587.895606	0.241215
588.106692	0.241118
588.317760	0.241585
588.528810	0.241592
588.739841	0.241758
588.950855	0.242536
589.161850	0.242198
589.372827	0.242029
589.583785	0.241462
589.794726	0.241264
590.005648	0.242059
590.216552	0.241872
590.427437	0.242572
590.638305	0.242570
590.849154	0.242093
591.059985	0.242862
591.270798	0.242595
591.481592	0.243014
591.692369	0.242936
591.903127	0.242498
592.113867	0.242803
592.324588	0.242939
592.535292	0.242722
592.745977	0.243941
592.956644	0.244030
593.167293	0.244401
593.377923	0.244104
593.588536	0.244563
593.799130	0.244971
594.009706	0.245776
594.220263	0.245636
594.430803	0.246220
594.641324	0.246093
594.851827	0.246033
595.062312	0.246342
595.272778	0.247404
595.483227	0.247800
595.693657	0.248246
595.904069	0.247542
596.114462	0.248004
596.324838	0.247859
596.535195	0.248007
596.745534	0.248105
596.955855	0.249199
597.166157	0.248635
597.376441	0.248566
597.586707	0.248967
597.796955	0.249307
598.007185	0.249273
598.217396	0.249664
598.427589	0.250055
598.637764	0.250564
598.847921	0.249988
599.058060	0.250672
599.268180	0.251398
599.478282	0.251241
599.688366	0.251023
599.898431	0.251317
600.108479	0.250906
600.318508	0.250524
600.528519	0.250082
600.738511	0.250549
600.948486	0.250766
601.158442	0.250597
601.368380	0.250274
601.578300	0.250345
601.788202	0.249924
601.998085	0.250626
602.207950	0.250713
602.417797	0.251381
602.627626	0.251002
602.837436	0.250888
603.047228	0.250764
603.257002	0.251428
603.466758	0.251560
603.676496	0.251441
603.886215	0.251130
604.095916	0.251517
604.305599	0.251762
604.515264	0.252250
604.724910	0.252434
604.934538	0.252657
605.144148	0.252236
605.353740	0.252839
605.563314	0.253811
605.772869	0.254473
605.982406	0.254679
606.191925	0.254518
606.401425	0.254796
606.610908	0.255374
606.820372	0.255918
607.029818	0.256293
607.239246	0.256382
607.448655	0.256003
607.658047	0.255977
607.867420	0.256203
608.076775	0.256541
608.286111	0.256670
608.495430	0.256737
608.704730	0.256553
608.914012	0.257301
609.123275	0.258285
609.332521	0.258735
609.541748	0.258789
609.750957	0.258660
609.960148	0.258699
610.169321	0.258832
610.378475	0.258463
610.587611	0.258788
610.796729	0.258223
611.005829	0.257693
611.214910	0.257276
611.423974	0.257649
611.633019	0.257773
611.842045	0.257994
612.051054	0.258115
612.260044	0.258679
612.469017	0.258709
612.677970	0.259141
612.886906	0.259061
613.095824	0.259356
613.304723	0.259249
613.513604	0.259444
613.722467	0.259094
613.931311	0.259043
614.140138	0.259466
614.348946	0.259909
614.557736	0.260143
614.766507	0.260311
614.975261	0.260489
615.183996	0.260605
615.392713	0.260825
615.601412	0.261528
615.810092	0.261766
616.018754	0.261760
616.227399	0.262256
616.436024	0.262466
616.644632	0.262610
616.853222	0.262967
617.061793	0.263105
617.270346	0.263589
617.478880	0.263580
617.687397	0.263775
617.895895	0.264125
618.104375	0.263890
618.312837	0.264001
618.521281	0.264258
618.729706	0.264697
618.938113	0.264732
619.146502	0.264798
619.354873	0.265106
619.563226	0.265487
619.771560	0.265329
619.979876	0.265591
620.188174	0.266196
620.396453	0.266320
620.604715	0.266703
620.812958	0.267165
621.021183	0.267324
621.229390	0.267749
621.437578	0.267613
621.645748	0.267775
621.853900	0.268022
622.062034	0.268084
622.270150	0.268464
622.478247	0.268160
622.686326	0.268359
622.894387	0.268802
623.102430	0.268682
623.310454	0.269014
623.518461	0.269141
623.726449	0.269490
623.934418	0.269633
624.142370	0.269951
624.350303	0.270515
624.558218	0.271237
624.766115	0.271563
624.973994	0.271570
625.181855	0.271859
625.389697	0.272611
625.597521	0.272733
625.805327	0.272969
626.013114	0.272592
626.220883	0.272920
626.428634	0.272513
626.636367	0.272288
626.844082	0.272963
627.051778	0.272973
627.259457	0.272719
627.467117	0.272617
627.674758	0.272054
627.882382	0.272705
628.089987	0.272443
628.297574	0.272658
628.505143	0.272756
628.712694	0.272842
628.920226	0.272264
629.127740	0.272481
629.335236	0.272787
629.542714	0.273781
629.750174	0.273535
629.957615	0.273823
630.165038	0.273586
630.372443	0.273519
630.579829	0.273307
630.787198	0.274224
630.994548	0.274108
631.201880	0.274186
631.409194	0.274069
631.616489	0.274484
631.823766	0.274581
632.031025	0.275230
632.238266	0.275284
632.445489	0.275734
632.652693	0.276364
632.859879	0.276964
633.067047	0.277489
633.274197	0.277443
633.481329	0.277469
633.688442	0.277915
633.895537	0.278122
634.102614	0.278705
634.309672	0.278912
634.516713	0.279064
634.723735	0.279193
634.930739	0.279060
635.137724	0.279380
635.344692	0.280180
635.551641	0.280245
635.758572	0.280463
635.965485	0.280328
636.172379	0.280572
636.379256	0.280655
636.586114	0.280831
636.792954	0.281173
636.999775	0.281079
637.206579	0.280731
637.413364	0.280768
637.620131	0.280797
637.826880	0.281063
638.033610	0.280629
638.240323	0.280418
638.447017	0.281113
638.653692	0.281842
638.860350	0.282196
639.066990	0.282799
639.273611	0.283161
639.480214	0.283152
639.686798	0.283758
639.893365	0.284528
640.099913	0.284860
640.306443	0.284446
640.512955	0.283967
640.719449	0.284650
640.925924	0.284844
641.132381	0.285083
641.338820	0.285628
641.545241	0.285399
641.751644	0.285665
641.958028	0.285418
642.164394	0.285380
642.370742	0.285611
642.577071	0.285707
642.783383	0.285755
642.989676	0.285561
643.195951	0.285424
643.402207	0.285569
643.608446	0.285259
643.814666	0.285842
644.020868	0.286358
644.227052	0.286532
644.433218	0.286290
644.639365	0.286340
644.845494	0.286658
645.051605	0.286873
645.257698	0.286968
645.463772	0.287617
645.669828	0.287861
645.875866	0.288123
646.081886	0.288607
646.287888	0.289224
646.493871	0.289801
646.699836	0.290288
646.905783	0.290847
647.111712	0.291606
647.317622	0.292370
647.523514	0.292594
647.729388	0.292677
647.935244	0.292670
648.141082	0.292832
648.346901	0.292626
648.552702	0.293418
648.758485	0.293973
648.964250	0.294265
649.169996	0.293635
649.375724	0.293608
649.581434	0.293834
649.787126	0.293945
649.992800	0.294132
650.198455	0.294371
650.404092	0.293784
650.609711	0.293552
650.815311	0.293749
651.020894	0.294252
651.226458	0.294436
651.432004	0.294723
651.637532	0.294885
651.843041	0.294635
652.048532	0.294960
652.254006	0.295677
652.459460	0.296156
652.664897	0.296578
652.870315	0.296877
653.075716	0.297724
653.281097	0.298275
653.486461	0.298702
653.691807	0.299354
653.897134	0.299498
654.102443	0.299700
654.307734	0.299997
654.513006	0.300132
654.718261	0.300203
654.923497	0.300324
655.128715	0.300244
655.333915	0.300544
655.539096	0.301190
655.744259	0.301922
655.949404	0.301819
656.154531	0.302030
656.359640	0.302015
656.564730	0.302314
656.769802	0.302697
656.974856	0.302987
657.179892	0.303184
657.384909	0.302599
657.589908	0.302077
657.794889	0.302581
657.999852	0.302886
658.204797	0.303195
658.409723	0.303058
658.614631	0.302619
658.819521	0.302453
659.024393	0.302496
659.229246	0.302739
659.434081	0.303379
659.638898	0.303927
659.843697	0.304219
660.048478	0.304544
660.253240	0.305133
660.457984	0.305727
660.662710	0.306089
660.867417	0.306431
661.072107	0.307039
661.276778	0.307219
661.481431	0.306921
661.686066	0.306759
661.890682	0.306602
662.095281	0.307135
662.299861	0.307310
662.504422	0.307747
662.708966	0.308224
662.913491	0.308288
663.117999	0.308889
663.322488	0.309020
663.526958	0.309576
663.731411	0.310291
663.935845	0.310559
664.140261	0.310830
664.344659	0.310795
664.549038	0.311193
664.753400	0.311396
664.957743	0.311769
665.162068	0.312470
665.366375	0.312706
665.570663	0.312933
665.774933	0.313140
665.979185	0.313596
666.183419	0.314239
666.387635	0.314153
666.591832	0.314848
666.796011	0.314333
667.000172	0.314469
667.204315	0.314732
667.408439	0.314994
667.612545	0.315199
667.816634	0.315430
668.020703	0.315522
668.224755	0.315600
668.428788	0.316112
668.632803	0.316792
668.836800	0.317132
669.040779	0.317247
669.244739	0.317637
669.448681	0.318140
669.652605	0.318227
669.856511	0.318869
670.060399	0.319273
670.264268	0.319106
670.468119	0.319278
670.671952	0.319612
670.875767	0.319814
671.079563	0.319847
671.283341	0.320162
671.487101	0.320671
671.690843	0.320380
671.894567	0.320695
672.098272	0.320547
672.301959	0.320640
672.505628	0.320907
672.709278	0.321034
672.912911	0.321070
673.116525	0.320819
673.320121	0.321079
673.523699	0.321589
673.727258	0.321701
673.930799	0.322739
674.134322	0.323265
674.337827	0.322831
674.541314	0.323240
674.744782	0.323750
674.948232	0.324401
675.151664	0.324279
675.355078	0.324386
675.558474	0.324762
675.761851	0.324242
675.965210	0.324698
676.168551	0.325230
676.371873	0.325530
676.575178	0.325565
676.778464	0.326151
676.981732	0.326299
677.184981	0.326461
677.388213	0.326807
677.591426	0.327572
677.794621	0.327700
677.997798	0.327923
678.200956	0.328014
678.404097	0.328575
678.607219	0.328288
678.810323	0.328955
679.013408	0.329321
679.216476	0.329042
679.419525	0.329440
679.622556	0.329283
679.825569	0.330006
680.028563	0.330378
680.231540	0.330463
680.434498	0.330689
680.637438	0.331151
680.840359	0.331519
681.043263	0.332138
681.246148	0.332279
681.449015	0.332821
681.651864	0.332467
681.854694	0.332809
682.057506	0.333029
682.260301	0.333259
682.463076	0.332979
682.665834	0.332937
682.868573	0.333359
683.071295	0.333635
683.273998	0.333753
683.476682	0.334244
683.679349	0.334676
683.881997	0.334923
684.084627	0.335039
684.287239	0.335541
684.489833	0.335691
684.692408	0.335848
684.894965	0.335958
685.097504	0.336213
685.300025	0.336647
685.502527	0.336278
685.705012	0.336488
685.907478	0.336351
686.109925	0.336455
686.312355	0.336610
686.514766	0.336857
686.717159	0.336794
686.919534	0.337051
687.121891	0.337152
687.324230	0.337681
687.526550	0.338128
687.728852	0.338974
687.931136	0.339365
688.133401	0.339799
688.335649	0.339631
688.537878	0.340249
688.740089	0.340713
688.942281	0.340396
689.144456	0.340531
689.346612	0.340355
689.548750	0.340082
689.750870	0.340048
689.952971	0.340473
690.155055	0.341214
690.357120	0.341034
690.559167	0.341079
690.761195	0.341260
690.963206	0.341174
691.165198	0.341464
691.367172	0.342020
691.569128	0.342107
691.771065	0.342764
691.972984	0.342883
692.174885	0.343363
692.376768	0.343565
692.578633	0.343927
692.780479	0.344512
692.982308	0.344602
693.184118	0.344504
693.385909	0.345078
693.587683	0.344845
693.789438	0.345018
693.991175	0.345207
694.192894	0.345085
694.394595	0.345817
694.596277	0.346029
694.797941	0.346190
694.999587	0.346510
695.201215	0.346137
695.402824	0.346053
695.604416	0.345894
695.805989	0.346345
696.007543	0.346544
696.209080	0.347007
696.410598	0.347014
696.612099	0.347223
696.813580	0.347355
697.015044	0.347782
697.216490	0.348355
697.417917	0.348742
697.619326	0.348660
697.820717	0.348885
698.022089	0.347983
698.223444	0.348078
698.424780	0.347955
698.626098	0.348214
698.827397	0.348259
699.028679	0.347966
699.229942	0.348017
699.431187	0.347728
699.632414	0.347894
699.833622	0.348812
700.034813	0.348667
700.235985	0.349061
700.437139	0.348846
700.638274	0.349455
700.839392	0.349882
701.040491	0.350283
701.241572	0.350519
701.442635	0.350646
701.643679	0.350589
701.844706	0.351299
702.045714	0.351589
702.246704	0.352024
702.447675	0.351630
702.648629	0.351376
702.849564	0.351193
703.050481	0.351417
703.251380	0.351434
703.452260	0.351490
703.653122	0.351016
703.853966	0.351064
704.054792	0.350914
704.255600	0.350866
704.456389	0.350848
704.657160	0.350463
704.857913	0.350709
705.058648	0.350963
705.259365	0.350813
705.460063	0.350962
705.660743	0.350512
705.861405	0.350447
706.062048	0.350672
706.262674	0.350402
706.463281	0.350765
706.663870	0.350624
706.864441	0.350454
707.064993	0.350493
707.265527	0.350281
707.466043	0.350134
707.666541	0.350218
707.867021	0.350253
708.067482	0.350654
708.267925	0.350676
708.468350	0.350773
708.668757	0.350802
708.869145	0.351390
709.069516	0.351480
709.269868	0.352061
709.470201	0.351885
709.670517	0.351906
709.870814	0.352221
710.071093	0.352162
710.271354	0.352178
710.471597	0.352244
710.671821	0.351586
710.872028	0.351614
711.072216	0.351672
711.272385	0.352152
711.472537	0.352246
711.672670	0.351736
711.872785	0.351551
712.072882	0.351453
712.272961	0.351756
712.473021	0.352068
712.673063	0.352730
712.873087	0.352500
713.073093	0.352372
713.273081	0.352385
713.473050	0.352569
713.673001	0.353338
713.872934	0.353431
714.072849	0.353304
714.272745	0.352972
714.472623	0.352634
714.672483	0.352840
714.872325	0.352567
715.072148	0.352106
715.271954	0.351976
715.471741	0.351430
715.671509	0.351633
715.871260	0.351171
716.070992	0.351129
716.270707	0.350931
716.470403	0.350402
716.670080	0.350594
716.869740	0.350850
717.069381	0.351011
717.269004	0.350662
717.468609	0.350286
717.668195	0.350599
717.867764	0.350626
718.067314	0.350311
718.266846	0.350279
718.466360	0.349965
718.665855	0.349598
718.865332	0.349348
719.064791	0.349310
719.264232	0.348918
719.463655	0.348782
719.663059	0.348665
719.862445	0.348887
720.061813	0.349157
720.261163	0.348779
720.460494	0.348907
720.659807	0.349019
720.859102	0.349030
721.058379	0.348805
721.257638	0.348449
721.456878	0.348386
721.656100	0.348314
721.855304	0.348028
722.054490	0.348646
722.253657	0.348967
722.452806	0.348681
722.651937	0.348572
722.851050	0.348446
723.050145	0.348254
723.249221	0.348410
723.448279	0.348029
723.647319	0.348004
723.846340	0.347267
724.045344	0.346580
724.244329	0.346742
724.443296	0.346265
724.642245	0.346456
724.841175	0.346617
725.040088	0.346194
725.238982	0.346320
725.437857	0.345854
725.636715	0.346368
725.835554	0.346213
726.034376	0.345730
726.233179	0.345881
726.431963	0.345937
726.630730	0.345168
726.829478	0.344768
727.028208	0.344937
727.226920	0.345268
727.425614	0.344532
727.624289	0.344160
727.822946	0.344264
728.021585	0.344314
728.220206	0.343914
728.418808	0.344072
728.617392	0.343936
728.815958	0.343274
729.014506	0.342378
729.213036	0.342244
729.411547	0.342402
729.610040	0.342050
729.808515	0.341771
730.006972	0.341386
730.205410	0.341267
730.403831	0.341100
730.602233	0.340637
730.800616	0.340984
730.998982	0.340986
731.197329	0.340710
731.395658	0.340663
731.593969	0.340518
731.792262	0.340683
731.990536	0.340658
732.188793	0.340314
732.387031	0.340797
732.585250	0.340338
732.783452	0.339928
732.981635	0.339713
733.179800	0.339297
733.377947	0.338612
733.576076	0.337990
733.774186	0.337145
733.972278	0.336938
734.170352	0.336250
734.368408	0.335936
734.566446	0.336341
734.764465	0.336228
734.962466	0.335765
735.160449	0.336081
735.358413	0.335896
735.556360	0.336282
735.754288	0.336490
735.952198	0.336454
736.150090	0.336831
736.347963	0.335778
736.545818	0.335698
736.743655	0.335632
736.941474	0.335201
737.139275	0.335095
737.337057	0.334750
737.534821	0.334321
737.732567	0.333781
737.930295	0.333425
738.128005	0.334225
738.325696	0.333741
738.523369	0.333998
738.721024	0.334084
738.918660	0.334018
739.116279	0.333462
739.313879	0.332767
739.511461	0.332859
739.709024	0.332694
739.906570	0.331767
740.104097	0.331741
740.301606	0.330877
740.499097	0.330284
740.696569	0.329830
740.894024	0.329841
741.091460	0.329648
741.288878	0.329264
741.486277	0.329010
741.683659	0.328770
741.881022	0.329020
742.078367	0.329212
742.275694	0.329012
742.473002	0.329143
742.670293	0.328791
742.867565	0.328803
743.064819	0.328698
743.262054	0.328115
743.459272	0.328135
743.656471	0.326809
743.853652	0.326458
744.050815	0.326471
744.247959	0.326185
744.445085	0.326262
744.642194	0.326185
744.839283	0.325622
745.036355	0.325469
745.233408	0.325130
745.430444	0.325314
745.627461	0.325271
745.824459	0.324741
746.021440	0.324445
746.218402	0.324211
746.415346	0.323584
746.612272	0.323535
746.809180	0.323221
747.006069	0.322618
747.202940	0.322227
747.399793	0.322100
747.596628	0.322073
747.793444	0.321399
747.990243	0.321375
748.187023	0.321449
748.383784	0.321576
748.580528	0.321158
748.777253	0.320921
748.973960	0.320981
749.170649	0.320422
749.367320	0.319985
749.563973	0.320108
749.760607	0.320072
749.957223	0.319980
750.153821	0.319703
750.350400	0.319936
750.546962	0.320155
750.743505	0.319961
750.940030	0.320143
751.136536	0.320336
751.333025	0.320090
751.529495	0.319387
751.725947	0.319232
751.922381	0.318688
752.118796	0.318748
752.315194	0.318521
752.511573	0.318412
752.707934	0.317828
752.904276	0.317194
753.100601	0.317252
753.296907	0.316983
753.493195	0.317331
753.689465	0.317261
753.885716	0.316951
754.081949	0.316482
754.278164	0.316240
754.474361	0.316294
754.670540	0.316944
754.866700	0.316477
755.062843	0.316790
755.258967	0.316259
755.455072	0.316116
755.651160	0.315784
755.847229	0.315980
756.043280	0.315890
756.239313	0.315431
756.435328	0.314496
756.631324	0.314374
756.827302	0.313665
757.023262	0.313204
757.219204	0.313228
757.415127	0.312878
757.611033	0.312537
757.806920	0.312172
758.002788	0.311703
758.198639	0.311564
758.394471	0.311491
758.590286	0.311709
758.786081	0.312260
758.981859	0.311713
759.177619	0.311697
759.373360	0.311721
759.569083	0.311917
759.764788	0.312202
759.960474	0.312486
760.156143	0.312049
760.351793	0.311495
760.547425	0.310702
760.743038	0.310923
760.938634	0.310601
761.134211	0.310735
761.329770	0.310379
761.525311	0.309893
761.720833	0.309472
761.916338	0.309857
762.111824	0.310097
762.307292	0.310541
762.502741	0.310456
762.698173	0.310056
762.893586	0.309593
763.088981	0.309351
763.284358	0.309500
763.479716	0.309488
763.675057	0.309080
763.870379	0.309211
764.065683	0.308628
764.260968	0.308562
764.456236	0.309366
764.651485	0.309379
764.846716	0.309905
765.041929	0.309870
765.237123	0.309458
765.432299	0.309599
765.627457	0.309141
765.822597	0.309075
766.017719	0.308939
766.212822	0.308640
766.407907	0.308410
766.602974	0.307569
766.798023	0.307713
766.993054	0.307734
767.188066	0.307108
767.383060	0.307239
767.578036	0.307091
767.772993	0.306798
767.967933	0.306503
768.162854	0.306387
768.357757	0.306382
768.552642	0.306351
768.747508	0.306032
768.942356	0.306180
769.137186	0.305583
769.331998	0.305453
769.526792	0.305335
769.721567	0.305267
769.916324	0.304755
770.111063	0.304865
770.305784	0.304494
770.500486	0.305017
770.695171	0.305058
770.889837	0.305219
771.084484	0.305094
771.279114	0.304829
771.473725	0.304757
771.668318	0.305041
771.862893	0.304733
772.057450	0.304817
772.251988	0.304191
772.446509	0.304346
772.641011	0.304311
772.835494	0.304675
773.029960	0.304916
773.224407	0.304475
773.418836	0.304318
773.613247	0.304194
773.807640	0.303781
774.002014	0.304049
774.196370	0.303864
774.390708	0.303987
774.585028	0.303735
774.779330	0.303601
774.973613	0.303876
775.167878	0.304086
775.362125	0.304147
775.556354	0.304290
775.750564	0.304050
775.944756	0.303500
776.138930	0.303322
776.333086	0.303281
776.527223	0.303165
776.721343	0.302932
776.915444	0.302335
777.109526	0.302334
777.303591	0.302246
777.497637	0.302474
777.691666	0.302650
777.885676	0.302555
778.079667	0.302269
778.273641	0.302535
778.467596	0.302864
778.661533	0.303094
778.855452	0.303201
779.049352	0.303191
779.243235	0.302688
779.437099	0.302746
779.630945	0.302582
779.824773	0.302584
780.018582	0.302246
780.212373	0.302170
780.406146	0.302491
780.599901	0.302205
780.793638	0.302482
780.987356	0.302723
781.181056	0.303065
781.374738	0.302960
781.568402	0.303377
781.762047	0.303634
781.955674	0.303414
782.149283	0.303014
782.342874	0.303229
782.536447	0.302939
782.730001	0.303444
782.923537	0.302661
783.117055	0.302962
783.310555	0.302505
783.504036	0.301773
783.697499	0.301767
783.890944	0.301867
784.084371	0.301640
784.277780	0.301840
784.471170	0.301784
784.664542	0.302624
784.857896	0.302386
785.051231	0.302431
785.244549	0.303089
785.437848	0.303184
785.631129	0.303380
785.824392	0.303409
786.017636	0.302866
786.210863	0.302698
786.404071	0.302733
786.597260	0.303231
786.790432	0.303296
786.983585	0.303581
787.176721	0.303650
787.369838	0.304235
787.562936	0.304726
787.756017	0.305314
787.949079	0.305345
788.142123	0.305198
788.335149	0.304971
788.528156	0.305450
788.721146	0.305510
788.914117	0.305842
789.107070	0.305437
789.300005	0.305262
789.492921	0.305220
789.685819	0.305378
789.878699	0.305348
790.071561	0.305662
790.264405	0.305629
790.457230	0.305475
790.650037	0.305452
790.842826	0.305746
791.035597	0.305837
791.228349	0.306235
791.421084	0.305585
791.613800	0.305750
791.806497	0.305552
791.999177	0.305098
792.191838	0.304974
792.384481	0.304785
792.577106	0.304456
792.769713	0.304620
792.962301	0.304546
793.154871	0.305077
793.347423	0.305021
793.539957	0.305249
793.732473	0.305784
793.924970	0.305698
794.117449	0.306355
794.309910	0.306686
794.502353	0.306522
794.694777	0.306732
794.887183	0.307290
795.079571	0.307487
795.271941	0.307381
795.464293	0.307528
795.656626	0.308338
795.848941	0.307747
796.041238	0.307825
796.233516	0.308117
796.425777	0.308068
796.618019	0.308277
796.810243	0.308425
797.002449	0.309409
797.194636	0.309529
797.386805	0.309708
797.578956	0.310539
797.771089	0.310568
797.963204	0.311298
798.155300	0.311425
798.347378	0.311398
798.539438	0.312031
798.731480	0.312128
798.923503	0.312598
799.115509	0.312981
799.307496	0.312968
799.499465	0.313241
799.691415	0.313035
799.883348	0.313304
800.075262	0.313358
800.267158	0.313641
800.459035	0.313170
800.650895	0.313190
800.842736	0.312855
801.034559	0.312621
801.226364	0.312802
801.418150	0.312874
801.609919	0.312942
801.801669	0.312980
801.993401	0.312426
802.185114	0.312670
802.376810	0.312640
802.568487	0.312633
802.760146	0.312935
802.951787	0.312726
803.143409	0.313188
803.335014	0.313198
803.526600	0.313830
803.718168	0.314122
803.909717	0.314241
804.101249	0.314490
804.292762	0.315275
804.484257	0.315677
804.675734	0.316550
804.867192	0.316673
805.058632	0.317681
805.250054	0.317380
805.441458	0.317820
805.632844	0.318409
805.824211	0.319458
806.015561	0.319503
806.206891	0.319885
806.398204	0.319885
806.589499	0.320233
806.780775	0.320238
806.972033	0.320701
807.163273	0.320895
807.354495	0.321306
807.545698	0.321156
807.736883	0.321655
807.928050	0.322022
808.119199	0.322674
808.310329	0.322863
808.501441	0.323137
808.692535	0.323424
808.883611	0.324263
809.074669	0.324089
809.265708	0.323967
809.456729	0.324180
809.647732	0.324497
809.838717	0.324443
810.029683	0.324705
810.220632	0.324840
810.411562	0.325139
810.602474	0.325473
810.793367	0.326141
810.984242	0.326936
811.175100	0.327346
811.365938	0.328006
811.556759	0.328309
811.747562	0.328192
811.938346	0.328577
812.129112	0.329032
812.319860	0.329191
812.510589	0.329223
812.701300	0.329251
812.891994	0.328946
813.082668	0.329355
813.273325	0.329114
813.463964	0.329850
813.654584	0.330117
813.845186	0.330433
814.035769	0.330201
814.226335	0.330346
814.416882	0.330260
814.607411	0.330831
814.797922	0.330220
814.988415	0.330827
815.178889	0.330729
815.369345	0.330874
815.559783	0.331258
815.750203	0.332013
815.940605	0.332741
816.130988	0.332849
816.321353	0.332760
816.511700	0.333186
816.702028	0.334217
816.892339	0.334923
817.082631	0.334670
817.272905	0.334628
817.463161	0.334843
817.653398	0.334708
817.843617	0.335218
818.033819	0.335735
818.224001	0.336363
818.414166	0.335950
818.604312	0.336001
818.794440	0.337082
818.984550	0.337739
819.174642	0.337823
819.364716	0.338205
819.554771	0.339009
819.744808	0.339559
819.934827	0.339474
820.124827	0.340099
820.314810	0.340597
820.504774	0.340585
820.694720	0.340603
820.884647	0.340867
821.074557	0.341279
821.264448	0.341538
821.454321	0.341838
821.644176	0.342193
821.834012	0.342626
822.023831	0.342979
822.213631	0.343467
822.403413	0.344015
822.593176	0.344829
822.782922	0.345179
822.972649	0.344871
823.162358	0.345074
823.352049	0.345821
823.541721	0.345898
823.731376	0.346284
823.921012	0.346335
824.110629	0.346790
824.300229	0.346904
824.489811	0.347289
824.679374	0.347774
824.868919	0.348419
825.058445	0.348162
825.247954	0.348415
825.437444	0.348744
825.626916	0.349605
825.816370	0.349485
826.005806	0.349474
826.195223	0.349830
826.384622	0.350926
826.574003	0.350933
826.763366	0.351571
826.952711	0.351945
827.142037	0.352370
827.331345	0.352280
827.520635	0.352887
827.709906	0.352981
827.899160	0.353118
828.088395	0.352668
828.277612	0.353227
828.466810	0.353999
828.655991	0.354555
828.845153	0.354819
829.034297	0.355692
829.223423	0.355748
829.412531	0.356214
829.601620	0.356624
829.790691	0.357243
829.979744	0.357388
830.168779	0.357971
830.357795	0.358301
830.546793	0.358475
830.735773	0.358630
830.924735	0.359027
831.113679	0.359596
831.302604	0.360415
831.491511	0.360742
831.680400	0.361145
831.869271	0.361034
832.058123	0.361824
832.246957	0.362430
832.435773	0.363323
832.624571	0.363766
832.813351	0.364584
833.002112	0.365018
833.190855	0.365772
833.379580	0.366027
833.568287	0.366079
833.756975	0.366138
833.945645	0.366663
834.134297	0.366497
834.322931	0.367867
834.511547	0.367899
834.700144	0.367921
834.888723	0.368687
835.077284	0.369666
835.265826	0.370071
835.454351	0.370295
835.642857	0.370451
835.831345	0.370648
836.019815	0.370507
836.208266	0.370613
836.396699	0.370683
836.585114	0.370777
836.773511	0.371155
836.961890	0.372005
837.150250	0.372809
837.338592	0.373511
837.526916	0.373853
837.715222	0.374265
837.903510	0.375259
838.091779	0.376127
838.280030	0.376773
838.468263	0.377315
838.656477	0.377701
838.844674	0.378169
839.032852	0.377784
839.221012	0.378606
839.409153	0.379523
839.597277	0.379495
839.785382	0.380383
839.973469	0.380695
840.161538	0.380910
840.349589	0.381452
840.537621	0.382468
840.725635	0.383532
840.913631	0.383826
841.101609	0.384346
841.289568	0.385883
841.477509	0.386113
841.665432	0.386395
841.853337	0.387075
842.041224	0.387877
842.229092	0.388009
842.416942	0.388765
842.604774	0.389796
842.792588	0.389732
842.980383	0.389789
843.168160	0.389613
843.355919	0.390504
843.543660	0.390663
843.731382	0.391088
843.919087	0.391002
844.106773	0.391884
844.294441	0.391875
844.482090	0.392736
844.669722	0.393031
844.857335	0.394501
845.044930	0.394524
845.232507	0.394826
845.420065	0.394324
845.607605	0.394624
845.795127	0.394840
845.982631	0.395807
846.170117	0.395920
846.357584	0.396302
846.545033	0.396381
846.732464	0.396750
846.919877	0.397299
847.107272	0.398333
847.294648	0.398808
847.482006	0.399031
847.669346	0.399498
847.856667	0.400197
848.043971	0.401069
848.231256	0.401452
848.418523	0.401499
848.605771	0.401591
848.793002	0.402225
848.980214	0.403009
849.167408	0.403963
849.354584	0.404110
849.541742	0.404731
849.728881	0.404352
849.916002	0.404780
850.103105	0.405750
850.290190	0.406794
850.477256	0.407238
850.664304	0.407694
850.851334	0.407853
851.038346	0.407933
851.225340	0.408212
851.412315	0.408935
851.599272	0.409608
851.786211	0.409603
851.973132	0.409367
852.160034	0.409580
852.346918	0.409598
852.533784	0.409512
852.720632	0.410019
852.907462	0.409122
853.094273	0.409694
853.281066	0.409122
853.467841	0.409267
853.654598	0.409957
853.841336	0.410538
854.028056	0.410919
854.214758	0.411114
854.401442	0.411703
854.588107	0.413428
854.774755	0.414349
854.961384	0.415608
855.147995	0.416733
855.334587	0.416750
855.521162	0.416951
855.707718	0.417865
855.894256	0.418780
856.080775	0.419179
856.267277	0.419226
856.453760	0.419416
856.640225	0.420292
856.826672	0.420730
857.013101	0.422294
857.199511	0.422413
857.385903	0.423065
857.572277	0.423368
857.758633	0.423817
857.944970	0.424271
858.131290	0.423840
858.317591	0.423195
858.503873	0.423187
858.690138	0.423416
858.876384	0.424225
859.062612	0.423910
859.248822	0.424596
859.435014	0.424409
859.621188	0.424765
859.807343	0.425873
859.993480	0.426892
860.179599	0.427749
860.365699	0.428091
860.551781	0.428304
860.737846	0.428612
860.923891	0.429148
861.109919	0.430247
861.295929	0.430528
861.481920	0.430756
861.667893	0.430588
861.853848	0.430071
862.039784	0.430245
862.225702	0.431016
862.411603	0.432025
862.597484	0.432671
862.783348	0.433242
862.969193	0.433514
863.155021	0.433499
863.340830	0.434303
863.526620	0.435179
863.712393	0.436081
863.898147	0.435715
864.083883	0.435567
864.269601	0.435173
864.455301	0.435284
864.640982	0.436544
864.826645	0.437382
865.012290	0.437600
865.197917	0.437890
865.383526	0.437983
865.569116	0.438775
865.754688	0.439729
865.940242	0.440173
866.125777	0.440394
866.311295	0.439706
866.496794	0.439215
866.682275	0.439416
866.867737	0.439747
867.053182	0.439729
867.238608	0.440073
867.424016	0.440197
867.609406	0.440503
867.794778	0.440667
867.980131	0.441091
868.165466	0.441475
868.350783	0.441671
868.536082	0.442178
868.721362	0.442690
868.906625	0.443400
869.091869	0.444081
869.277094	0.444700
869.462302	0.445107
869.647491	0.445715
869.832662	0.446369
870.017815	0.446816
870.202950	0.446995
870.388066	0.446770
870.573165	0.446447
870.758245	0.446696
870.943306	0.446039
871.128350	0.445855
871.313375	0.445237
871.498382	0.445996
871.683371	0.446221
871.868342	0.446871
872.053294	0.447430
872.238229	0.448011
872.423144	0.448282
872.608042	0.448997
872.792922	0.449530
872.977783	0.449308
873.162626	0.449378
873.347451	0.449157
873.532258	0.448988
873.717046	0.449605
873.901816	0.449663
874.086568	0.448833
874.271302	0.448620
874.456017	0.448975
874.640715	0.450526
874.825394	0.450838
875.010055	0.451352
875.194697	0.451428
875.379322	0.450514
875.563928	0.450682
875.748516	0.451015
875.933085	0.452362
876.117637	0.451801
876.302170	0.451695
876.486685	0.450973
876.671182	0.451585
876.855661	0.451588
877.040121	0.452295
877.224563	0.453089
877.408987	0.454103
877.593393	0.453524
877.777780	0.454573
877.962150	0.455506
878.146501	0.455549
878.330833	0.455421
878.515148	0.456140
878.699444	0.455489
878.883722	0.455634
879.067982	0.455701
879.252224	0.455979
879.436447	0.456097
879.620653	0.455240
879.804840	0.456523
879.989008	0.457375
880.173159	0.457189
880.357291	0.458061
880.541405	0.457056
880.725501	0.456677
880.909579	0.457007
881.093638	0.457391
881.277680	0.457706
881.461703	0.457475
881.645707	0.457064
881.829694	0.458143
882.013662	0.458611
882.197612	0.459388
882.381544	0.459836
882.565458	0.459593
882.749353	0.459233
882.933230	0.458853
883.117089	0.457964
883.300930	0.458094
883.484753	0.456974
883.668557	0.455371
883.852343	0.454788
884.036111	0.454602
884.219861	0.453893
884.403592	0.453706
884.587305	0.454277
884.771000	0.455038
884.954677	0.454946
885.138335	0.455478
885.321976	0.457508
885.505598	0.458421
885.689201	0.457884
885.872787	0.458503
886.056354	0.459081
886.239904	0.457726
886.423434	0.458530
886.606947	0.459159
886.790442	0.459277
886.973918	0.459084
887.157376	0.458935
887.340816	0.459116
887.524237	0.459691
887.707641	0.459113
887.891026	0.461221
888.074393	0.460552
888.257741	0.459302
888.441072	0.458378
888.624384	0.458404
888.807678	0.458384
888.990954	0.459686
889.174211	0.458976
889.357451	0.459833
889.540672	0.459218
889.723875	0.458874
889.907059	0.459378
890.090226	0.459580
890.273374	0.459376
890.456504	0.458252
890.639616	0.457212
890.822709	0.457979
891.005785	0.456214
891.188842	0.456621
891.371881	0.457028
891.554901	0.457281
891.737904	0.457450
891.920888	0.456795
892.103854	0.457459
892.286802	0.456981
892.469731	0.456971
892.652643	0.457401
892.835536	0.456341
893.018410	0.456266
893.201267	0.456470
893.384106	0.456052
893.566926	0.457141
893.749728	0.457088
893.932511	0.457216
894.115277	0.455859
894.298024	0.455744
894.480753	0.455865
894.663464	0.455180
894.846157	0.454401
895.028831	0.454143
895.211487	0.453146
895.394125	0.453140
895.576745	0.453141
895.759346	0.453934
895.941930	0.455222
896.124495	0.455235
896.307041	0.455135
896.489570	0.454578
896.672080	0.454324
896.854573	0.453875
897.037046	0.453377
897.219502	0.453030
897.401940	0.451894
897.584359	0.450773
897.766760	0.451074
897.949143	0.450164
898.131507	0.450285
898.313854	0.450053
898.496182	0.449168
898.678492	0.448058
898.860783	0.447885
899.043057	0.447644
899.225312	0.448063
899.407549	0.446163
899.589768	0.447279
899.771968	0.447591
899.954151	0.447879
900.136315	0.448954
900.318461	0.449807
900.500588	0.450534
900.682698	0.450129
900.864789	0.448645
901.046862	0.449651
901.228917	0.449215
901.410953	0.448413
901.592971	0.447621
901.774972	0.447635
901.956953	0.446449
902.138917	0.445458
902.320862	0.446057
902.502790	0.445750
902.684699	0.444278
902.866589	0.443007
903.048462	0.443347
903.230316	0.444227
903.412152	0.443632
903.593970	0.444153
903.775770	0.443916
903.957551	0.444369
904.139314	0.444257
904.321059	0.444441
904.502786	0.444941
904.684494	0.443473
904.866185	0.442945
905.047857	0.442400
905.229510	0.441212
905.411146	0.440864
905.592763	0.438851
905.774363	0.439407
905.955943	0.439873
906.137506	0.439380
906.319051	0.439492
906.500577	0.439252
906.682085	0.438086
906.863575	0.438793
907.045046	0.438698
907.226500	0.438086
907.407935	0.436533
907.589352	0.435064
907.770750	0.434752
907.952131	0.434290
908.133493	0.433763
908.314837	0.434452
908.496163	0.433501
908.677470	0.431990
908.858760	0.432887
909.040031	0.432774
909.221284	0.433269
909.402518	0.432313
909.583735	0.431541
909.764933	0.430454
909.946113	0.429116
910.127275	0.429556
910.308418	0.430040
910.489544	0.428650
910.670651	0.428557
910.851740	0.427317
911.032810	0.426271
911.213863	0.425800
911.394897	0.424872
911.575913	0.425081
911.756911	0.422968
911.937890	0.422129
912.118851	0.422167
912.299794	0.420987
912.480719	0.421595
912.661626	0.422052
912.842514	0.422198
913.023384	0.421416
913.204236	0.420392
913.385070	0.420380
913.565886	0.418040
913.746683	0.418182
913.927462	0.417930
914.108223	0.416194
914.288965	0.415158
914.469690	0.414163
914.650396	0.414158
914.831084	0.413998
915.011754	0.414101
915.192405	0.415168
915.373038	0.413234
915.553653	0.413298
915.734250	0.413201
915.914829	0.412652
916.095389	0.411543
916.275931	0.410742
916.456455	0.409048
916.636961	0.408630
916.817448	0.407910
916.997917	0.407312
917.178368	0.405585
917.358801	0.403979
917.539216	0.402797
917.719612	0.402603
917.899990	0.402560
918.080350	0.402002
918.260692	0.401407
918.441015	0.401830
918.621320	0.401644
918.801607	0.401488
918.981876	0.402804
919.162127	0.402231
919.342359	0.401904
919.522573	0.401200
919.702769	0.400898
919.882947	0.399547
920.063106	0.396797
920.243247	0.395380
920.423370	0.395684
920.603475	0.392271
920.783562	0.392968
920.963630	0.392152
921.143680	0.390453
921.323712	0.389913
921.503725	0.388777
921.683721	0.388003
921.863698	0.389205
922.043657	0.387813
922.223598	0.388577
922.403520	0.388166
922.583424	0.387060
922.763311	0.387938
922.943178	0.387960
923.123028	0.388130
923.302859	0.389524
923.482673	0.387282
923.662467	0.385816
923.842244	0.385937
924.022003	0.384661
924.201743	0.384472
924.381465	0.384068
924.561169	0.382562
924.740854	0.380052
924.920522	0.378919
925.100171	0.378567
925.279802	0.378812
925.459414	0.377508
925.639009	0.376082
925.818585	0.374673
925.998143	0.371303
926.177683	0.369176
926.357205	0.369261
926.536708	0.367057
926.716193	0.365133
926.895660	0.364116
927.075109	0.364035
927.254539	0.361202
927.433951	0.360978
927.613345	0.361124
927.792721	0.360021
927.972079	0.359010
928.151418	0.358426
928.330739	0.358312
928.510042	0.356599
928.689327	0.355799
928.868593	0.357263
929.047841	0.354389
929.227071	0.352386
929.406283	0.354758
929.585476	0.353253
929.764652	0.352033
929.943809	0.349927
930.122948	0.347351
930.302068	0.345023
930.481171	0.344122
930.660255	0.344758
930.839321	0.343694
931.018369	0.340275
931.197398	0.341160
931.376409	0.340732
931.555402	0.340968
931.734377	0.341271
931.913334	0.339514
932.092272	0.336852
932.271192	0.334718
932.450094	0.334920
932.628978	0.333671
932.807844	0.331427
932.986691	0.330208
933.165520	0.329274
933.344331	0.327553
933.523123	0.324937
933.701898	0.322850
933.880654	0.322344
934.059392	0.320910
934.238111	0.320745
934.416813	0.320041
934.595496	0.318289
934.774161	0.316265
934.952808	0.316962
935.131437	0.317975
935.310047	0.319472
935.488639	0.320733
935.667213	0.320256
935.845769	0.318224
936.024306	0.316658
936.202825	0.317053
936.381326	0.314080
936.559809	0.311131
936.738274	0.309407
936.916720	0.307896
937.095148	0.305981
937.273558	0.305686
937.451950	0.306350
937.630323	0.307777
937.808678	0.307285
937.987015	0.308430
938.165334	0.309426
938.343635	0.310262
938.521917	0.309802
938.700181	0.307148
938.878427	0.304622
939.056655	0.303783
939.234864	0.300824
939.413055	0.296323
939.591228	0.296604
939.769383	0.295359
939.947519	0.294331
940.125638	0.292368
940.303738	0.291565
940.481820	0.291917
940.659883	0.288172
940.837929	0.287696
941.015956	0.287646
941.193965	0.284018
941.371955	0.283097
941.549928	0.280830
941.727882	0.280330
941.905818	0.278498
942.083736	0.277201
942.261636	0.278554
942.439517	0.276333
942.617380	0.275965
942.795225	0.276685
942.973052	0.275267
943.150860	0.272592
943.328651	0.270190
943.506423	0.271754
943.684176	0.271685
943.861912	0.271204
944.039629	0.269956
944.217328	0.270929
944.395009	0.266936
944.572672	0.263889
944.750317	0.263991
944.927943	0.261332
945.105551	0.259510
945.283141	0.255831
945.460712	0.253733
945.638265	0.252430
945.815801	0.250350
945.993317	0.251583
946.170816	0.251276
946.348297	0.250234
946.525759	0.253202
946.703203	0.251773
946.880629	0.248149
947.058036	0.247385
947.235425	0.247810
947.412797	0.242417
947.590149	0.245757
947.767484	0.242569
947.944800	0.244025
948.122099	0.240561
948.299379	0.235802
948.476640	0.241097
948.653884	0.235427
948.831109	0.233035
949.008316	0.234052
949.185505	0.227966
949.362676	0.230453
949.539828	0.226403
949.716962	0.226400
949.894078	0.224696
950.071176	0.220929
950.248256	0.221603
950.425317	0.218974
950.602360	0.224270
950.779385	0.222470
950.956391	0.216495
951.133380	0.217521
951.310350	0.215095
951.487302	0.214392
951.664235	0.210837
951.841151	0.210010
952.018048	0.213130
952.194927	0.204770
952.371788	0.206180
952.548631	0.209192
952.725455	0.204178
952.902261	0.207058
953.079049	0.209351
953.255819	0.211797
953.432570	0.213088
953.609303	0.214459
953.786018	0.214668
953.962715	0.213184
954.139394	0.212324
954.316054	0.210678
954.492696	0.200684
954.669320	0.202235
954.845926	0.199465
955.022513	0.196526
955.199083	0.192120
955.375634	0.190855
955.552166	0.187615
955.728681	0.185625
955.905177	0.190270
956.081655	0.192980
956.258115	0.188533
956.434557	0.187049
956.610980	0.183526
956.787385	0.179612
956.963772	0.178817
957.140141	0.176257
957.316492	0.174820
957.492824	0.169461
957.669138	0.169788
957.845434	0.170011
958.021712	0.168750
958.197971	0.168664
958.374212	0.170166
958.550435	0.174772
958.726640	0.173067
958.902826	0.168492
959.078995	0.172918
959.255145	0.167262
959.431277	0.163110
959.607390	0.162478
959.783486	0.164146
959.959563	0.154943
960.135622	0.150224
960.311662	0.154529
960.487685	0.155629
960.663689	0.150079
960.839675	0.157277
961.015643	0.157853
961.191593	0.157623
961.367524	0.154202
961.543437	0.155649
961.719332	0.152880
961.895209	0.148056
962.071067	0.149029
962.246907	0.148364
962.422730	0.141376
962.598533	0.137565
962.774319	0.134593
962.950086	0.141268
963.125835	0.144679
963.301566	0.143720
963.477279	0.148140
963.652973	0.145675
963.828650	0.143798
964.004308	0.149029
964.179947	0.156377
964.355569	0.157422
964.531172	0.142477
964.706757	0.141252
964.882324	0.142101
965.057873	0.144881
965.233403	0.147189
965.408916	0.143829
965.584410	0.141418
965.759885	0.137590
965.935343	0.139236
966.110782	0.144014
966.286203	0.142110
966.461606	0.137178
966.636991	0.137253
966.812357	0.134775
966.987705	0.141875
967.163035	0.148606
967.338347	0.143064
967.513641	0.148336
967.688916	0.153675
967.864173	0.158520
968.039412	0.160612
968.214632	0.156949
968.389835	0.156764
968.565019	0.157925
968.740185	0.149385
968.915333	0.151051
969.090462	0.148440
969.265573	0.146705
969.440667	0.141519
969.615741	0.146766
969.790798	0.146759
969.965836	0.148492
970.140856	0.147630
970.315858	0.148419
970.490842	0.149645
970.665808	0.143877
970.840755	0.144310
971.015684	0.150519
971.190595	0.148115
971.365487	0.146120
971.540362	0.149776
971.715218	0.146539
971.890056	0.145632
972.064875	0.149822
972.239677	0.150710
972.414460	0.148113
972.589225	0.142587
972.763972	0.134085
972.938700	0.135938
973.113411	0.130403
973.288103	0.132300
973.462777	0.140867
973.637432	0.135708
973.812070	0.140770
973.986689	0.143580
974.161290	0.143030
974.335873	0.150749
974.510437	0.148191
974.684984	0.148943
974.859512	0.141927
975.034022	0.134589
975.208513	0.138777
975.382987	0.134003
975.557442	0.135652
975.731879	0.136954
975.906298	0.133209
976.080698	0.134804
976.255080	0.132457
976.429445	0.140108
976.603790	0.138279
976.778118	0.140778
976.952427	0.143952
977.126719	0.138700
977.300992	0.137979
977.475246	0.142071
977.649483	0.142059
977.823701	0.146198
977.997901	0.146762
978.172083	0.152287
978.346247	0.147566
978.520392	0.139560
978.694519	0.143459
978.868628	0.139481
979.042719	0.137153
979.216791	0.139307
979.390845	0.139305
979.564882	0.137487
979.738899	0.138135
979.912899	0.144110
980.086880	0.151130
980.260843	0.148053
980.434788	0.157507
980.608715	0.161789
980.782623	0.157945
980.956514	0.158458
981.130386	0.154474
981.304240	0.149406
981.478075	0.135355
981.651892	0.131389
981.825692	0.132686
981.999472	0.131221
982.173235	0.128949
982.346980	0.128563
982.520706	0.128864
982.694414	0.133158
982.868104	0.132573
983.041775	0.137738
983.215428	0.139987
983.389064	0.144399
983.562680	0.139511
983.736279	0.139601
983.909860	0.140264
984.083422	0.140042
984.256966	0.132250
984.430491	0.134560
984.603999	0.138856
984.777488	0.139947
984.950959	0.137601
985.124412	0.141274
985.297847	0.141201
985.471263	0.139219
985.644661	0.135120
985.818041	0.141956
985.991403	0.141408
986.164747	0.144029
986.338072	0.144266
986.511379	0.142365
986.684668	0.143179
986.857938	0.142446
987.031191	0.140271
987.204425	0.143289
987.377641	0.147320
987.550839	0.151072
987.724018	0.146355
987.897179	0.147835
988.070322	0.150176
988.243447	0.147810
988.416554	0.150791
988.589642	0.151496
988.762712	0.157230
988.935764	0.151569
989.108798	0.151597
989.281813	0.152568
989.454811	0.150595
989.627790	0.149823
989.800751	0.152536
989.973693	0.147959
990.146617	0.149466
990.319524	0.143567
990.492412	0.145030
990.665281	0.139440
990.838133	0.137375
991.010966	0.134866
991.183781	0.137170
991.356578	0.133863
991.529356	0.138415
991.702117	0.147645
991.874859	0.147400
992.047583	0.151149
992.220288	0.154550
992.392976	0.153659
992.565645	0.159479
992.738296	0.156168
992.910929	0.158638
993.083543	0.154985
993.256139	0.147151
993.428718	0.146655
993.601277	0.139728
993.773819	0.141203
993.946342	0.146955
994.118848	0.144096
994.291335	0.145098
994.463803	0.142065
994.636254	0.143528
994.808686	0.145949
994.981100	0.146940
995.153496	0.148085
995.325874	0.147614
995.498233	0.148222
995.670574	0.147259
995.842897	0.146767
996.015202	0.146526
996.187488	0.147821
996.359757	0.150427
996.532007	0.155589
996.704239	0.159339
996.876452	0.156166
997.048648	0.150432
997.220825	0.150127
997.392984	0.145605
997.565124	0.153920
997.737247	0.153821
997.909351	0.148795
998.081437	0.143008
998.253505	0.143614
998.425554	0.151514
998.597586	0.159957
998.769599	0.160109
998.941594	0.166279
999.113571	0.159295
999.285529	0.159140
999.457469	0.161525
999.629391	0.164176
999.801295	0.157750
999.973181	0.150690
1000.145048	0.140424
1000.316897	0.142197
1000.488728	0.139520
1000.660541	0.135521
1000.832335	0.135823
1001.004111	0.135365
1001.175869	0.138328
1001.347609	0.140240
1001.519331	0.138813
1001.691034	0.142549
1001.862719	0.140695
1002.034386	0.139890
1002.206035	0.145613
1002.377665	0.145049
1002.549277	0.147115
1002.720871	0.143222
1002.892447	0.142904
1003.064004	0.145717
1003.235544	0.147658
1003.407065	0.148920
1003.578568	0.149251
1003.750052	0.143529
1003.921519	0.145547
1004.092967	0.145973
1004.264397	0.148341
1004.435809	0.152497
1004.607202	0.150017
1004.778577	0.148220
1004.949934	0.148415
1005.121273	0.149602
1005.292594	0.150412
1005.463896	0.151380
1005.635180	0.150604
1005.806446	0.148407
1005.977694	0.147225
1006.148923	0.145535
1006.320135	0.147030
1006.491328	0.145935
1006.662503	0.143655
1006.833659	0.149950
1007.004798	0.146150
1007.175918	0.142177
1007.347020	0.140699
1007.518103	0.139913
1007.689169	0.145069
1007.860216	0.141542
1008.031245	0.141944
1008.202256	0.141273
1008.373248	0.137636
1008.544223	0.139029
1008.715179	0.139259
1008.886117	0.139674
1009.057036	0.138220
1009.227938	0.138717
1009.398821	0.142288
1009.569686	0.137548
1009.740533	0.137529
1009.911361	0.143084
1010.082172	0.146380
1010.252964	0.149088
1010.423738	0.153305
1010.594493	0.155648
1010.765231	0.150800
1010.935950	0.150225
1011.106651	0.157640
1011.277334	0.161959
1011.447998	0.160048
1011.618645	0.156562
1011.789273	0.154544
1011.959882	0.155185
1012.130474	0.156105
1012.301048	0.161237
1012.471603	0.158905
1012.642140	0.156045
1012.812658	0.154840
1012.983159	0.149916
1013.153641	0.148485
1013.324105	0.153858
1013.494551	0.151051
1013.664979	0.148226
1013.835388	0.144808
1014.005779	0.144521
1014.176152	0.147165
1014.346507	0.144862
1014.516843	0.148997
1014.687162	0.147120
1014.857462	0.142095
1015.027744	0.141148
1015.198007	0.143680
1015.368252	0.143404
1015.538480	0.149936
1015.708689	0.145591
1015.878879	0.143847
1016.049052	0.140014
1016.219206	0.142361
1016.389342	0.142521
1016.559460	0.143210
1016.729559	0.140909
1016.899641	0.139732
1017.069704	0.136839
1017.239749	0.142393
1017.409775	0.144347
1017.579784	0.146998
1017.749774	0.147913
1017.919746	0.146618
1018.089700	0.148780
1018.259635	0.155995
1018.429553	0.161399
1018.599452	0.160228
1018.769333	0.156922
1018.939195	0.159234
1019.109040	0.162298
1019.278866	0.159701
1019.448674	0.163239
1019.618464	0.158065
1019.788235	0.156350
1019.957989	0.157422
1020.127724	0.157931
1020.297441	0.157136
1020.467139	0.157618
1020.636820	0.154873
1020.806482	0.153771
1020.976126	0.155313
1021.145752	0.157540
1021.315359	0.153782
1021.484948	0.148051
1021.654519	0.150171
1021.824072	0.153956
1021.993607	0.151553
1022.163123	0.149947
1022.332621	0.160206
1022.502101	0.155136
1022.671563	0.155171
1022.841007	0.153927
1023.010432	0.160316
1023.179839	0.155142
1023.349228	0.150401
1023.518598	0.150098
1023.687951	0.150083
1023.857285	0.141615
1024.026601	0.143518
1024.195899	0.142661
1024.365178	0.141248
1024.534439	0.137871
1024.703682	0.141759
1024.872907	0.144794
1025.042114	0.149739
1025.211302	0.154637
1025.380472	0.153938
1025.549624	0.157621
1025.718758	0.159157
1025.887873	0.164734
1026.056970	0.164796
1026.226049	0.160905
1026.395110	0.157032
1026.564153	0.153296
1026.733177	0.153174
1026.902183	0.156974
1027.071171	0.154179
1027.240141	0.151766
1027.409092	0.151466
1027.578026	0.149473
1027.746940	0.150941
1027.915837	0.158437
1028.084716	0.155421
1028.253576	0.149215
1028.422418	0.149912
1028.591242	0.144615
1028.760048	0.145434
1028.928835	0.142871
1029.097604	0.143185
1029.266355	0.144465
1029.435088	0.138430
1029.603803	0.144759
1029.772499	0.149525
1029.941177	0.145582
1030.109837	0.148498
1030.278478	0.147851
1030.447102	0.147157
1030.615707	0.145607
1030.784294	0.148441
1030.952863	0.153015
1031.121413	0.151678
1031.289945	0.147313
1031.458460	0.148976
1031.626955	0.151721
1031.795433	0.153406
1031.963892	0.155581
1032.132334	0.156994
1032.300756	0.148011
1032.469161	0.146632
1032.637548	0.145508
1032.805916	0.146208
1032.974266	0.147340
1033.142598	0.149253
1033.310911	0.149075
1033.479207	0.146103
1033.647484	0.145381
1033.815743	0.150610
1033.983983	0.147661
1034.152206	0.142832
1034.320410	0.141769
1034.488596	0.140323
1034.656764	0.139964
1034.824914	0.141667
1034.993045	0.142643
1035.161158	0.143176
1035.329253	0.144918
1035.497330	0.143869
1035.665388	0.145253
1035.833428	0.148439
1036.001450	0.149177
1036.169454	0.143823
1036.337440	0.142108
1036.505407	0.141166
1036.673356	0.145893
1036.841287	0.146654
1037.009200	0.148378
1037.177094	0.149240
1037.344970	0.142704
1037.512828	0.144508
1037.680668	0.148409
1037.848489	0.151468
1038.016293	0.151397
1038.184078	0.147101
1038.351845	0.147099
1038.519593	0.149243
1038.687324	0.152476
1038.855036	0.160522
1039.022730	0.164430
1039.190406	0.161007
1039.358063	0.159348
1039.525702	0.157212
1039.693323	0.156483
1039.860926	0.157318
1040.028511	0.151437
1040.196077	0.153634
1040.363625	0.149545
1040.531155	0.140339
1040.698667	0.138677
1040.866161	0.139646
1041.033636	0.143388
1041.201093	0.144882
1041.368532	0.141813
1041.535952	0.142190
1041.703355	0.137225
1041.870739	0.138062
1042.038105	0.138879
1042.205452	0.142667
1042.372782	0.138334
1042.540093	0.138291
1042.707386	0.137638
1042.874661	0.139360
1043.041918	0.139321
1043.209156	0.142756
1043.376376	0.141925
1043.543578	0.139662
1043.710762	0.143851
1043.877927	0.142971
1044.045074	0.142982
1044.212203	0.141132
1044.379314	0.138530
1044.546407	0.138371
1044.713481	0.139112
1044.880537	0.138000
1045.047575	0.141349
1045.214595	0.136736
1045.381596	0.138479
1045.548579	0.137347
1045.715544	0.141000
1045.882491	0.143582
1046.049420	0.147923
1046.216330	0.145840
1046.383222	0.146456
1046.550096	0.145314
1046.716951	0.146488
1046.883789	0.146416
1047.050608	0.142314
1047.217409	0.143880
1047.384192	0.144828
1047.550956	0.143664
1047.717703	0.144286
1047.884431	0.149624
1048.051140	0.151806
1048.217832	0.151559
1048.384505	0.150156
1048.551161	0.157133
1048.717798	0.147497
1048.884416	0.143004
1049.051017	0.141595
1049.217599	0.143941
1049.384163	0.137317
1049.550709	0.136001
1049.717237	0.139778
1049.883746	0.144181
1050.050237	0.141178
1050.216710	0.148471
1050.383165	0.145887
1050.549601	0.146265
1050.716019	0.148459
1050.882420	0.151483
1051.048801	0.154422
1051.215165	0.147516
1051.381510	0.142827
1051.547837	0.141474
1051.714146	0.138438
1051.880437	0.141902
1052.046709	0.139036
1052.212964	0.135211
1052.379200	0.137497
1052.545417	0.138976
1052.711617	0.144395
1052.877798	0.147433
1053.043961	0.148147
1053.210106	0.151513
1053.376233	0.154051
1053.542341	0.158330
1053.708432	0.154436
1053.874504	0.151547
1054.040557	0.153682
1054.206593	0.148762
1054.372610	0.148152
1054.538609	0.155088
1054.704590	0.156718
1054.870553	0.154540
1055.036497	0.157436
1055.202424	0.156227
1055.368331	0.158707
1055.534221	0.153758
1055.700093	0.155988
1055.865946	0.157802
1056.031781	0.153256
1056.197598	0.149185
1056.363397	0.148510
1056.529177	0.142414
1056.694939	0.149066
1056.860683	0.149577
1057.026409	0.146814
1057.192116	0.146877
1057.357806	0.147655
1057.523477	0.147512
1057.689130	0.146898
1057.854764	0.143621
1058.020381	0.144826
1058.185979	0.142626
1058.351559	0.140104
1058.517120	0.142008
1058.682664	0.144610
1058.848189	0.143141
1059.013696	0.144603
1059.179185	0.147524
1059.344656	0.151032
1059.510108	0.149764
1059.675542	0.148531
1059.840958	0.146629
1060.006356	0.144932
1060.171735	0.144048
1060.337096	0.144427
1060.502439	0.144397
1060.667764	0.145857
1060.833071	0.150763
1060.998359	0.161041
1061.163629	0.162807
1061.328881	0.164025
1061.494115	0.163179
1061.659330	0.160014
1061.824527	0.161758
1061.989706	0.159164
1062.154867	0.149658
1062.320010	0.142633
1062.485134	0.135584
1062.650240	0.134495
1062.815328	0.138991
1062.980398	0.138788
1063.145449	0.140734
1063.310482	0.140281
1063.475497	0.138585
1063.640494	0.145914
1063.805473	0.148468
1063.970433	0.150868
1064.135375	0.152490
1064.300299	0.151049
1064.465204	0.154068
1064.630092	0.153817
1064.794961	0.155552
1064.959812	0.160539
1065.124645	0.168805
1065.289459	0.162583
1065.454256	0.152262
1065.619034	0.146514
1065.783793	0.146430
1065.948535	0.153134
1066.113258	0.152962
1066.277964	0.148259
1066.442651	0.144845
1066.607319	0.136020
1066.771970	0.142374
1066.936602	0.154530
1067.101216	0.153254
1067.265812	0.154136
1067.430389	0.150714
1067.594949	0.151728
1067.759490	0.154964
1067.924013	0.154945
1068.088518	0.156724
1068.253004	0.160188
1068.417472	0.156939
1068.581922	0.162074
1068.746354	0.161211
1068.910768	0.156266
1069.075163	0.158465
1069.239540	0.156548
1069.403899	0.154643
1069.568240	0.157489
1069.732562	0.154694
1069.896866	0.157235
1070.061152	0.160667
1070.225420	0.161694
1070.389670	0.168383
1070.553901	0.166706
1070.718114	0.166714
1070.882309	0.170199
1071.046486	0.171566
1071.210644	0.172692
1071.374784	0.167342
1071.538906	0.168190
1071.703010	0.166455
1071.867096	0.164488
1072.031163	0.160704
1072.195212	0.163444
1072.359243	0.164582
1072.523256	0.163773
1072.687250	0.165631
1072.851226	0.167298
1073.015184	0.167225
1073.179124	0.168727
1073.343045	0.167334
1073.506949	0.172442
1073.670834	0.166508
1073.834701	0.168149
1073.998549	0.163244
1074.162380	0.156207
1074.326192	0.165077
1074.489986	0.162480
1074.653761	0.154878
1074.817519	0.157807
1074.981258	0.152423
1075.144979	0.154775
1075.308682	0.150284
1075.472367	0.151760
1075.636033	0.154055
1075.799681	0.140690
1075.963311	0.133684
1076.126923	0.136500
1076.290516	0.137807
1076.454092	0.141874
1076.617649	0.145048
1076.781187	0.150051
1076.944708	0.148363
1077.108210	0.154031
1077.271695	0.159777
1077.435160	0.168925
1077.598608	0.169487
1077.762038	0.157504
1077.925449	0.157238
1078.088842	0.151222
1078.252217	0.143508
1078.415573	0.150529
1078.578912	0.150050
1078.742232	0.147904
1078.905534	0.148424
1079.068817	0.161230
1079.232083	0.171917
1079.395330	0.168921
1079.558559	0.170378
1079.721770	0.179955
1079.884962	0.173441
1080.048136	0.169800
1080.211293	0.173372
1080.374430	0.167428
1080.537550	0.158984
1080.700651	0.154582
1080.863735	0.154870
1081.026800	0.158076
1081.189846	0.152279
1081.352875	0.154347
1081.515885	0.152756
1081.678877	0.156244
1081.841851	0.159187
1082.004807	0.162683
1082.167744	0.158095
1082.330663	0.152451
1082.493564	0.150147
1082.656447	0.149153
1082.819312	0.153952
1082.982158	0.159446
1083.144986	0.149641
1083.307796	0.153013
1083.470587	0.151264
1083.633361	0.155909
1083.796116	0.165175
1083.958853	0.171088
1084.121571	0.179065
1084.284272	0.172308
1084.446954	0.164471
1084.609618	0.176293
1084.772264	0.162229
1084.934892	0.167860
1085.097501	0.173486
1085.260092	0.167830
1085.422665	0.163837
1085.585220	0.156947
1085.747756	0.158087
1085.910274	0.158542
1086.072774	0.163661
1086.235256	0.186540
1086.397720	0.184906
1086.560165	0.181137
1086.722592	0.182715
1086.885001	0.170396
1087.047392	0.167085
1087.209764	0.167654
1087.372119	0.174772
1087.534455	0.164543
1087.696772	0.152859
1087.859072	0.150834
1088.021353	0.147929
1088.183616	0.150901
1088.345861	0.163771
1088.508088	0.172036
1088.670296	0.161224
1088.832486	0.159705
1088.994658	0.157877
1089.156812	0.160345
1089.318948	0.152893
1089.481065	0.152635
1089.643164	0.150867
1089.805245	0.153950
1089.967308	0.155901
1090.129352	0.169325
1090.291378	0.181587
1090.453386	0.184956
1090.615376	0.188394
1090.777347	0.188798
1090.939301	0.207416
1091.101236	0.201946
1091.263153	0.199177
1091.425051	0.200624
1091.586932	0.193212
1091.748794	0.174039
1091.910638	0.177563
1092.072463	0.175153
1092.234271	0.176323
1092.396060	0.176137
1092.557831	0.179418
1092.719584	0.182875
1092.881319	0.182841
1093.043035	0.183291
1093.204733	0.198072
1093.366413	0.186764
1093.528075	0.185070
1093.689718	0.188045
1093.851343	0.179084
1094.012950	0.175840
1094.174539	0.172372
1094.336110	0.165464
1094.497662	0.167783
1094.659196	0.159999
1094.820712	0.165421
1094.982210	0.173191
1095.143689	0.168682
1095.305151	0.157161
1095.466594	0.168031
1095.628018	0.167763
1095.789425	0.167823
1095.950813	0.162048
1096.112183	0.163053
1096.273535	0.172371
1096.434869	0.165388
1096.596184	0.175251
1096.757482	0.179984
1096.918761	0.174289
1097.080021	0.172171
1097.241264	0.171828
1097.402488	0.187084
1097.563694	0.191405
1097.724882	0.175788
1097.886052	0.173962
1098.047203	0.180861
1098.208336	0.174347
1098.369451	0.178926
1098.530548	0.182888
1098.691627	0.184235
1098.852687	0.181640
1099.013729	0.182546
1099.174753	0.200148
1099.335758	0.188753
1099.496746	0.167519
1099.657715	0.177724
1099.818666	0.176638
1099.979599	0.183917
1100.140513	0.192497
1100.301409	0.185249
1100.462287	0.175589
1100.623147	0.169815
1100.783989	0.184032
1100.944812	0.198316
1101.105617	0.196884
1101.266404	0.203086
1101.427173	0.183572
1101.587923	0.180150
1101.748656	0.184397
1101.909370	0.196108
1102.070066	0.191528
1102.230743	0.185913
1102.391403	0.194841
1102.552044	0.185564
1102.712667	0.180418
1102.873271	0.179957
1103.033858	0.169316
1103.194426	0.171441
1103.354976	0.169387
1103.515508	0.177419
1103.676021	0.185298
1103.836517	0.174595
1103.996994	0.186944
1104.157453	0.199310
1104.317893	0.220330
1104.478316	0.211770
1104.638720	0.204430
1104.799106	0.203065
1104.959474	0.206532
1105.119823	0.199885
1105.280155	0.187617
1105.440468	0.192113
1105.600763	0.171204
1105.761039	0.163602
1105.921298	0.181331
1106.081538	0.181550
1106.241760	0.174837
1106.401964	0.170515
1106.562149	0.179787
1106.722316	0.200133
1106.882465	0.214733
1107.042596	0.233150
1107.202709	0.247793
1107.362803	0.247900
1107.522879	0.248599
1107.682937	0.240133
1107.842977	0.232061
1108.002999	0.245751
1108.163002	0.225017
1108.322987	0.211558
1108.482954	0.200231
1108.642902	0.191700
1108.802833	0.188438
1108.962745	0.195492
1109.122639	0.218119
1109.282515	0.215807
1109.442372	0.195224
1109.602211	0.194759
1109.762032	0.185751
1109.921835	0.192904
1110.081620	0.192296
1110.241386	0.194834
1110.401134	0.200147
1110.560864	0.180795
1110.720576	0.176864
1110.880269	0.184857
1111.039945	0.189281
1111.199602	0.205994
1111.359240	0.184023
1111.518861	0.182875
1111.678463	0.185745
1111.838047	0.175593
1111.997613	0.182595
1112.157161	0.187572
1112.316690	0.170220
1112.476202	0.177807
1112.635695	0.156393
1112.795169	0.173409
1112.954626	0.175581
1113.114064	0.181485
1113.273484	0.185461
1113.432886	0.185633
1113.592270	0.203212
1113.751635	0.217781
1113.910983	0.201518
1114.070312	0.230128
1114.229622	0.232064
1114.388915	0.225945
1114.548189	0.215518
1114.707445	0.216732
1114.866683	0.233900
1115.025903	0.236703
1115.185104	0.213318
1115.344287	0.223075
1115.503452	0.208899
1115.662599	0.226389
1115.821727	0.237132
1115.980838	0.223145
1116.139930	0.210588
1116.299004	0.196364
1116.458059	0.185057
1116.617097	0.216017
1116.776116	0.214443
1116.935117	0.218849
1117.094099	0.188808
1117.253064	0.177976
1117.412010	0.185261
1117.570938	0.188227
1117.729848	0.190085
1117.888740	0.182718
1118.047613	0.152416
1118.206468	0.162887
1118.365305	0.155405
1118.524124	0.162550
1118.682924	0.177381
1118.841707	0.205152
1119.000471	0.219737
1119.159216	0.213753
1119.317944	0.219110
1119.476653	0.249883
1119.635344	0.219709
1119.794017	0.231261
1119.952672	0.221527
1120.111308	0.204426
1120.269927	0.190197
1120.428527	0.191777
1120.587108	0.198048
1120.745672	0.186931
1120.904217	0.171689
1121.062744	0.188002
1121.221253	0.183168
1121.379744	0.190405
1121.538216	0.195251
1121.696671	0.171747
1121.855107	0.158693
1122.013524	0.153277
1122.171924	0.152524
1122.330305	0.163471
1122.488668	0.163693
1122.647013	0.152542
1122.805340	0.148484
1122.963648	0.140311
1123.121938	0.167464
1123.280210	0.164584
1123.438464	0.183712
1123.596700	0.182776
1123.754917	0.181659
1123.913116	0.182759
1124.071297	0.188697
1124.229459	0.207752
1124.387604	0.212022
1124.545730	0.174779
1124.703838	0.179468
1124.861928	0.164299
1125.019999	0.181756
1125.178052	0.178803
1125.336088	0.182510
1125.494104	0.177466
1125.652103	0.164115
1125.810083	0.168947
1125.968045	0.177678
1126.125989	0.188273
1126.283915	0.200087
1126.441823	0.194376
1126.599712	0.204871
1126.757583	0.192996
1126.915436	0.182753
1127.073270	0.202080
1127.231087	0.214047
1127.388885	0.215608
1127.546665	0.216497
1127.704426	0.214600
1127.862170	0.228921
1128.019895	0.228970
1128.177602	0.223355
1128.335291	0.238715
1128.492961	0.239702
1128.650614	0.235163
1128.808248	0.252884
1128.965864	0.255872
1129.123461	0.256520
1129.281041	0.251556
1129.438602	0.243615
1129.596145	0.263874
1129.753670	0.260315
1129.911176	0.214924
1130.068665	0.198883
1130.226135	0.186703
1130.383587	0.193781
1130.541020	0.165828
1130.698436	0.155052
1130.855833	0.166316
1131.013212	0.164875
1131.170573	0.159858
1131.327915	0.189730
1131.485239	0.196341
1131.642545	0.213395
1131.799833	0.198062
1131.957103	0.191807
1132.114354	0.192363
1132.271588	0.186041
1132.428803	0.175810
1132.585999	0.162203
1132.743178	0.174478
1132.900338	0.195678
1133.057480	0.186801
1133.214604	0.177936
1133.371710	0.210469
1133.528797	0.190433
1133.685866	0.181003
1133.842917	0.199352
1133.999950	0.209281
1134.156964	0.167347
1134.313960	0.162905
1134.470938	0.162601
1134.627898	0.157584
1134.784840	0.167528
1134.941763	0.194091
1135.098668	0.201997
1135.255555	0.190419
1135.412424	0.207717
1135.569274	0.243339
1135.726107	0.239847
1135.882921	0.259377
1136.039716	0.270537
1136.196494	0.273436
1136.353253	0.277753
1136.509995	0.298685
1136.666717	0.313601
1136.823422	0.329294
1136.980109	0.344822
1137.136777	0.332569
1137.293427	0.349342
1137.450059	0.379693
1137.606672	0.364676
1137.763267	0.341248
1137.919844	0.313462
1138.076403	0.320033
1138.232944	0.280230
1138.389466	0.246976
1138.545971	0.304311
1138.702457	0.269203
1138.858924	0.262722
1139.015374	0.266940
1139.171805	0.268741
1139.328218	0.263848
1139.484613	0.266052
1139.640990	0.332593
1139.797348	0.361228
1139.953688	0.314273
1140.110010	0.318240
1140.266314	0.302538
1140.422600	0.300221
1140.578867	0.318105
1140.735116	0.311423
1140.891347	0.272081
1141.047559	0.268130
1141.203754	0.229377
1141.359930	0.228828
1141.516088	0.249664
1141.672228	0.246068
1141.828349	0.214571
1141.984452	0.208660
1142.140537	0.241473
1142.296604	0.263977
1142.452653	0.263089
1142.608683	0.300168
1142.764695	0.271589
1142.920689	0.241863
1143.076665	0.235815
1143.232622	0.227893
1143.388562	0.191348
1143.544483	0.187007
1143.700385	0.181775
1143.856270	0.167382
1144.012136	0.176998
1144.167985	0.209011
1144.323814	0.199919
1144.479626	0.198402
1144.635420	0.216704
1144.791195	0.268102
1144.946952	0.242068
1145.102691	0.267971
1145.258411	0.258575
1145.414113	0.250254
1145.569798	0.230506
1145.725463	0.288417
1145.881111	0.322633
1146.036741	0.313018
1146.192352	0.299866
1146.347945	0.294491
1146.503519	0.311251
1146.659076	0.266581
1146.814614	0.293144
1146.970134	0.292475
1147.125636	0.267302
1147.281120	0.269287
1147.436585	0.247406
1147.592032	0.239048
1147.747461	0.245598
1147.902872	0.209296
1148.058265	0.193666
1148.213639	0.155520
1148.368995	0.124042
1148.524333	0.115772
1148.679653	0.117051
1148.834954	0.148664
1148.990237	0.145774
1149.145502	0.157519
1149.300749	0.141495
1149.455977	0.199672
1149.611188	0.199206
1149.766380	0.242836
1149.921553	0.249510
1150.076709	0.247322
1150.231846	0.243883
1150.386966	0.248935
1150.542066	0.230116
1150.697149	0.196477
1150.852214	0.182502
1151.007260	0.205034
1151.162288	0.184122
1151.317298	0.164848
1151.472289	0.179688
1151.627263	0.173592
1151.782218	0.177354
1151.937155	0.195068
1152.092073	0.240392
1152.246974	0.219202
1152.401856	0.175947
1152.556720	0.190850
1152.711566	0.211253
1152.866393	0.187352
1153.021203	0.224157
1153.175994	0.225873
1153.330767	0.211560
1153.485521	0.250228
1153.640258	0.226439
1153.794976	0.271833
1153.949676	0.236956
1154.104358	0.268679
1154.259021	0.258184
1154.413667	0.249190
1154.568294	0.233958
1154.722903	0.225752
1154.877493	0.210040
1155.032066	0.286092
1155.186620	0.254522
1155.341156	0.282969
1155.495674	0.229595
1155.650173	0.224432
1155.804654	0.201053
1155.959118	0.190276
1156.113562	0.253251
1156.267989	0.285299
1156.422397	0.220300
1156.576788	0.232631
1156.731160	0.235807
1156.885513	0.239320
1157.039849	0.193354
1157.194166	0.155843
1157.348465	0.188578
1157.502746	0.182347
1157.657009	0.151270
1157.811253	0.184334
1157.965479	0.185348
1158.119687	0.173919
1158.273877	0.184731
1158.428048	0.221329
1158.582201	0.288333
1158.736337	0.324563
1158.890453	0.202798
1159.044552	0.228111
1159.198632	0.204735
1159.352694	0.200340
1159.506738	0.189011
1159.660764	0.198152
1159.814771	0.171794
1159.968761	0.164803
1160.122732	0.139076
1160.276685	0.172403
1160.430619	0.144915
1160.584535	0.115456
1160.738434	0.121321
1160.892313	0.149159
1161.046175	0.159552
1161.200019	0.164413
1161.353844	0.159079
1161.507651	0.129987
1161.661440	0.145622
1161.815210	0.125870
1161.968962	0.162950
1162.122697	0.186688
1162.276412	0.203522
1162.430110	0.210136
1162.583789	0.273231
1162.737451	0.286067
1162.891094	0.285736
1163.044718	0.321056
1163.198325	0.385930
1163.351913	0.413513
1163.505483	0.293127
1163.659035	0.224972
1163.812569	0.153300
1163.966084	0.167530
1164.119581	0.170404
1164.273060	0.186203
1164.426521	0.194776
1164.579964	0.135722
1164.733388	0.117636
1164.886794	0.188042
1165.040182	0.208435
1165.193551	0.242660
1165.346903	0.181085
1165.500236	0.230547
1165.653551	0.221978
1165.806848	0.146631
1165.960126	0.236489
1166.113386	0.209639
1166.266628	0.198452
1166.419852	0.259135
1166.573058	0.286234
1166.726245	0.409356
1166.879414	0.263834
1167.032565	0.353458
1167.185698	0.475190
1167.338812	0.348009
1167.491909	0.360471
1167.644987	0.304056
1167.798046	0.258263
1167.951088	0.279613
1168.104111	0.285502
1168.257117	0.356733
1168.410103	0.348374
1168.563072	0.294873
1168.716023	0.355241
1168.868955	0.351851
1169.021869	0.365165
1169.174765	0.322250
1169.327642	0.233869
1169.480501	0.126657
1169.633343	0.096107
1169.786165	0.038236
1169.938970	0.036798
1170.091757	0.054953
1170.244525	0.114559
1170.397275	0.067908
1170.550007	0.056148
1170.702720	0.043334
1170.855415	0.057483
1171.008092	0.083029
1171.160751	0.145123
1171.313392	0.226552
1171.466014	-0.018434
1171.618619	NaN
1171.771205	NaN
1171.923772	NaN
