sample name	sample
index	1399
start time	 05-10-2021  11:04:59 AM


Wavelength (nm)	Absorbance
494.344910	-0.020635
494.563924	-0.020635
494.782919	-0.020635
495.001897	-0.037970
495.220856	0.029065
495.439797	0.029249
495.658719	0.030995
495.877624	0.023062
496.096510	0.030343
496.315378	0.023592
496.534227	0.024560
496.753059	0.014874
496.971872	0.018040
497.190667	0.109178
497.409444	0.153923
497.628203	0.167959
497.846943	0.177535
498.065665	0.180440
498.284369	0.182084
498.503055	0.183954
498.721723	0.186336
498.940372	0.186899
499.159003	0.187516
499.377616	0.188293
499.596210	0.188808
499.814787	0.187916
500.033345	0.188662
500.251885	0.189696
500.470406	0.189741
500.688910	0.189214
500.907395	0.189397
501.125862	0.190266
501.344311	0.189630
501.562742	0.189707
501.781154	0.189404
501.999548	0.189141
502.217924	0.190125
502.436282	0.190437
502.654621	0.190694
502.872942	0.191499
503.091245	0.191879
503.309530	0.192065
503.527797	0.190847
503.746045	0.191562
503.964275	0.192046
504.182487	0.191260
504.400681	0.189995
504.618856	0.190215
504.837013	0.189090
505.055152	0.188322
505.273273	0.188686
505.491376	0.190988
505.709460	0.191540
505.927526	0.192032
506.145574	0.191588
506.363604	0.193626
506.581615	0.193809
506.799608	0.194681
507.017583	0.195629
507.235540	0.196822
507.453478	0.196434
507.671399	0.196135
507.889301	0.196709
508.107185	0.196885
508.325050	0.197234
508.542898	0.197631
508.760727	0.197204
508.978538	0.197704
509.196330	0.196616
509.414105	0.195592
509.631861	0.196245
509.849599	0.195619
510.067319	0.197061
510.285021	0.197429
510.502704	0.197505
510.720369	0.197931
510.938016	0.198459
511.155645	0.198848
511.373255	0.200314
511.590848	0.200115
511.808422	0.200580
512.025977	0.200815
512.243515	0.200284
512.461034	0.200567
512.678536	0.201072
512.896018	0.199882
513.113483	0.200045
513.330930	0.199930
513.548358	0.201211
513.765768	0.201453
513.983160	0.200781
514.200533	0.201478
514.417889	0.202078
514.635226	0.203363
514.852545	0.204815
515.069845	0.204332
515.287128	0.205791
515.504392	0.205936
515.721638	0.206585
515.938866	0.207391
516.156075	0.208004
516.373267	0.207619
516.590440	0.207408
516.807594	0.207431
517.024731	0.208395
517.241850	0.207099
517.458950	0.207077
517.676032	0.206669
517.893095	0.207230
518.110141	0.207337
518.327168	0.207840
518.544177	0.207864
518.761168	0.208051
518.978141	0.208663
519.195095	0.209368
519.412031	0.208702
519.628949	0.209934
519.845849	0.210251
520.062731	0.210747
520.279594	0.211047
520.496439	0.211307
520.713266	0.211238
520.930074	0.211299
521.146865	0.212339
521.363637	0.214002
521.580391	0.213418
521.797127	0.214036
522.013844	0.213957
522.230543	0.214698
522.447224	0.215287
522.663887	0.216564
522.880532	0.217077
523.097158	0.217273
523.313766	0.217076
523.530356	0.217599
523.746928	0.217457
523.963481	0.217689
524.180017	0.217453
524.396534	0.217300
524.613032	0.217717
524.829513	0.218773
525.045975	0.219158
525.262420	0.219259
525.478845	0.220083
525.695253	0.220799
525.911643	0.220499
526.128014	0.221886
526.344367	0.222330
526.560702	0.223010
526.777018	0.221675
526.993316	0.221578
527.209597	0.221985
527.425858	0.222412
527.642102	0.222496
527.858328	0.223252
528.074535	0.223241
528.290724	0.224224
528.506894	0.223251
528.723047	0.224998
528.939181	0.224754
529.155297	0.225820
529.371395	0.226209
529.587475	0.226344
529.803536	0.227194
530.019579	0.226905
530.235604	0.227436
530.451611	0.228599
530.667600	0.228207
530.883570	0.229287
531.099522	0.228441
531.315456	0.228463
531.531372	0.228375
531.747269	0.227929
531.963148	0.229027
532.179009	0.229853
532.394852	0.230386
532.610676	0.230994
532.826482	0.231489
533.042271	0.232570
533.258040	0.232879
533.473792	0.234172
533.689525	0.234978
533.905240	0.235274
534.120937	0.234494
534.336616	0.234482
534.552277	0.235105
534.767919	0.235575
534.983543	0.235997
535.199149	0.235947
535.414736	0.235791
535.630306	0.236136
535.845857	0.235885
536.061390	0.236803
536.276904	0.237409
536.492401	0.237934
536.707879	0.238138
536.923339	0.238345
537.138781	0.239092
537.354204	0.240026
537.569610	0.240689
537.784997	0.241277
538.000366	0.241824
538.215716	0.241918
538.431049	0.242657
538.646363	0.243335
538.861659	0.244217
539.076937	0.244653
539.292196	0.244645
539.507438	0.245191
539.722661	0.245609
539.937866	0.245313
540.153052	0.245781
540.368221	0.245783
540.583371	0.245745
540.798503	0.246122
541.013617	0.246827
541.228712	0.248250
541.443789	0.249243
541.658848	0.249810
541.873889	0.250428
542.088912	0.251013
542.303916	0.251089
542.518902	0.251699
542.733870	0.252176
542.948820	0.252586
543.163752	0.252360
543.378665	0.251894
543.593560	0.252326
543.808437	0.252991
544.023295	0.252991
544.238136	0.253374
544.452958	0.253548
544.667762	0.253510
544.882548	0.253333
545.097315	0.253210
545.312064	0.252996
545.526795	0.253477
545.741508	0.253211
545.956203	0.253683
546.170879	0.253189
546.385537	0.252888
546.600177	0.252956
546.814799	0.253333
547.029402	0.253703
547.243988	0.254331
547.458555	0.254053
547.673103	0.255007
547.887634	0.255181
548.102146	0.256360
548.316640	0.257480
548.531116	0.257688
548.745574	0.258079
548.960013	0.258101
549.174435	0.258309
549.388838	0.259132
549.603222	0.259038
549.817589	0.259568
550.031937	0.259637
550.246267	0.259361
550.460579	0.259765
550.674873	0.259931
550.889148	0.260548
551.103405	0.261368
551.317644	0.261351
551.531865	0.261566
551.746068	0.261939
551.960252	0.261861
552.174418	0.262282
552.388566	0.262425
552.602696	0.262840
552.816807	0.262812
553.030900	0.262591
553.244975	0.262933
553.459032	0.263091
553.673070	0.262834
553.887091	0.263484
554.101093	0.263774
554.315077	0.264451
554.529042	0.264775
554.742990	0.265155
554.956919	0.265417
555.170830	0.265433
555.384722	0.265712
555.598597	0.265586
555.812453	0.265992
556.026291	0.265914
556.240111	0.265711
556.453913	0.265868
556.667696	0.265629
556.881461	0.265876
557.095208	0.265892
557.308937	0.266103
557.522647	0.266607
557.736339	0.266781
557.950013	0.267102
558.163669	0.267223
558.377307	0.266966
558.590926	0.267921
558.804527	0.268061
559.018110	0.267949
559.231675	0.267883
559.445221	0.267469
559.658749	0.267313
559.872259	0.267363
560.085751	0.267813
560.299225	0.267784
560.512680	0.267661
560.726117	0.267305
560.939536	0.267963
561.152937	0.268344
561.366319	0.268974
561.579683	0.269093
561.793029	0.269397
562.006357	0.269428
562.219667	0.269800
562.432958	0.269742
562.646231	0.270312
562.859486	0.270520
563.072723	0.270665
563.285941	0.271109
563.499141	0.271873
563.712323	0.272016
563.925487	0.271878
564.138632	0.271933
564.351760	0.272635
564.564869	0.272867
564.777960	0.272821
564.991032	0.273047
565.204087	0.273232
565.417123	0.272996
565.630141	0.272997
565.843140	0.273666
566.056122	0.274324
566.269085	0.273852
566.482030	0.273604
566.694957	0.273677
566.907866	0.273638
567.120756	0.273503
567.333628	0.273551
567.546482	0.273702
567.759318	0.273660
567.972135	0.273805
568.184935	0.274534
568.397716	0.274905
568.610478	0.275227
568.823223	0.275604
569.035949	0.275749
569.248657	0.276022
569.461347	0.276534
569.674019	0.276724
569.886672	0.276786
570.099308	0.276820
570.311925	0.277047
570.524523	0.277013
570.737104	0.276842
570.949666	0.277342
571.162210	0.277145
571.374736	0.277502
571.587244	0.277839
571.799733	0.277410
572.012205	0.277273
572.224658	0.278001
572.437092	0.278092
572.649509	0.278669
572.861907	0.278819
573.074287	0.278765
573.286649	0.278497
573.498993	0.278143
573.711318	0.279119
573.923625	0.279006
574.135914	0.279017
574.348185	0.279632
574.560438	0.279982
574.772672	0.280028
574.984888	0.280774
575.197086	0.281150
575.409266	0.281672
575.621427	0.282027
575.833570	0.282190
576.045695	0.281876
576.257802	0.281625
576.469890	0.281294
576.681961	0.281677
576.894013	0.281649
577.106046	0.281609
577.318062	0.281693
577.530059	0.280826
577.742039	0.281083
577.954000	0.281449
578.165942	0.281314
578.377867	0.281676
578.589773	0.281413
578.801661	0.281700
579.013531	0.281723
579.225382	0.281957
579.437216	0.282599
579.649031	0.282890
579.860828	0.282956
580.072606	0.283457
580.284367	0.283603
580.496109	0.284246
580.707833	0.284246
580.919539	0.284766
581.131227	0.284606
581.342896	0.284780
581.554547	0.285251
581.766180	0.285714
581.977795	0.286060
582.189391	0.285907
582.400969	0.285902
582.612529	0.286235
582.824071	0.286606
583.035595	0.287202
583.247100	0.287584
583.458587	0.287673
583.670056	0.287654
583.881506	0.287678
584.092939	0.288323
584.304353	0.288541
584.515749	0.288723
584.727127	0.288667
584.938486	0.288612
585.149828	0.288516
585.361151	0.289016
585.572456	0.288813
585.783742	0.289341
585.995011	0.289345
586.206261	0.289493
586.417493	0.289564
586.628706	0.289549
586.839902	0.290193
587.051079	0.289906
587.262238	0.289363
587.473379	0.289900
587.684502	0.290332
587.895606	0.290654
588.106692	0.290414
588.317760	0.290931
588.528810	0.291466
588.739841	0.291323
588.950855	0.292276
589.161850	0.292830
589.372827	0.293413
589.583785	0.292991
589.794726	0.293116
590.005648	0.293493
590.216552	0.293542
590.427437	0.293653
590.638305	0.293952
590.849154	0.294297
591.059985	0.294424
591.270798	0.294246
591.481592	0.294867
591.692369	0.294964
591.903127	0.295462
592.113867	0.295423
592.324588	0.295568
592.535292	0.295756
592.745977	0.295187
592.956644	0.295326
593.167293	0.295664
593.377923	0.295419
593.588536	0.295491
593.799130	0.295687
594.009706	0.296686
594.220263	0.296676
594.430803	0.296771
594.641324	0.297066
594.851827	0.297395
595.062312	0.297237
595.272778	0.297501
595.483227	0.297997
595.693657	0.297984
595.904069	0.297890
596.114462	0.298255
596.324838	0.298253
596.535195	0.298574
596.745534	0.298791
596.955855	0.299198
597.166157	0.299609
597.376441	0.299750
597.586707	0.299979
597.796955	0.300102
598.007185	0.300255
598.217396	0.300554
598.427589	0.300685
598.637764	0.300517
598.847921	0.300626
599.058060	0.300745
599.268180	0.300729
599.478282	0.301131
599.688366	0.301266
599.898431	0.301687
600.108479	0.301645
600.318508	0.301666
600.528519	0.302248
600.738511	0.302647
600.948486	0.302469
601.158442	0.302858
601.368380	0.303084
601.578300	0.302927
601.788202	0.302765
601.998085	0.303143
602.207950	0.303852
602.417797	0.303812
602.627626	0.303823
602.837436	0.304503
603.047228	0.305070
603.257002	0.305027
603.466758	0.305464
603.676496	0.305803
603.886215	0.306195
604.095916	0.306422
604.305599	0.306668
604.515264	0.307298
604.724910	0.307242
604.934538	0.306799
605.144148	0.307076
605.353740	0.307058
605.563314	0.307315
605.772869	0.307848
605.982406	0.307872
606.191925	0.308271
606.401425	0.308209
606.610908	0.308530
606.820372	0.308830
607.029818	0.308908
607.239246	0.309162
607.448655	0.308955
607.658047	0.308732
607.867420	0.308810
608.076775	0.308867
608.286111	0.308910
608.495430	0.308947
608.704730	0.309242
608.914012	0.309274
609.123275	0.309889
609.332521	0.310689
609.541748	0.310866
609.750957	0.311280
609.960148	0.311649
610.169321	0.311923
610.378475	0.312398
610.587611	0.312821
610.796729	0.313125
611.005829	0.312529
611.214910	0.312261
611.423974	0.312391
611.633019	0.312371
611.842045	0.312298
612.051054	0.312431
612.260044	0.312810
612.469017	0.312885
612.677970	0.313257
612.886906	0.313979
613.095824	0.314372
613.304723	0.314518
613.513604	0.315053
613.722467	0.315298
613.931311	0.315388
614.140138	0.315188
614.348946	0.315011
614.557736	0.314821
614.766507	0.314474
614.975261	0.314525
615.183996	0.314766
615.392713	0.314480
615.601412	0.314794
615.810092	0.315033
616.018754	0.315230
616.227399	0.315630
616.436024	0.316000
616.644632	0.316121
616.853222	0.316117
617.061793	0.316062
617.270346	0.316453
617.478880	0.316258
617.687397	0.316412
617.895895	0.316893
618.104375	0.317084
618.312837	0.317163
618.521281	0.317491
618.729706	0.317823
618.938113	0.318157
619.146502	0.317909
619.354873	0.318057
619.563226	0.318433
619.771560	0.318346
619.979876	0.318229
620.188174	0.318558
620.396453	0.318855
620.604715	0.318967
620.812958	0.319224
621.021183	0.320000
621.229390	0.320445
621.437578	0.320715
621.645748	0.320539
621.853900	0.321008
622.062034	0.321244
622.270150	0.321410
622.478247	0.321753
622.686326	0.321811
622.894387	0.322057
623.102430	0.322110
623.310454	0.322195
623.518461	0.322428
623.726449	0.322520
623.934418	0.322490
624.142370	0.323016
624.350303	0.323115
624.558218	0.323205
624.766115	0.323002
624.973994	0.323506
625.181855	0.323463
625.389697	0.323574
625.597521	0.323769
625.805327	0.323899
626.013114	0.324176
626.220883	0.324267
626.428634	0.324774
626.636367	0.324939
626.844082	0.325227
627.051778	0.325489
627.259457	0.325904
627.467117	0.326158
627.674758	0.326659
627.882382	0.326628
628.089987	0.326951
628.297574	0.327089
628.505143	0.327509
628.712694	0.327659
628.920226	0.327762
629.127740	0.328174
629.335236	0.328509
629.542714	0.328884
629.750174	0.329054
629.957615	0.329182
630.165038	0.329385
630.372443	0.329466
630.579829	0.329159
630.787198	0.329504
630.994548	0.329505
631.201880	0.329588
631.409194	0.329280
631.616489	0.329528
631.823766	0.329510
632.031025	0.329779
632.238266	0.329922
632.445489	0.329862
632.652693	0.330036
632.859879	0.330116
633.067047	0.330402
633.274197	0.330771
633.481329	0.330573
633.688442	0.331035
633.895537	0.330896
634.102614	0.330886
634.309672	0.331392
634.516713	0.331475
634.723735	0.331896
634.930739	0.331758
635.137724	0.331869
635.344692	0.332106
635.551641	0.332385
635.758572	0.332712
635.965485	0.333140
636.172379	0.333378
636.379256	0.333594
636.586114	0.333452
636.792954	0.333733
636.999775	0.334005
637.206579	0.334266
637.413364	0.334450
637.620131	0.334442
637.826880	0.334526
638.033610	0.334711
638.240323	0.334708
638.447017	0.334893
638.653692	0.335199
638.860350	0.335304
639.066990	0.335585
639.273611	0.335707
639.480214	0.336011
639.686798	0.336314
639.893365	0.336492
640.099913	0.336993
640.306443	0.337223
640.512955	0.337371
640.719449	0.337646
640.925924	0.337664
641.132381	0.337888
641.338820	0.337873
641.545241	0.338257
641.751644	0.338724
641.958028	0.338765
642.164394	0.339085
642.370742	0.339119
642.577071	0.339205
642.783383	0.339531
642.989676	0.339530
643.195951	0.339948
643.402207	0.339690
643.608446	0.339617
643.814666	0.339671
644.020868	0.339783
644.227052	0.340205
644.433218	0.340582
644.639365	0.340570
644.845494	0.340722
645.051605	0.340986
645.257698	0.341500
645.463772	0.341540
645.669828	0.341826
645.875866	0.342117
646.081886	0.341961
646.287888	0.342044
646.493871	0.342547
646.699836	0.342830
646.905783	0.343175
647.111712	0.343157
647.317622	0.343584
647.523514	0.343762
647.729388	0.344012
647.935244	0.344412
648.141082	0.344737
648.346901	0.344877
648.552702	0.345126
648.758485	0.345040
648.964250	0.345415
649.169996	0.345294
649.375724	0.345451
649.581434	0.345884
649.787126	0.346073
649.992800	0.346264
650.198455	0.346256
650.404092	0.346316
650.609711	0.346965
650.815311	0.346769
651.020894	0.347100
651.226458	0.347344
651.432004	0.347182
651.637532	0.347165
651.843041	0.347050
652.048532	0.347319
652.254006	0.347772
652.459460	0.347963
652.664897	0.348677
652.870315	0.349079
653.075716	0.349375
653.281097	0.349651
653.486461	0.350364
653.691807	0.350770
653.897134	0.351106
654.102443	0.351222
654.307734	0.350959
654.513006	0.350888
654.718261	0.351340
654.923497	0.351857
655.128715	0.352095
655.333915	0.352108
655.539096	0.352211
655.744259	0.352667
655.949404	0.352822
656.154531	0.353107
656.359640	0.353350
656.564730	0.353194
656.769802	0.352744
656.974856	0.352688
657.179892	0.353031
657.384909	0.352942
657.589908	0.352798
657.794889	0.352955
657.999852	0.353310
658.204797	0.353687
658.409723	0.353787
658.614631	0.354108
658.819521	0.354677
659.024393	0.354755
659.229246	0.355249
659.434081	0.355636
659.638898	0.355822
659.843697	0.355709
660.048478	0.355765
660.253240	0.355899
660.457984	0.356096
660.662710	0.356179
660.867417	0.356007
661.072107	0.356078
661.276778	0.356021
661.481431	0.356453
661.686066	0.357029
661.890682	0.357087
662.095281	0.357250
662.299861	0.357573
662.504422	0.357786
662.708966	0.358334
662.913491	0.358991
663.117999	0.359199
663.322488	0.359098
663.526958	0.359399
663.731411	0.359779
663.935845	0.359989
664.140261	0.360393
664.344659	0.360576
664.549038	0.360863
664.753400	0.360772
664.957743	0.361305
665.162068	0.361843
665.366375	0.361972
665.570663	0.362318
665.774933	0.362836
665.979185	0.363022
666.183419	0.363363
666.387635	0.363372
666.591832	0.363695
666.796011	0.363953
667.000172	0.363759
667.204315	0.363860
667.408439	0.364011
667.612545	0.364420
667.816634	0.364604
668.020703	0.365002
668.224755	0.365638
668.428788	0.365905
668.632803	0.366086
668.836800	0.366610
669.040779	0.366812
669.244739	0.367144
669.448681	0.367244
669.652605	0.367158
669.856511	0.367086
670.060399	0.366889
670.264268	0.366845
670.468119	0.366883
670.671952	0.366964
670.875767	0.367462
671.079563	0.367537
671.283341	0.367792
671.487101	0.368641
671.690843	0.368896
671.894567	0.369207
672.098272	0.369682
672.301959	0.369983
672.505628	0.370229
672.709278	0.370314
672.912911	0.370757
673.116525	0.370918
673.320121	0.370878
673.523699	0.371318
673.727258	0.371871
673.930799	0.372092
674.134322	0.372257
674.337827	0.372622
674.541314	0.372902
674.744782	0.372805
674.948232	0.372858
675.151664	0.373043
675.355078	0.373293
675.558474	0.373200
675.761851	0.373468
675.965210	0.373748
676.168551	0.373951
676.371873	0.374027
676.575178	0.374271
676.778464	0.374776
676.981732	0.375131
677.184981	0.375240
677.388213	0.375534
677.591426	0.375977
677.794621	0.376355
677.997798	0.376775
678.200956	0.377275
678.404097	0.377624
678.607219	0.377931
678.810323	0.378067
679.013408	0.378136
679.216476	0.378441
679.419525	0.378417
679.622556	0.378586
679.825569	0.378914
680.028563	0.379236
680.231540	0.379635
680.434498	0.380063
680.637438	0.380427
680.840359	0.380937
681.043263	0.381330
681.246148	0.381482
681.449015	0.381673
681.651864	0.381661
681.854694	0.381472
682.057506	0.381876
682.260301	0.381856
682.463076	0.382047
682.665834	0.382364
682.868573	0.382668
683.071295	0.383190
683.273998	0.383775
683.476682	0.383975
683.679349	0.384376
683.881997	0.384217
684.084627	0.384346
684.287239	0.384383
684.489833	0.384388
684.692408	0.384331
684.894965	0.384504
685.097504	0.384361
685.300025	0.384814
685.502527	0.385041
685.705012	0.385438
685.907478	0.385585
686.109925	0.385892
686.312355	0.386057
686.514766	0.386393
686.717159	0.386290
686.919534	0.386615
687.121891	0.386483
687.324230	0.386597
687.526550	0.386647
687.728852	0.386725
687.931136	0.386904
688.133401	0.387178
688.335649	0.387112
688.537878	0.387197
688.740089	0.387226
688.942281	0.387732
689.144456	0.387749
689.346612	0.387827
689.548750	0.388304
689.750870	0.388422
689.952971	0.388707
690.155055	0.389204
690.357120	0.389606
690.559167	0.389988
690.761195	0.390075
690.963206	0.390502
691.165198	0.391007
691.367172	0.391117
691.569128	0.391475
691.771065	0.391641
691.972984	0.391677
692.174885	0.391809
692.376768	0.391995
692.578633	0.392040
692.780479	0.392105
692.982308	0.392196
693.184118	0.392353
693.385909	0.392558
693.587683	0.392922
693.789438	0.393320
693.991175	0.393598
694.192894	0.393717
694.394595	0.394115
694.596277	0.394367
694.797941	0.394681
694.999587	0.394892
695.201215	0.394894
695.402824	0.394621
695.604416	0.394546
695.805989	0.394940
696.007543	0.394905
696.209080	0.395059
696.410598	0.395153
696.612099	0.395240
696.813580	0.395350
697.015044	0.395617
697.216490	0.396069
697.417917	0.396240
697.619326	0.396034
697.820717	0.396280
698.022089	0.396114
698.223444	0.396570
698.424780	0.396589
698.626098	0.396780
698.827397	0.397200
699.028679	0.397229
699.229942	0.397220
699.431187	0.397610
699.632414	0.398023
699.833622	0.398310
700.034813	0.398460
700.235985	0.398839
700.437139	0.398956
700.638274	0.399093
700.839392	0.399354
701.040491	0.399938
701.241572	0.399792
701.442635	0.399572
701.643679	0.399627
701.844706	0.399677
702.045714	0.399556
702.246704	0.399704
702.447675	0.399626
702.648629	0.399648
702.849564	0.399458
703.050481	0.400007
703.251380	0.400369
703.452260	0.400818
703.653122	0.400802
703.853966	0.400769
704.054792	0.400991
704.255600	0.401016
704.456389	0.401075
704.657160	0.401234
704.857913	0.401262
705.058648	0.401349
705.259365	0.401114
705.460063	0.401149
705.660743	0.401598
705.861405	0.401773
706.062048	0.401941
706.262674	0.401996
706.463281	0.401930
706.663870	0.401806
706.864441	0.401574
707.064993	0.401733
707.265527	0.402102
707.466043	0.402224
707.666541	0.401990
707.867021	0.402142
708.067482	0.402539
708.267925	0.402635
708.468350	0.402749
708.668757	0.402856
708.869145	0.402983
709.069516	0.402798
709.269868	0.402715
709.470201	0.402473
709.670517	0.402137
709.870814	0.401745
710.071093	0.401571
710.271354	0.401418
710.471597	0.401221
710.671821	0.401291
710.872028	0.401094
711.072216	0.400910
711.272385	0.401349
711.472537	0.401180
711.672670	0.401285
711.872785	0.401340
712.072882	0.401524
712.272961	0.401536
712.473021	0.401344
712.673063	0.401186
712.873087	0.400953
713.073093	0.400795
713.273081	0.400969
713.473050	0.400701
713.673001	0.400711
713.872934	0.400661
714.072849	0.401032
714.272745	0.400847
714.472623	0.401059
714.672483	0.401300
714.872325	0.401337
715.072148	0.401552
715.271954	0.401670
715.471741	0.401865
715.671509	0.401831
715.871260	0.401560
716.070992	0.401652
716.270707	0.401605
716.470403	0.401260
716.670080	0.401078
716.869740	0.401035
717.069381	0.401011
717.269004	0.400527
717.468609	0.400319
717.668195	0.400311
717.867764	0.400107
718.067314	0.399891
718.266846	0.399719
718.466360	0.399448
718.665855	0.399065
718.865332	0.399116
719.064791	0.399330
719.264232	0.399196
719.463655	0.399225
719.663059	0.399450
719.862445	0.399788
720.061813	0.400169
720.261163	0.400413
720.460494	0.400212
720.659807	0.399797
720.859102	0.399435
721.058379	0.399427
721.257638	0.399237
721.456878	0.399026
721.656100	0.398845
721.855304	0.398724
722.054490	0.398703
722.253657	0.399120
722.452806	0.399297
722.651937	0.399492
722.851050	0.399368
723.050145	0.399392
723.249221	0.399467
723.448279	0.399045
723.647319	0.398917
723.846340	0.398803
724.045344	0.398144
724.244329	0.397959
724.443296	0.397719
724.642245	0.397750
724.841175	0.397519
725.040088	0.397246
725.238982	0.397283
725.437857	0.397133
725.636715	0.397020
725.835554	0.397345
726.034376	0.397249
726.233179	0.397355
726.431963	0.397202
726.630730	0.397224
726.829478	0.397448
727.028208	0.397346
727.226920	0.397028
727.425614	0.396737
727.624289	0.396377
727.822946	0.396146
728.021585	0.396104
728.220206	0.395815
728.418808	0.395331
728.617392	0.394895
728.815958	0.394443
729.014506	0.394397
729.213036	0.394319
729.411547	0.394047
729.610040	0.393844
729.808515	0.393412
730.006972	0.393539
730.205410	0.393530
730.403831	0.393205
730.602233	0.393479
730.800616	0.393240
730.998982	0.393159
731.197329	0.393285
731.395658	0.393044
731.593969	0.392946
731.792262	0.392718
731.990536	0.392758
732.188793	0.392594
732.387031	0.392393
732.585250	0.392320
732.783452	0.392117
732.981635	0.392134
733.179800	0.392024
733.377947	0.392143
733.576076	0.391900
733.774186	0.391360
733.972278	0.391052
734.170352	0.390582
734.368408	0.390770
734.566446	0.390341
734.764465	0.389918
734.962466	0.389857
735.160449	0.389396
735.358413	0.389152
735.556360	0.389332
735.754288	0.389161
735.952198	0.388622
736.150090	0.388021
736.347963	0.387957
736.545818	0.387625
736.743655	0.387703
736.941474	0.387406
737.139275	0.387202
737.337057	0.387019
737.534821	0.387130
737.732567	0.387224
737.930295	0.387198
738.128005	0.387016
738.325696	0.387192
738.523369	0.386988
738.721024	0.387106
738.918660	0.386914
739.116279	0.386567
739.313879	0.386164
739.511461	0.386239
739.709024	0.385989
739.906570	0.385830
740.104097	0.385532
740.301606	0.385253
740.499097	0.384747
740.696569	0.384452
740.894024	0.384359
741.091460	0.384079
741.288878	0.384013
741.486277	0.383706
741.683659	0.383405
741.881022	0.382858
742.078367	0.382393
742.275694	0.382481
742.473002	0.382577
742.670293	0.382218
742.867565	0.382137
743.064819	0.381618
743.262054	0.381338
743.459272	0.381267
743.656471	0.381165
743.853652	0.381084
744.050815	0.380614
744.247959	0.380189
744.445085	0.379803
744.642194	0.379324
744.839283	0.379208
745.036355	0.378935
745.233408	0.378284
745.430444	0.377877
745.627461	0.377646
745.824459	0.377261
746.021440	0.377019
746.218402	0.376888
746.415346	0.376940
746.612272	0.376718
746.809180	0.376721
747.006069	0.376857
747.202940	0.376876
747.399793	0.376554
747.596628	0.376466
747.793444	0.376225
747.990243	0.376152
748.187023	0.376004
748.383784	0.375754
748.580528	0.375394
748.777253	0.375363
748.973960	0.374942
749.170649	0.374317
749.367320	0.373942
749.563973	0.373539
749.760607	0.373218
749.957223	0.372927
750.153821	0.372489
750.350400	0.372478
750.546962	0.372038
750.743505	0.371898
750.940030	0.372001
751.136536	0.371779
751.333025	0.371851
751.529495	0.371567
751.725947	0.371063
751.922381	0.370994
752.118796	0.370597
752.315194	0.370454
752.511573	0.370143
752.707934	0.370097
752.904276	0.370034
753.100601	0.369845
753.296907	0.369654
753.493195	0.369876
753.689465	0.369828
753.885716	0.369642
754.081949	0.369371
754.278164	0.369074
754.474361	0.368785
754.670540	0.368767
754.866700	0.368494
755.062843	0.368564
755.258967	0.368177
755.455072	0.368005
755.651160	0.367810
755.847229	0.367909
756.043280	0.367932
756.239313	0.367872
756.435328	0.367782
756.631324	0.367675
756.827302	0.367536
757.023262	0.367577
757.219204	0.367275
757.415127	0.367295
757.611033	0.366981
757.806920	0.367035
758.002788	0.366817
758.198639	0.366643
758.394471	0.365904
758.590286	0.365635
758.786081	0.365540
758.981859	0.365465
759.177619	0.365224
759.373360	0.365141
759.569083	0.365082
759.764788	0.364887
759.960474	0.364657
760.156143	0.364938
760.351793	0.364886
760.547425	0.364590
760.743038	0.364319
760.938634	0.364340
761.134211	0.363851
761.329770	0.363041
761.525311	0.362679
761.720833	0.362205
761.916338	0.362135
762.111824	0.361549
762.307292	0.361226
762.502741	0.361012
762.698173	0.360359
762.893586	0.360363
763.088981	0.360411
763.284358	0.360489
763.479716	0.360440
763.675057	0.360300
763.870379	0.360372
764.065683	0.360442
764.260968	0.360462
764.456236	0.360600
764.651485	0.360586
764.846716	0.360891
765.041929	0.360818
765.237123	0.360912
765.432299	0.360946
765.627457	0.360664
765.822597	0.360272
766.017719	0.360182
766.212822	0.359916
766.407907	0.359938
766.602974	0.359614
766.798023	0.359762
766.993054	0.359446
767.188066	0.359059
767.383060	0.359135
767.578036	0.359251
767.772993	0.359016
767.967933	0.358883
768.162854	0.358524
768.357757	0.358348
768.552642	0.358019
768.747508	0.358014
768.942356	0.357789
769.137186	0.357476
769.331998	0.357510
769.526792	0.357351
769.721567	0.357326
769.916324	0.356994
770.111063	0.356722
770.305784	0.356450
770.500486	0.356206
770.695171	0.356241
770.889837	0.356148
771.084484	0.355579
771.279114	0.355284
771.473725	0.355106
771.668318	0.355160
771.862893	0.355200
772.057450	0.355099
772.251988	0.355049
772.446509	0.354890
772.641011	0.355146
772.835494	0.355258
773.029960	0.355476
773.224407	0.355673
773.418836	0.355661
773.613247	0.355595
773.807640	0.355576
774.002014	0.355542
774.196370	0.355416
774.390708	0.355031
774.585028	0.355067
774.779330	0.355073
774.973613	0.354991
775.167878	0.355103
775.362125	0.355260
775.556354	0.354949
775.750564	0.354891
775.944756	0.355150
776.138930	0.355314
776.333086	0.355353
776.527223	0.355199
776.721343	0.355274
776.915444	0.355006
777.109526	0.354814
777.303591	0.355197
777.497637	0.355580
777.691666	0.355503
777.885676	0.355670
778.079667	0.355623
778.273641	0.355530
778.467596	0.355405
778.661533	0.355650
778.855452	0.355734
779.049352	0.355380
779.243235	0.355169
779.437099	0.355437
779.630945	0.355276
779.824773	0.355331
780.018582	0.355720
780.212373	0.356022
780.406146	0.356004
780.599901	0.356202
780.793638	0.356703
780.987356	0.356831
781.181056	0.356375
781.374738	0.356458
781.568402	0.356393
781.762047	0.356157
781.955674	0.355914
782.149283	0.355889
782.342874	0.355881
782.536447	0.355782
782.730001	0.355786
782.923537	0.356229
783.117055	0.356268
783.310555	0.356646
783.504036	0.356897
783.697499	0.356979
783.890944	0.356952
784.084371	0.356946
784.277780	0.357055
784.471170	0.356897
784.664542	0.356816
784.857896	0.356757
785.051231	0.356553
785.244549	0.356613
785.437848	0.356645
785.631129	0.356644
785.824392	0.356676
786.017636	0.356714
786.210863	0.356764
786.404071	0.356772
786.597260	0.356938
786.790432	0.356959
786.983585	0.356965
787.176721	0.357140
787.369838	0.357523
787.562936	0.357636
787.756017	0.357872
787.949079	0.358117
788.142123	0.358101
788.335149	0.358292
788.528156	0.358457
788.721146	0.358585
788.914117	0.358712
789.107070	0.358777
789.300005	0.358913
789.492921	0.358818
789.685819	0.358713
789.878699	0.359022
790.071561	0.359160
790.264405	0.359128
790.457230	0.359424
790.650037	0.359351
790.842826	0.359428
791.035597	0.359675
791.228349	0.359681
791.421084	0.360057
791.613800	0.360120
791.806497	0.360299
791.999177	0.360552
792.191838	0.360412
792.384481	0.360511
792.577106	0.360533
792.769713	0.360690
792.962301	0.360553
793.154871	0.360577
793.347423	0.360710
793.539957	0.360565
793.732473	0.360846
793.924970	0.360868
794.117449	0.361329
794.309910	0.361740
794.502353	0.361906
794.694777	0.362435
794.887183	0.362515
795.079571	0.362783
795.271941	0.363121
795.464293	0.363215
795.656626	0.363721
795.848941	0.363510
796.041238	0.363630
796.233516	0.363582
796.425777	0.363814
796.618019	0.364210
796.810243	0.364346
797.002449	0.364614
797.194636	0.364626
797.386805	0.364848
797.578956	0.365256
797.771089	0.365462
797.963204	0.365512
798.155300	0.365900
798.347378	0.366050
798.539438	0.366473
798.731480	0.366787
798.923503	0.367293
799.115509	0.367605
799.307496	0.367799
799.499465	0.368107
799.691415	0.368371
799.883348	0.368295
800.075262	0.368612
800.267158	0.368547
800.459035	0.368755
800.650895	0.368866
800.842736	0.369050
801.034559	0.369424
801.226364	0.369272
801.418150	0.369768
801.609919	0.370161
801.801669	0.370059
801.993401	0.370759
802.185114	0.371016
802.376810	0.371280
802.568487	0.371389
802.760146	0.371615
802.951787	0.371999
803.143409	0.372128
803.335014	0.372608
803.526600	0.373059
803.718168	0.373076
803.909717	0.373204
804.101249	0.373641
804.292762	0.373817
804.484257	0.374190
804.675734	0.374525
804.867192	0.374760
805.058632	0.375019
805.250054	0.375446
805.441458	0.375652
805.632844	0.376146
805.824211	0.376200
806.015561	0.376654
806.206891	0.376791
806.398204	0.377256
806.589499	0.377878
806.780775	0.377746
806.972033	0.378291
807.163273	0.378598
807.354495	0.378772
807.545698	0.379135
807.736883	0.379277
807.928050	0.379700
808.119199	0.379929
808.310329	0.380072
808.501441	0.380787
808.692535	0.380997
808.883611	0.381578
809.074669	0.381826
809.265708	0.382114
809.456729	0.382316
809.647732	0.382868
809.838717	0.382955
810.029683	0.383407
810.220632	0.383586
810.411562	0.383982
810.602474	0.383970
810.793367	0.384319
810.984242	0.384749
811.175100	0.385426
811.365938	0.385358
811.556759	0.385750
811.747562	0.385642
811.938346	0.386169
812.129112	0.386231
812.319860	0.386883
812.510589	0.387379
812.701300	0.387677
812.891994	0.387552
813.082668	0.387954
813.273325	0.388125
813.463964	0.388620
813.654584	0.388581
813.845186	0.389095
814.035769	0.389052
814.226335	0.389098
814.416882	0.389409
814.607411	0.389980
814.797922	0.390369
814.988415	0.391073
815.178889	0.391631
815.369345	0.392028
815.559783	0.392274
815.750203	0.392883
815.940605	0.393620
816.130988	0.394203
816.321353	0.394637
816.511700	0.394975
816.702028	0.395435
816.892339	0.395902
817.082631	0.396747
817.272905	0.397397
817.463161	0.397670
817.653398	0.397927
817.843617	0.398400
818.033819	0.398866
818.224001	0.399757
818.414166	0.400373
818.604312	0.400768
818.794440	0.401179
818.984550	0.401375
819.174642	0.402119
819.364716	0.402374
819.554771	0.402949
819.744808	0.403580
819.934827	0.403770
820.124827	0.404097
820.314810	0.404440
820.504774	0.404951
820.694720	0.405376
820.884647	0.405481
821.074557	0.405822
821.264448	0.405990
821.454321	0.406405
821.644176	0.406253
821.834012	0.406186
822.023831	0.406696
822.213631	0.406700
822.403413	0.406938
822.593176	0.407314
822.782922	0.407948
822.972649	0.408195
823.162358	0.408540
823.352049	0.409383
823.541721	0.409915
823.731376	0.410315
823.921012	0.410476
824.110629	0.411266
824.300229	0.411657
824.489811	0.412007
824.679374	0.412634
824.868919	0.412794
825.058445	0.413228
825.247954	0.414323
825.437444	0.414626
825.626916	0.415739
825.816370	0.416150
826.005806	0.417113
826.195223	0.418120
826.384622	0.418520
826.574003	0.419713
826.763366	0.420410
826.952711	0.420710
827.142037	0.421401
827.331345	0.421675
827.520635	0.422347
827.709906	0.422683
827.899160	0.422773
828.088395	0.423271
828.277612	0.423226
828.466810	0.423845
828.655991	0.424436
828.845153	0.424734
829.034297	0.425217
829.223423	0.425437
829.412531	0.425785
829.601620	0.426699
829.790691	0.427283
829.979744	0.427848
830.168779	0.428173
830.357795	0.428323
830.546793	0.428806
830.735773	0.429105
830.924735	0.429309
831.113679	0.430022
831.302604	0.430302
831.491511	0.430808
831.680400	0.431531
831.869271	0.431695
832.058123	0.432328
832.246957	0.432920
832.435773	0.433770
832.624571	0.434693
832.813351	0.435228
833.002112	0.435634
833.190855	0.436185
833.379580	0.436665
833.568287	0.437427
833.756975	0.437957
833.945645	0.438689
834.134297	0.439537
834.322931	0.440103
834.511547	0.440426
834.700144	0.441104
834.888723	0.441555
835.077284	0.442026
835.265826	0.442463
835.454351	0.443101
835.642857	0.443444
835.831345	0.443501
836.019815	0.444226
836.208266	0.445147
836.396699	0.445885
836.585114	0.446570
836.773511	0.447289
836.961890	0.447794
837.150250	0.448512
837.338592	0.449536
837.526916	0.450537
837.715222	0.450863
837.903510	0.451210
838.091779	0.451318
838.280030	0.451633
838.468263	0.452316
838.656477	0.453285
838.844674	0.453389
839.032852	0.453650
839.221012	0.453878
839.409153	0.454671
839.597277	0.455138
839.785382	0.456383
839.973469	0.456987
840.161538	0.457629
840.349589	0.458077
840.537621	0.459078
840.725635	0.459735
840.913631	0.460244
841.101609	0.460794
841.289568	0.461510
841.477509	0.461661
841.665432	0.462281
841.853337	0.462345
842.041224	0.463017
842.229092	0.463320
842.416942	0.464005
842.604774	0.464390
842.792588	0.464592
842.980383	0.465156
843.168160	0.465538
843.355919	0.466233
843.543660	0.466803
843.731382	0.467056
843.919087	0.467615
844.106773	0.468097
844.294441	0.468979
844.482090	0.469619
844.669722	0.469942
844.857335	0.470311
845.044930	0.470955
845.232507	0.471626
845.420065	0.472182
845.607605	0.472793
845.795127	0.473249
845.982631	0.473868
846.170117	0.474812
846.357584	0.475021
846.545033	0.475678
846.732464	0.475988
846.919877	0.476595
847.107272	0.477371
847.294648	0.478111
847.482006	0.479045
847.669346	0.479761
847.856667	0.480574
848.043971	0.481641
848.231256	0.482339
848.418523	0.482596
848.605771	0.483243
848.793002	0.483867
848.980214	0.484349
849.167408	0.484413
849.354584	0.484711
849.541742	0.484795
849.728881	0.485238
849.916002	0.485826
850.103105	0.486932
850.290190	0.487395
850.477256	0.488091
850.664304	0.488518
850.851334	0.489028
851.038346	0.489445
851.225340	0.489888
851.412315	0.490600
851.599272	0.491397
851.786211	0.491869
851.973132	0.492567
852.160034	0.492550
852.346918	0.492923
852.533784	0.493852
852.720632	0.494250
852.907462	0.495019
853.094273	0.495424
853.281066	0.495671
853.467841	0.495831
853.654598	0.495969
853.841336	0.496322
854.028056	0.496858
854.214758	0.496852
854.401442	0.497035
854.588107	0.497430
854.774755	0.497855
854.961384	0.498260
855.147995	0.499420
855.334587	0.499934
855.521162	0.500566
855.707718	0.501134
855.894256	0.501507
856.080775	0.502115
856.267277	0.502210
856.453760	0.502665
856.640225	0.502884
856.826672	0.502976
857.013101	0.503307
857.199511	0.504245
857.385903	0.504845
857.572277	0.505742
857.758633	0.506834
857.944970	0.508074
858.131290	0.508818
858.317591	0.509557
858.503873	0.510035
858.690138	0.511192
858.876384	0.511847
859.062612	0.512608
859.248822	0.513151
859.435014	0.513426
859.621188	0.513833
859.807343	0.514467
859.993480	0.514961
860.179599	0.515133
860.365699	0.515375
860.551781	0.515890
860.737846	0.516288
860.923891	0.516977
861.109919	0.518000
861.295929	0.518583
861.481920	0.518961
861.667893	0.519396
861.853848	0.520203
862.039784	0.520482
862.225702	0.520592
862.411603	0.520343
862.597484	0.520441
862.783348	0.520434
862.969193	0.520596
863.155021	0.521361
863.340830	0.522270
863.526620	0.523243
863.712393	0.524328
863.898147	0.525054
864.083883	0.525704
864.269601	0.526137
864.455301	0.526908
864.640982	0.527588
864.826645	0.527454
865.012290	0.527617
865.197917	0.527725
865.383526	0.527536
865.569116	0.528334
865.754688	0.529628
865.940242	0.530456
866.125777	0.530722
866.311295	0.530655
866.496794	0.531504
866.682275	0.531769
866.867737	0.532341
867.053182	0.532979
867.238608	0.533254
867.424016	0.533050
867.609406	0.533169
867.794778	0.533589
867.980131	0.534136
868.165466	0.534176
868.350783	0.534904
868.536082	0.534879
868.721362	0.535321
868.906625	0.535252
869.091869	0.535834
869.277094	0.536194
869.462302	0.536384
869.647491	0.536254
869.832662	0.536375
870.017815	0.536549
870.202950	0.536942
870.388066	0.536915
870.573165	0.537316
870.758245	0.537213
870.943306	0.537367
871.128350	0.537160
871.313375	0.537340
871.498382	0.537684
871.683371	0.538006
871.868342	0.538266
872.053294	0.538732
872.238229	0.538854
872.423144	0.539345
872.608042	0.539737
872.792922	0.540306
872.977783	0.540932
873.162626	0.541549
873.347451	0.541637
873.532258	0.542091
873.717046	0.542632
873.901816	0.543143
874.086568	0.543496
874.271302	0.544297
874.456017	0.544700
874.640715	0.545043
874.825394	0.544966
875.010055	0.545255
875.194697	0.545799
875.379322	0.546240
875.563928	0.546908
875.748516	0.547206
875.933085	0.546529
876.117637	0.547297
876.302170	0.547347
876.486685	0.548004
876.671182	0.548406
876.855661	0.547991
877.040121	0.548172
877.224563	0.548346
877.408987	0.548740
877.593393	0.549591
877.777780	0.549695
877.962150	0.550462
878.146501	0.550525
878.330833	0.551366
878.515148	0.551649
878.699444	0.551731
878.883722	0.551524
879.067982	0.551531
879.252224	0.551729
879.436447	0.551940
879.620653	0.552239
879.804840	0.552954
879.989008	0.552625
880.173159	0.553029
880.357291	0.553268
880.541405	0.554132
880.725501	0.554499
880.909579	0.554941
881.093638	0.555409
881.277680	0.555564
881.461703	0.555825
881.645707	0.556007
881.829694	0.556751
882.013662	0.556903
882.197612	0.556085
882.381544	0.556360
882.565458	0.556745
882.749353	0.556586
882.933230	0.556261
883.117089	0.555669
883.300930	0.555744
883.484753	0.555662
883.668557	0.555740
883.852343	0.556673
884.036111	0.556789
884.219861	0.556553
884.403592	0.557215
884.587305	0.557718
884.771000	0.558189
884.954677	0.558713
885.138335	0.558997
885.321976	0.559009
885.505598	0.558072
885.689201	0.557688
885.872787	0.557499
886.056354	0.557228
886.239904	0.557268
886.423434	0.557592
886.606947	0.557023
886.790442	0.556696
886.973918	0.556813
887.157376	0.557646
887.340816	0.558233
887.524237	0.558703
887.707641	0.558711
887.891026	0.559133
888.074393	0.558781
888.257741	0.559389
888.441072	0.559555
888.624384	0.560046
888.807678	0.559823
888.990954	0.559656
889.174211	0.558864
889.357451	0.558364
889.540672	0.557663
889.723875	0.557068
889.907059	0.556507
890.090226	0.556231
890.273374	0.555681
890.456504	0.555311
890.639616	0.555624
890.822709	0.555495
891.005785	0.555567
891.188842	0.555224
891.371881	0.555524
891.554901	0.555538
891.737904	0.555178
891.920888	0.554622
892.103854	0.554979
892.286802	0.554101
892.469731	0.554283
892.652643	0.554029
892.835536	0.554882
893.018410	0.554649
893.201267	0.553510
893.384106	0.553889
893.566926	0.554002
893.749728	0.553931
893.932511	0.553406
894.115277	0.553558
894.298024	0.553042
894.480753	0.551657
894.663464	0.551938
894.846157	0.553038
895.028831	0.552591
895.211487	0.552751
895.394125	0.551308
895.576745	0.551925
895.759346	0.550993
895.941930	0.551081
896.124495	0.550775
896.307041	0.550017
896.489570	0.549434
896.672080	0.548836
896.854573	0.548006
897.037046	0.548502
897.219502	0.547823
897.401940	0.548647
897.584359	0.548130
897.766760	0.548752
897.949143	0.548842
898.131507	0.547983
898.313854	0.547896
898.496182	0.548281
898.678492	0.548238
898.860783	0.548444
899.043057	0.547786
899.225312	0.547980
899.407549	0.547225
899.589768	0.547090
899.771968	0.547608
899.954151	0.547279
900.136315	0.546498
900.318461	0.545457
900.500588	0.545234
900.682698	0.544799
900.864789	0.544831
901.046862	0.544410
901.228917	0.543154
901.410953	0.542408
901.592971	0.542208
901.774972	0.542001
901.956953	0.542204
902.138917	0.541112
902.320862	0.540428
902.502790	0.539638
902.684699	0.539536
902.866589	0.540438
903.048462	0.539735
903.230316	0.539321
903.412152	0.538970
903.593970	0.538488
903.775770	0.538684
903.957551	0.538415
904.139314	0.537777
904.321059	0.536997
904.502786	0.535578
904.684494	0.535403
904.866185	0.534333
905.047857	0.533090
905.229510	0.532812
905.411146	0.531751
905.592763	0.531058
905.774363	0.530476
905.955943	0.529977
906.137506	0.528855
906.319051	0.528677
906.500577	0.528610
906.682085	0.528582
906.863575	0.528161
907.045046	0.527118
907.226500	0.526434
907.407935	0.525326
907.589352	0.524489
907.770750	0.524026
907.952131	0.522950
908.133493	0.522470
908.314837	0.521672
908.496163	0.520717
908.677470	0.520771
908.858760	0.519982
909.040031	0.520240
909.221284	0.520354
909.402518	0.520506
909.583735	0.519724
909.764933	0.518966
909.946113	0.518614
910.127275	0.518327
910.308418	0.518017
910.489544	0.518453
910.670651	0.517610
910.851740	0.517220
911.032810	0.516215
911.213863	0.516150
911.394897	0.515858
911.575913	0.515136
911.756911	0.514086
911.937890	0.513128
912.118851	0.512108
912.299794	0.511342
912.480719	0.510571
912.661626	0.510486
912.842514	0.509457
913.023384	0.508267
913.204236	0.507936
913.385070	0.507325
913.565886	0.505831
913.746683	0.504943
913.927462	0.504648
914.108223	0.503875
914.288965	0.503137
914.469690	0.502474
914.650396	0.501598
914.831084	0.500432
915.011754	0.499857
915.192405	0.499431
915.373038	0.498288
915.553653	0.497091
915.734250	0.495123
915.914829	0.493501
916.095389	0.493183
916.275931	0.492841
916.456455	0.492029
916.636961	0.490838
916.817448	0.490022
916.997917	0.489573
917.178368	0.489238
917.358801	0.489363
917.539216	0.488639
917.719612	0.487284
917.899990	0.486151
918.080350	0.486203
918.260692	0.485629
918.441015	0.484867
918.621320	0.483017
918.801607	0.481275
918.981876	0.480004
919.162127	0.479420
919.342359	0.478590
919.522573	0.477566
919.702769	0.475424
919.882947	0.474263
920.063106	0.473360
920.243247	0.472941
920.423370	0.472606
920.603475	0.471487
920.783562	0.469726
920.963630	0.468176
921.143680	0.466927
921.323712	0.466227
921.503725	0.465014
921.683721	0.463856
921.863698	0.462908
922.043657	0.460860
922.223598	0.460057
922.403520	0.459117
922.583424	0.458709
922.763311	0.457598
922.943178	0.456436
923.123028	0.455238
923.302859	0.453935
923.482673	0.452833
923.662467	0.452121
923.842244	0.450446
924.022003	0.449643
924.201743	0.448598
924.381465	0.447290
924.561169	0.445988
924.740854	0.445375
924.920522	0.445295
925.100171	0.444326
925.279802	0.444253
925.459414	0.443323
925.639009	0.442731
925.818585	0.440899
925.998143	0.440060
926.177683	0.439014
926.357205	0.437289
926.536708	0.434760
926.716193	0.432470
926.895660	0.430164
927.075109	0.428711
927.254539	0.427199
927.433951	0.426165
927.613345	0.424717
927.792721	0.424111
927.972079	0.423086
928.151418	0.422569
928.330739	0.421999
928.510042	0.420258
928.689327	0.419233
928.868593	0.417226
929.047841	0.415794
929.227071	0.414569
929.406283	0.412897
929.585476	0.412136
929.764652	0.410761
929.943809	0.409595
930.122948	0.408442
930.302068	0.407866
930.481171	0.407094
930.660255	0.405812
930.839321	0.405663
931.018369	0.404049
931.197398	0.402289
931.376409	0.401413
931.555402	0.399974
931.734377	0.399965
931.913334	0.398972
932.092272	0.397294
932.271192	0.396867
932.450094	0.394612
932.628978	0.393480
932.807844	0.391146
932.986691	0.388363
933.165520	0.387503
933.344331	0.386433
933.523123	0.384834
933.701898	0.384609
933.880654	0.382472
934.059392	0.381050
934.238111	0.379814
934.416813	0.378862
934.595496	0.377300
934.774161	0.376107
934.952808	0.373408
935.131437	0.372225
935.310047	0.370248
935.488639	0.369387
935.667213	0.368489
935.845769	0.367092
936.024306	0.367390
936.202825	0.367508
936.381326	0.365344
936.559809	0.363621
936.738274	0.362189
936.916720	0.360950
937.095148	0.359122
937.273558	0.356696
937.451950	0.354708
937.630323	0.352806
937.808678	0.351858
937.987015	0.351101
938.165334	0.350749
938.343635	0.349056
938.521917	0.348276
938.700181	0.346614
938.878427	0.345716
939.056655	0.344971
939.234864	0.342924
939.413055	0.341057
939.591228	0.338491
939.769383	0.336672
939.947519	0.335406
940.125638	0.333344
940.303738	0.331823
940.481820	0.330928
940.659883	0.329629
940.837929	0.327426
941.015956	0.325151
941.193965	0.325302
941.371955	0.323740
941.549928	0.322261
941.727882	0.319948
941.905818	0.319155
942.083736	0.318865
942.261636	0.317614
942.439517	0.316871
942.617380	0.316904
942.795225	0.314322
942.973052	0.313490
943.150860	0.310763
943.328651	0.311470
943.506423	0.311706
943.684176	0.308991
943.861912	0.306981
944.039629	0.306345
944.217328	0.305033
944.395009	0.304174
944.572672	0.301346
944.750317	0.300763
944.927943	0.297838
945.105551	0.293885
945.283141	0.293141
945.460712	0.292182
945.638265	0.289422
945.815801	0.286038
945.993317	0.284894
946.170816	0.284222
946.348297	0.282022
946.525759	0.280367
946.703203	0.278459
946.880629	0.276305
947.058036	0.273506
947.235425	0.272461
947.412797	0.271481
947.590149	0.269478
947.767484	0.267916
947.944800	0.265501
948.122099	0.264098
948.299379	0.263659
948.476640	0.262210
948.653884	0.260612
948.831109	0.258876
949.008316	0.257302
949.185505	0.254082
949.362676	0.252721
949.539828	0.251850
949.716962	0.250957
949.894078	0.249563
950.071176	0.247453
950.248256	0.246573
950.425317	0.245395
950.602360	0.243873
950.779385	0.244092
950.956391	0.243237
951.133380	0.244143
951.310350	0.243670
951.487302	0.240467
951.664235	0.237546
951.841151	0.238527
952.018048	0.238214
952.194927	0.236594
952.371788	0.234917
952.548631	0.234809
952.725455	0.231441
952.902261	0.227854
953.079049	0.228499
953.255819	0.229625
953.432570	0.226176
953.609303	0.222965
953.786018	0.222169
953.962715	0.221748
954.139394	0.218876
954.316054	0.217600
954.492696	0.216835
954.669320	0.215222
954.845926	0.214427
955.022513	0.215106
955.199083	0.213345
955.375634	0.211665
955.552166	0.209995
955.728681	0.208402
955.905177	0.207759
956.081655	0.207259
956.258115	0.207154
956.434557	0.206767
956.610980	0.202190
956.787385	0.203005
956.963772	0.204044
957.140141	0.203719
957.316492	0.201784
957.492824	0.199258
957.669138	0.197118
957.845434	0.194698
958.021712	0.191786
958.197971	0.192366
958.374212	0.190384
958.550435	0.187485
958.726640	0.186715
958.902826	0.187451
959.078995	0.186756
959.255145	0.188059
959.431277	0.188647
959.607390	0.189096
959.783486	0.187374
959.959563	0.187588
960.135622	0.189073
960.311662	0.191234
960.487685	0.191028
960.663689	0.193612
960.839675	0.192580
961.015643	0.190428
961.191593	0.187538
961.367524	0.187662
961.543437	0.187980
961.719332	0.184933
961.895209	0.182218
962.071067	0.179372
962.246907	0.174920
962.422730	0.175522
962.598533	0.175224
962.774319	0.177624
962.950086	0.178007
963.125835	0.177358
963.301566	0.179547
963.477279	0.177980
963.652973	0.177745
963.828650	0.180287
964.004308	0.177972
964.179947	0.179272
964.355569	0.178172
964.531172	0.177028
964.706757	0.174770
964.882324	0.174798
965.057873	0.176688
965.233403	0.176924
965.408916	0.176517
965.584410	0.175976
965.759885	0.175557
965.935343	0.176848
966.110782	0.176994
966.286203	0.177560
966.461606	0.178450
966.636991	0.176715
966.812357	0.176082
966.987705	0.175580
967.163035	0.177191
967.338347	0.177845
967.513641	0.176190
967.688916	0.177655
967.864173	0.179007
968.039412	0.179038
968.214632	0.178880
968.389835	0.178490
968.565019	0.179139
968.740185	0.178928
968.915333	0.178895
969.090462	0.178008
969.265573	0.175796
969.440667	0.174087
969.615741	0.171493
969.790798	0.170174
969.965836	0.172563
970.140856	0.175067
970.315858	0.174853
970.490842	0.173810
970.665808	0.174514
970.840755	0.174447
971.015684	0.176237
971.190595	0.175437
971.365487	0.176037
971.540362	0.174727
971.715218	0.172916
971.890056	0.172404
972.064875	0.171162
972.239677	0.172402
972.414460	0.172416
972.589225	0.171649
972.763972	0.171589
972.938700	0.171051
973.113411	0.170595
973.288103	0.169579
973.462777	0.171091
973.637432	0.172349
973.812070	0.171308
973.986689	0.171154
974.161290	0.172338
974.335873	0.172422
974.510437	0.175119
974.684984	0.178468
974.859512	0.178965
975.034022	0.180201
975.208513	0.180565
975.382987	0.180228
975.557442	0.180925
975.731879	0.180334
975.906298	0.181567
976.080698	0.178513
976.255080	0.174700
976.429445	0.172862
976.603790	0.170827
976.778118	0.170256
976.952427	0.169368
977.126719	0.169735
977.300992	0.168246
977.475246	0.168731
977.649483	0.170142
977.823701	0.171628
977.997901	0.173634
978.172083	0.169930
978.346247	0.169439
978.520392	0.171625
978.694519	0.171585
978.868628	0.173332
979.042719	0.172975
979.216791	0.174118
979.390845	0.175437
979.564882	0.176851
979.738899	0.179120
979.912899	0.179016
980.086880	0.179775
980.260843	0.178873
980.434788	0.178420
980.608715	0.176178
980.782623	0.175914
980.956514	0.174963
981.130386	0.173316
981.304240	0.172503
981.478075	0.173997
981.651892	0.170830
981.825692	0.172014
981.999472	0.174588
982.173235	0.176723
982.346980	0.175377
982.520706	0.176256
982.694414	0.176117
982.868104	0.175908
983.041775	0.177265
983.215428	0.177543
983.389064	0.176540
983.562680	0.173590
983.736279	0.174457
983.909860	0.177360
984.083422	0.176120
984.256966	0.176172
984.430491	0.178447
984.603999	0.174251
984.777488	0.174599
984.950959	0.173972
985.124412	0.173563
985.297847	0.172790
985.471263	0.170790
985.644661	0.170014
985.818041	0.169656
985.991403	0.168827
986.164747	0.170985
986.338072	0.170981
986.511379	0.171483
986.684668	0.170804
986.857938	0.170123
987.031191	0.169911
987.204425	0.170654
987.377641	0.170906
987.550839	0.171159
987.724018	0.169812
987.897179	0.171245
988.070322	0.172230
988.243447	0.173599
988.416554	0.173387
988.589642	0.173207
988.762712	0.174198
988.935764	0.176297
989.108798	0.178301
989.281813	0.179588
989.454811	0.177492
989.627790	0.175449
989.800751	0.176304
989.973693	0.175856
990.146617	0.176078
990.319524	0.174264
990.492412	0.171497
990.665281	0.168829
990.838133	0.167969
991.010966	0.168112
991.183781	0.169472
991.356578	0.169225
991.529356	0.168840
991.702117	0.169388
991.874859	0.168485
992.047583	0.169691
992.220288	0.170745
992.392976	0.171864
992.565645	0.171638
992.738296	0.172287
992.910929	0.171287
993.083543	0.174201
993.256139	0.174525
993.428718	0.177026
993.601277	0.177406
993.773819	0.176571
993.946342	0.176775
994.118848	0.179881
994.291335	0.180088
994.463803	0.180011
994.636254	0.178232
994.808686	0.177127
994.981100	0.176349
995.153496	0.175539
995.325874	0.176219
995.498233	0.175812
995.670574	0.173032
995.842897	0.173369
996.015202	0.175914
996.187488	0.176240
996.359757	0.177881
996.532007	0.177447
996.704239	0.176592
996.876452	0.177317
997.048648	0.180011
997.220825	0.180756
997.392984	0.179149
997.565124	0.175283
997.737247	0.173503
997.909351	0.171295
998.081437	0.173862
998.253505	0.175035
998.425554	0.173790
998.597586	0.169547
998.769599	0.170207
998.941594	0.172188
999.113571	0.173217
999.285529	0.173615
999.457469	0.174378
999.629391	0.170987
999.801295	0.170376
999.973181	0.172217
1000.145048	0.172589
1000.316897	0.172015
1000.488728	0.170358
1000.660541	0.170756
1000.832335	0.171890
1001.004111	0.173644
1001.175869	0.175324
1001.347609	0.175543
1001.519331	0.173850
1001.691034	0.174621
1001.862719	0.172318
1002.034386	0.173588
1002.206035	0.172921
1002.377665	0.174653
1002.549277	0.174073
1002.720871	0.173810
1002.892447	0.173904
1003.064004	0.174613
1003.235544	0.175407
1003.407065	0.178147
1003.578568	0.177923
1003.750052	0.177903
1003.921519	0.177135
1004.092967	0.176039
1004.264397	0.175249
1004.435809	0.174757
1004.607202	0.176313
1004.778577	0.174739
1004.949934	0.173436
1005.121273	0.173329
1005.292594	0.175222
1005.463896	0.175508
1005.635180	0.176312
1005.806446	0.177259
1005.977694	0.178261
1006.148923	0.176473
1006.320135	0.177579
1006.491328	0.177723
1006.662503	0.178434
1006.833659	0.176354
1007.004798	0.175805
1007.175918	0.174923
1007.347020	0.173519
1007.518103	0.172222
1007.689169	0.170769
1007.860216	0.171209
1008.031245	0.172814
1008.202256	0.172349
1008.373248	0.173912
1008.544223	0.173380
1008.715179	0.174170
1008.886117	0.175503
1009.057036	0.177070
1009.227938	0.178470
1009.398821	0.178028
1009.569686	0.176709
1009.740533	0.176882
1009.911361	0.176267
1010.082172	0.179039
1010.252964	0.179456
1010.423738	0.177910
1010.594493	0.177581
1010.765231	0.178154
1010.935950	0.177717
1011.106651	0.177519
1011.277334	0.176821
1011.447998	0.175522
1011.618645	0.173837
1011.789273	0.173753
1011.959882	0.174613
1012.130474	0.172000
1012.301048	0.170993
1012.471603	0.172296
1012.642140	0.172142
1012.812658	0.170700
1012.983159	0.171617
1013.153641	0.170719
1013.324105	0.169771
1013.494551	0.170096
1013.664979	0.172478
1013.835388	0.173854
1014.005779	0.173463
1014.176152	0.175094
1014.346507	0.176775
1014.516843	0.176437
1014.687162	0.174563
1014.857462	0.174124
1015.027744	0.173488
1015.198007	0.173456
1015.368252	0.171444
1015.538480	0.170088
1015.708689	0.169799
1015.878879	0.169012
1016.049052	0.168437
1016.219206	0.169603
1016.389342	0.169027
1016.559460	0.170183
1016.729559	0.168328
1016.899641	0.168835
1017.069704	0.169842
1017.239749	0.169646
1017.409775	0.171365
1017.579784	0.172539
1017.749774	0.174502
1017.919746	0.176282
1018.089700	0.176009
1018.259635	0.176388
1018.429553	0.175313
1018.599452	0.175054
1018.769333	0.172879
1018.939195	0.169472
1019.109040	0.168769
1019.278866	0.166995
1019.448674	0.167920
1019.618464	0.166941
1019.788235	0.168840
1019.957989	0.170956
1020.127724	0.171451
1020.297441	0.171396
1020.467139	0.172509
1020.636820	0.173396
1020.806482	0.174039
1020.976126	0.174482
1021.145752	0.175445
1021.315359	0.172783
1021.484948	0.170451
1021.654519	0.169653
1021.824072	0.170974
1021.993607	0.171269
1022.163123	0.171246
1022.332621	0.171196
1022.502101	0.168937
1022.671563	0.167171
1022.841007	0.169452
1023.010432	0.170096
1023.179839	0.169050
1023.349228	0.168817
1023.518598	0.168749
1023.687951	0.168267
1023.857285	0.167304
1024.026601	0.166615
1024.195899	0.167100
1024.365178	0.168359
1024.534439	0.167207
1024.703682	0.167329
1024.872907	0.167646
1025.042114	0.166664
1025.211302	0.167322
1025.380472	0.167396
1025.549624	0.164447
1025.718758	0.165344
1025.887873	0.164015
1026.056970	0.165292
1026.226049	0.166619
1026.395110	0.166136
1026.564153	0.166818
1026.733177	0.165978
1026.902183	0.165725
1027.071171	0.169045
1027.240141	0.168668
1027.409092	0.167349
1027.578026	0.167070
1027.746940	0.165661
1027.915837	0.166569
1028.084716	0.167818
1028.253576	0.168688
1028.422418	0.168227
1028.591242	0.168515
1028.760048	0.168099
1028.928835	0.168588
1029.097604	0.168431
1029.266355	0.169284
1029.435088	0.168085
1029.603803	0.166934
1029.772499	0.166034
1029.941177	0.167409
1030.109837	0.166984
1030.278478	0.168008
1030.447102	0.168476
1030.615707	0.168444
1030.784294	0.170854
1030.952863	0.172020
1031.121413	0.171783
1031.289945	0.172977
1031.458460	0.171643
1031.626955	0.170850
1031.795433	0.169476
1031.963892	0.169467
1032.132334	0.171050
1032.300756	0.168234
1032.469161	0.167965
1032.637548	0.169356
1032.805916	0.167728
1032.974266	0.168839
1033.142598	0.168877
1033.310911	0.170542
1033.479207	0.171712
1033.647484	0.169640
1033.815743	0.170779
1033.983983	0.170734
1034.152206	0.171231
1034.320410	0.171865
1034.488596	0.171667
1034.656764	0.171947
1034.824914	0.171630
1034.993045	0.170198
1035.161158	0.170902
1035.329253	0.169297
1035.497330	0.168167
1035.665388	0.167077
1035.833428	0.166412
1036.001450	0.167529
1036.169454	0.169829
1036.337440	0.168818
1036.505407	0.168791
1036.673356	0.169143
1036.841287	0.169640
1037.009200	0.169572
1037.177094	0.168812
1037.344970	0.169610
1037.512828	0.167256
1037.680668	0.165151
1037.848489	0.165624
1038.016293	0.165681
1038.184078	0.165337
1038.351845	0.166617
1038.519593	0.168950
1038.687324	0.168527
1038.855036	0.167316
1039.022730	0.166616
1039.190406	0.166822
1039.358063	0.165336
1039.525702	0.166035
1039.693323	0.166146
1039.860926	0.164900
1040.028511	0.165292
1040.196077	0.166227
1040.363625	0.167934
1040.531155	0.168546
1040.698667	0.169119
1040.866161	0.169013
1041.033636	0.166189
1041.201093	0.167058
1041.368532	0.167700
1041.535952	0.167586
1041.703355	0.167842
1041.870739	0.167189
1042.038105	0.168758
1042.205452	0.168623
1042.372782	0.171294
1042.540093	0.173866
1042.707386	0.173850
1042.874661	0.174524
1043.041918	0.171071
1043.209156	0.169245
1043.376376	0.168424
1043.543578	0.167722
1043.710762	0.168113
1043.877927	0.166704
1044.045074	0.165016
1044.212203	0.164990
1044.379314	0.166346
1044.546407	0.168462
1044.713481	0.168875
1044.880537	0.170929
1045.047575	0.170419
1045.214595	0.170401
1045.381596	0.171645
1045.548579	0.173590
1045.715544	0.174879
1045.882491	0.172759
1046.049420	0.171499
1046.216330	0.171664
1046.383222	0.169981
1046.550096	0.171361
1046.716951	0.171234
1046.883789	0.171230
1047.050608	0.171083
1047.217409	0.170289
1047.384192	0.169665
1047.550956	0.171186
1047.717703	0.171008
1047.884431	0.170443
1048.051140	0.170442
1048.217832	0.170366
1048.384505	0.165591
1048.551161	0.164867
1048.717798	0.163941
1048.884416	0.164596
1049.051017	0.163607
1049.217599	0.166047
1049.384163	0.164140
1049.550709	0.161675
1049.717237	0.161435
1049.883746	0.166354
1050.050237	0.166134
1050.216710	0.165716
1050.383165	0.166263
1050.549601	0.167797
1050.716019	0.166706
1050.882420	0.170623
1051.048801	0.174127
1051.215165	0.174608
1051.381510	0.172025
1051.547837	0.173145
1051.714146	0.173471
1051.880437	0.173015
1052.046709	0.172061
1052.212964	0.172562
1052.379200	0.172442
1052.545417	0.171736
1052.711617	0.172413
1052.877798	0.173807
1053.043961	0.172619
1053.210106	0.173021
1053.376233	0.172057
1053.542341	0.173176
1053.708432	0.174461
1053.874504	0.173252
1054.040557	0.172526
1054.206593	0.171796
1054.372610	0.170993
1054.538609	0.170570
1054.704590	0.172064
1054.870553	0.171444
1055.036497	0.168547
1055.202424	0.167448
1055.368331	0.169418
1055.534221	0.168529
1055.700093	0.168629
1055.865946	0.169963
1056.031781	0.170812
1056.197598	0.168995
1056.363397	0.171391
1056.529177	0.172113
1056.694939	0.168201
1056.860683	0.164365
1057.026409	0.163890
1057.192116	0.162724
1057.357806	0.162421
1057.523477	0.161543
1057.689130	0.160779
1057.854764	0.161973
1058.020381	0.165088
1058.185979	0.167358
1058.351559	0.169964
1058.517120	0.171443
1058.682664	0.172347
1058.848189	0.173286
1059.013696	0.173922
1059.179185	0.175051
1059.344656	0.170565
1059.510108	0.168145
1059.675542	0.168689
1059.840958	0.168338
1060.006356	0.167114
1060.171735	0.166461
1060.337096	0.167627
1060.502439	0.168224
1060.667764	0.166176
1060.833071	0.168924
1060.998359	0.168971
1061.163629	0.170584
1061.328881	0.170787
1061.494115	0.171607
1061.659330	0.172221
1061.824527	0.169078
1061.989706	0.169539
1062.154867	0.168147
1062.320010	0.167310
1062.485134	0.170058
1062.650240	0.171324
1062.815328	0.170842
1062.980398	0.170307
1063.145449	0.170869
1063.310482	0.171275
1063.475497	0.169332
1063.640494	0.171246
1063.805473	0.170843
1063.970433	0.167184
1064.135375	0.163761
1064.300299	0.162853
1064.465204	0.162864
1064.630092	0.162676
1064.794961	0.161775
1064.959812	0.163794
1065.124645	0.165572
1065.289459	0.167748
1065.454256	0.169203
1065.619034	0.170615
1065.783793	0.172475
1065.948535	0.172497
1066.113258	0.172372
1066.277964	0.175164
1066.442651	0.174000
1066.607319	0.173725
1066.771970	0.171528
1066.936602	0.172490
1067.101216	0.172620
1067.265812	0.172398
1067.430389	0.172896
1067.594949	0.172913
1067.759490	0.171879
1067.924013	0.173240
1068.088518	0.174709
1068.253004	0.174778
1068.417472	0.172361
1068.581922	0.169982
1068.746354	0.170423
1068.910768	0.173305
1069.075163	0.173167
1069.239540	0.170700
1069.403899	0.169931
1069.568240	0.168800
1069.732562	0.170504
1069.896866	0.171318
1070.061152	0.173138
1070.225420	0.173230
1070.389670	0.175370
1070.553901	0.173448
1070.718114	0.176518
1070.882309	0.177011
1071.046486	0.180046
1071.210644	0.180548
1071.374784	0.180692
1071.538906	0.178828
1071.703010	0.179087
1071.867096	0.174662
1072.031163	0.175594
1072.195212	0.173904
1072.359243	0.174115
1072.523256	0.168774
1072.687250	0.166876
1072.851226	0.166675
1073.015184	0.167320
1073.179124	0.166449
1073.343045	0.165214
1073.506949	0.165873
1073.670834	0.167176
1073.834701	0.166245
1073.998549	0.170506
1074.162380	0.171221
1074.326192	0.172894
1074.489986	0.172495
1074.653761	0.173072
1074.817519	0.176213
1074.981258	0.177351
1075.144979	0.175780
1075.308682	0.175576
1075.472367	0.172609
1075.636033	0.172723
1075.799681	0.170986
1075.963311	0.173410
1076.126923	0.170092
1076.290516	0.167656
1076.454092	0.169862
1076.617649	0.170273
1076.781187	0.170652
1076.944708	0.169673
1077.108210	0.167839
1077.271695	0.166814
1077.435160	0.165036
1077.598608	0.168888
1077.762038	0.168111
1077.925449	0.166439
1078.088842	0.167478
1078.252217	0.168371
1078.415573	0.170296
1078.578912	0.171593
1078.742232	0.172300
1078.905534	0.177438
1079.068817	0.176414
1079.232083	0.179657
1079.395330	0.179293
1079.558559	0.180648
1079.721770	0.179098
1079.884962	0.177482
1080.048136	0.176832
1080.211293	0.178874
1080.374430	0.175078
1080.537550	0.173707
1080.700651	0.172686
1080.863735	0.171420
1081.026800	0.173562
1081.189846	0.175636
1081.352875	0.176355
1081.515885	0.178689
1081.678877	0.177305
1081.841851	0.177590
1082.004807	0.180478
1082.167744	0.177573
1082.330663	0.178611
1082.493564	0.172308
1082.656447	0.171650
1082.819312	0.173353
1082.982158	0.170531
1083.144986	0.169063
1083.307796	0.171683
1083.470587	0.170041
1083.633361	0.172100
1083.796116	0.169475
1083.958853	0.174968
1084.121571	0.173975
1084.284272	0.173610
1084.446954	0.176192
1084.609618	0.178439
1084.772264	0.177097
1084.934892	0.177066
1085.097501	0.179914
1085.260092	0.182474
1085.422665	0.181843
1085.585220	0.183357
1085.747756	0.179517
1085.910274	0.181007
1086.072774	0.184182
1086.235256	0.183943
1086.397720	0.183932
1086.560165	0.183195
1086.722592	0.180478
1086.885001	0.178495
1087.047392	0.175077
1087.209764	0.178513
1087.372119	0.179245
1087.534455	0.175936
1087.696772	0.176237
1087.859072	0.177196
1088.021353	0.175501
1088.183616	0.179589
1088.345861	0.182712
1088.508088	0.183926
1088.670296	0.186763
1088.832486	0.185590
1088.994658	0.187266
1089.156812	0.186117
1089.318948	0.186414
1089.481065	0.184376
1089.643164	0.186393
1089.805245	0.184355
1089.967308	0.186560
1090.129352	0.183368
1090.291378	0.183229
1090.453386	0.183618
1090.615376	0.181060
1090.777347	0.181363
1090.939301	0.184890
1091.101236	0.182201
1091.263153	0.182772
1091.425051	0.184126
1091.586932	0.186115
1091.748794	0.186265
1091.910638	0.184866
1092.072463	0.185406
1092.234271	0.183682
1092.396060	0.184112
1092.557831	0.181727
1092.719584	0.177811
1092.881319	0.173377
1093.043035	0.170589
1093.204733	0.167113
1093.366413	0.167078
1093.528075	0.173533
1093.689718	0.173380
1093.851343	0.171578
1094.012950	0.177552
1094.174539	0.176957
1094.336110	0.176359
1094.497662	0.178152
1094.659196	0.180674
1094.820712	0.180113
1094.982210	0.172793
1095.143689	0.172000
1095.305151	0.176474
1095.466594	0.173254
1095.628018	0.174222
1095.789425	0.173018
1095.950813	0.172146
1096.112183	0.171015
1096.273535	0.172653
1096.434869	0.176714
1096.596184	0.176500
1096.757482	0.172066
1096.918761	0.169207
1097.080021	0.174103
1097.241264	0.179309
1097.402488	0.178807
1097.563694	0.180945
1097.724882	0.175826
1097.886052	0.173718
1098.047203	0.178653
1098.208336	0.177081
1098.369451	0.180670
1098.530548	0.176470
1098.691627	0.173659
1098.852687	0.177236
1099.013729	0.173779
1099.174753	0.178564
1099.335758	0.178426
1099.496746	0.173840
1099.657715	0.175252
1099.818666	0.172505
1099.979599	0.175908
1100.140513	0.178673
1100.301409	0.177235
1100.462287	0.179031
1100.623147	0.171910
1100.783989	0.172834
1100.944812	0.173236
1101.105617	0.173481
1101.266404	0.175324
1101.427173	0.169088
1101.587923	0.169430
1101.748656	0.169940
1101.909370	0.172242
1102.070066	0.175291
1102.230743	0.174716
1102.391403	0.175109
1102.552044	0.173500
1102.712667	0.175111
1102.873271	0.181830
1103.033858	0.177083
1103.194426	0.171573
1103.354976	0.163487
1103.515508	0.162788
1103.676021	0.165256
1103.836517	0.167096
1103.996994	0.164414
1104.157453	0.159451
1104.317893	0.155847
1104.478316	0.154036
1104.638720	0.157555
1104.799106	0.164798
1104.959474	0.166165
1105.119823	0.166360
1105.280155	0.163176
1105.440468	0.169200
1105.600763	0.169119
1105.761039	0.166897
1105.921298	0.173869
1106.081538	0.169527
1106.241760	0.168440
1106.401964	0.171586
1106.562149	0.168141
1106.722316	0.171255
1106.882465	0.166777
1107.042596	0.166151
1107.202709	0.167770
1107.362803	0.164179
1107.522879	0.163672
1107.682937	0.163196
1107.842977	0.165233
1108.002999	0.165868
1108.163002	0.164055
1108.322987	0.164890
1108.482954	0.167648
1108.642902	0.174911
1108.802833	0.172632
1108.962745	0.179175
1109.122639	0.182265
1109.282515	0.180886
1109.442372	0.185984
1109.602211	0.186171
1109.762032	0.184352
1109.921835	0.182695
1110.081620	0.177914
1110.241386	0.180962
1110.401134	0.179700
1110.560864	0.170782
1110.720576	0.169329
1110.880269	0.164230
1111.039945	0.166626
1111.199602	0.163726
1111.359240	0.168444
1111.518861	0.166332
1111.678463	0.173884
1111.838047	0.167743
1111.997613	0.174076
1112.157161	0.173186
1112.316690	0.171073
1112.476202	0.168860
1112.635695	0.176196
1112.795169	0.171681
1112.954626	0.171395
1113.114064	0.169375
1113.273484	0.172599
1113.432886	0.170515
1113.592270	0.171425
1113.751635	0.173010
1113.910983	0.178262
1114.070312	0.178230
1114.229622	0.173034
1114.388915	0.174854
1114.548189	0.171895
1114.707445	0.173944
1114.866683	0.172861
1115.025903	0.173588
1115.185104	0.172253
1115.344287	0.169182
1115.503452	0.166539
1115.662599	0.169759
1115.821727	0.164295
1115.980838	0.157859
1116.139930	0.160891
1116.299004	0.161688
1116.458059	0.160312
1116.617097	0.161649
1116.776116	0.161395
1116.935117	0.164408
1117.094099	0.162655
1117.253064	0.171594
1117.412010	0.176264
1117.570938	0.172499
1117.729848	0.175800
1117.888740	0.175850
1118.047613	0.179997
1118.206468	0.172167
1118.365305	0.165838
1118.524124	0.167398
1118.682924	0.159751
1118.841707	0.161968
1119.000471	0.159643
1119.159216	0.162188
1119.317944	0.160612
1119.476653	0.156941
1119.635344	0.162766
1119.794017	0.163833
1119.952672	0.163267
1120.111308	0.165965
1120.269927	0.162606
1120.428527	0.169005
1120.587108	0.162429
1120.745672	0.167760
1120.904217	0.171076
1121.062744	0.171356
1121.221253	0.174715
1121.379744	0.179459
1121.538216	0.179023
1121.696671	0.181928
1121.855107	0.182600
1122.013524	0.181323
1122.171924	0.177173
1122.330305	0.167119
1122.488668	0.164007
1122.647013	0.164739
1122.805340	0.163445
1122.963648	0.162426
1123.121938	0.159690
1123.280210	0.154948
1123.438464	0.153703
1123.596700	0.152282
1123.754917	0.165062
1123.913116	0.164657
1124.071297	0.166822
1124.229459	0.168824
1124.387604	0.164870
1124.545730	0.166494
1124.703838	0.164178
1124.861928	0.172748
1125.019999	0.170374
1125.178052	0.162906
1125.336088	0.166710
1125.494104	0.160452
1125.652103	0.153950
1125.810083	0.160576
1125.968045	0.160464
1126.125989	0.164632
1126.283915	0.160924
1126.441823	0.164929
1126.599712	0.161739
1126.757583	0.160223
1126.915436	0.161652
1127.073270	0.163499
1127.231087	0.165026
1127.388885	0.166775
1127.546665	0.165606
1127.704426	0.162465
1127.862170	0.166939
1128.019895	0.174919
1128.177602	0.177203
1128.335291	0.173937
1128.492961	0.181426
1128.650614	0.173202
1128.808248	0.170988
1128.965864	0.172348
1129.123461	0.174278
1129.281041	0.170254
1129.438602	0.166103
1129.596145	0.169282
1129.753670	0.177669
1129.911176	0.165755
1130.068665	0.169851
1130.226135	0.172107
1130.383587	0.169602
1130.541020	0.176453
1130.698436	0.171391
1130.855833	0.162138
1131.013212	0.156933
1131.170573	0.152998
1131.327915	0.159630
1131.485239	0.165334
1131.642545	0.167228
1131.799833	0.171443
1131.957103	0.162675
1132.114354	0.165416
1132.271588	0.180299
1132.428803	0.174750
1132.585999	0.176897
1132.743178	0.176575
1132.900338	0.167547
1133.057480	0.158998
1133.214604	0.156157
1133.371710	0.158225
1133.528797	0.154395
1133.685866	0.147470
1133.842917	0.160173
1133.999950	0.160588
1134.156964	0.163112
1134.313960	0.168439
1134.470938	0.171211
1134.627898	0.174754
1134.784840	0.176123
1134.941763	0.175951
1135.098668	0.174416
1135.255555	0.168786
1135.412424	0.161176
1135.569274	0.157448
1135.726107	0.151605
1135.882921	0.150293
1136.039716	0.143284
1136.196494	0.141985
1136.353253	0.141744
1136.509995	0.142406
1136.666717	0.145243
1136.823422	0.147433
1136.980109	0.146359
1137.136777	0.148173
1137.293427	0.141771
1137.450059	0.140750
1137.606672	0.144891
1137.763267	0.147727
1137.919844	0.152270
1138.076403	0.148350
1138.232944	0.153881
1138.389466	0.156288
1138.545971	0.157551
1138.702457	0.167243
1138.858924	0.171047
1139.015374	0.169239
1139.171805	0.168585
1139.328218	0.165763
1139.484613	0.159014
1139.640990	0.152157
1139.797348	0.146745
1139.953688	0.145910
1140.110010	0.143384
1140.266314	0.141266
1140.422600	0.139701
1140.578867	0.144259
1140.735116	0.141087
1140.891347	0.143261
1141.047559	0.142510
1141.203754	0.145618
1141.359930	0.144350
1141.516088	0.146139
1141.672228	0.141548
1141.828349	0.135347
1141.984452	0.128678
1142.140537	0.127922
1142.296604	0.126556
1142.452653	0.127108
1142.608683	0.129199
1142.764695	0.132542
1142.920689	0.134177
1143.076665	0.145327
1143.232622	0.152105
1143.388562	0.151402
1143.544483	0.155165
1143.700385	0.158727
1143.856270	0.155096
1144.012136	0.146993
1144.167985	0.150131
1144.323814	0.149481
1144.479626	0.146449
1144.635420	0.141812
1144.791195	0.146455
1144.946952	0.148587
1145.102691	0.150015
1145.258411	0.160033
1145.414113	0.166745
1145.569798	0.161516
1145.725463	0.158588
1145.881111	0.154289
1146.036741	0.153665
1146.192352	0.143058
1146.347945	0.142908
1146.503519	0.141812
1146.659076	0.135892
1146.814614	0.134599
1146.970134	0.141115
1147.125636	0.139345
1147.281120	0.142904
1147.436585	0.142123
1147.592032	0.159150
1147.747461	0.149848
1147.902872	0.151570
1148.058265	0.149983
1148.213639	0.151208
1148.368995	0.145262
1148.524333	0.150130
1148.679653	0.143463
1148.834954	0.143343
1148.990237	0.140454
1149.145502	0.152889
1149.300749	0.151171
1149.455977	0.146485
1149.611188	0.150800
1149.766380	0.154100
1149.921553	0.143917
1150.076709	0.152777
1150.231846	0.163067
1150.386966	0.159880
1150.542066	0.150433
1150.697149	0.147121
1150.852214	0.159036
1151.007260	0.149536
1151.162288	0.148915
1151.317298	0.149372
1151.472289	0.147386
1151.627263	0.135146
1151.782218	0.138997
1151.937155	0.146396
1152.092073	0.152636
1152.246974	0.148755
1152.401856	0.148717
1152.556720	0.144475
1152.711566	0.157092
1152.866393	0.151680
1153.021203	0.164575
1153.175994	0.159119
1153.330767	0.154272
1153.485521	0.147114
1153.640258	0.148857
1153.794976	0.155749
1153.949676	0.144459
1154.104358	0.136989
1154.259021	0.141193
1154.413667	0.133659
1154.568294	0.134796
1154.722903	0.137789
1154.877493	0.142667
1155.032066	0.135292
1155.186620	0.134072
1155.341156	0.141191
1155.495674	0.146358
1155.650173	0.136992
1155.804654	0.131023
1155.959118	0.118033
1156.113562	0.113563
1156.267989	0.110905
1156.422397	0.117802
1156.576788	0.110224
1156.731160	0.120469
1156.885513	0.108342
1157.039849	0.120170
1157.194166	0.134947
1157.348465	0.148546
1157.502746	0.147297
1157.657009	0.147196
1157.811253	0.147135
1157.965479	0.158076
1158.119687	0.148096
1158.273877	0.151860
1158.428048	0.144423
1158.582201	0.137697
1158.736337	0.129660
1158.890453	0.144209
1159.044552	0.145003
1159.198632	0.138317
1159.352694	0.129745
1159.506738	0.124686
1159.660764	0.124709
1159.814771	0.128966
1159.968761	0.125501
1160.122732	0.131254
1160.276685	0.120577
1160.430619	0.112343
1160.584535	0.114537
1160.738434	0.118983
1160.892313	0.130670
1161.046175	0.141548
1161.200019	0.139296
1161.353844	0.134588
1161.507651	0.130249
1161.661440	0.134552
1161.815210	0.140561
1161.968962	0.141818
1162.122697	0.140875
1162.276412	0.142440
1162.430110	0.137516
1162.583789	0.127483
1162.737451	0.126372
1162.891094	0.119590
1163.044718	0.115586
1163.198325	0.121259
1163.351913	0.120547
1163.505483	0.120983
1163.659035	0.108262
1163.812569	0.114245
1163.966084	0.122680
1164.119581	0.133397
1164.273060	0.143674
1164.426521	0.142710
1164.579964	0.141593
1164.733388	0.136981
1164.886794	0.131948
1165.040182	0.122386
1165.193551	0.116803
1165.346903	0.116830
1165.500236	0.114455
1165.653551	0.122425
1165.806848	0.116148
1165.960126	0.109821
1166.113386	0.117603
1166.266628	0.116046
1166.419852	0.125707
1166.573058	0.119503
1166.726245	0.124985
1166.879414	0.117259
1167.032565	0.094396
1167.185698	0.095782
1167.338812	0.096033
1167.491909	0.078714
1167.644987	0.082506
1167.798046	0.082495
1167.951088	0.079395
1168.104111	0.067586
1168.257117	0.068342
1168.410103	0.075011
1168.563072	0.082706
1168.716023	0.070990
1168.868955	0.075272
1169.021869	0.070566
1169.174765	0.072744
1169.327642	0.071559
1169.480501	0.067632
1169.633343	0.076376
1169.786165	0.087000
1169.938970	0.087139
1170.091757	0.104548
1170.244525	0.105968
1170.397275	0.119499
1170.550007	0.120521
1170.702720	0.124066
1170.855415	0.125006
1171.008092	0.107551
1171.160751	0.095345
1171.313392	0.079869
1171.466014	0.035639
1171.618619	0.039715
1171.771205	0.039715
1171.923772	0.039715
