sample name	sample
index	293
start time	 02-25-2021  12:55:16 PM


Wavelength (nm)	Absorbance
494.344910	0.401948
494.563924	0.401948
494.782919	0.401948
495.001897	-0.207265
495.220856	-0.164719
495.439797	-0.214305
495.658719	-0.240149
495.877624	-0.183710
496.096510	-0.099468
496.315378	-0.169461
496.534227	-0.191468
496.753059	-0.151888
496.971872	-0.090602
497.190667	0.051365
497.409444	0.064283
497.628203	0.067296
497.846943	0.069432
498.065665	0.068881
498.284369	0.068690
498.503055	0.070672
498.721723	0.069992
498.940372	0.069518
499.159003	0.069305
499.377616	0.070291
499.596210	0.070864
499.814787	0.070652
500.033345	0.071599
500.251885	0.072406
500.470406	0.071937
500.688910	0.072125
500.907395	0.073505
501.125862	0.074171
501.344311	0.072728
501.562742	0.072582
501.781154	0.072836
501.999548	0.071930
502.217924	0.071456
502.436282	0.071583
502.654621	0.071657
502.872942	0.072396
503.091245	0.072854
503.309530	0.073785
503.527797	0.073578
503.746045	0.073629
503.964275	0.074128
504.182487	0.074445
504.400681	0.074503
504.618856	0.075041
504.837013	0.073669
505.055152	0.074218
505.273273	0.074351
505.491376	0.074591
505.709460	0.075060
505.927526	0.074418
506.145574	0.074800
506.363604	0.074958
506.581615	0.075418
506.799608	0.076503
507.017583	0.076147
507.235540	0.076794
507.453478	0.076231
507.671399	0.074527
507.889301	0.075468
508.107185	0.075196
508.325050	0.075439
508.542898	0.074813
508.760727	0.074577
508.978538	0.075024
509.196330	0.074972
509.414105	0.076036
509.631861	0.077003
509.849599	0.077250
510.067319	0.077331
510.285021	0.076813
510.502704	0.077304
510.720369	0.076898
510.938016	0.076480
511.155645	0.076350
511.373255	0.075993
511.590848	0.075721
511.808422	0.075689
512.025977	0.075457
512.243515	0.075478
512.461034	0.074782
512.678536	0.074279
512.896018	0.074824
513.113483	0.074638
513.330930	0.074586
513.548358	0.074943
513.765768	0.074448
513.983160	0.074308
514.200533	0.074498
514.417889	0.074788
514.635226	0.075395
514.852545	0.074864
515.069845	0.075192
515.287128	0.075409
515.504392	0.075840
515.721638	0.076187
515.938866	0.076635
516.156075	0.077076
516.373267	0.076783
516.590440	0.077975
516.807594	0.078071
517.024731	0.077502
517.241850	0.077477
517.458950	0.077329
517.676032	0.077340
517.893095	0.077584
518.110141	0.077455
518.327168	0.078582
518.544177	0.077640
518.761168	0.077937
518.978141	0.077972
519.195095	0.078048
519.412031	0.077945
519.628949	0.078375
519.845849	0.079142
520.062731	0.079441
520.279594	0.079779
520.496439	0.080360
520.713266	0.079676
520.930074	0.080346
521.146865	0.079876
521.363637	0.079724
521.580391	0.079744
521.797127	0.079200
522.013844	0.078234
522.230543	0.077847
522.447224	0.077533
522.663887	0.078389
522.880532	0.078094
523.097158	0.078834
523.313766	0.079012
523.530356	0.079184
523.746928	0.078947
523.963481	0.080211
524.180017	0.080469
524.396534	0.080557
524.613032	0.080648
524.829513	0.080657
525.045975	0.080706
525.262420	0.081097
525.478845	0.080725
525.695253	0.081142
525.911643	0.080943
526.128014	0.080827
526.344367	0.080930
526.560702	0.080955
526.777018	0.081191
526.993316	0.081306
527.209597	0.081466
527.425858	0.082235
527.642102	0.082099
527.858328	0.082489
528.074535	0.082485
528.290724	0.082003
528.506894	0.082446
528.723047	0.082663
528.939181	0.082434
529.155297	0.082425
529.371395	0.082061
529.587475	0.082446
529.803536	0.082010
530.019579	0.082532
530.235604	0.083713
530.451611	0.083829
530.667600	0.083972
530.883570	0.084630
531.099522	0.085017
531.315456	0.085276
531.531372	0.085257
531.747269	0.086042
531.963148	0.086060
532.179009	0.085980
532.394852	0.085635
532.610676	0.085179
532.826482	0.085287
533.042271	0.085159
533.258040	0.085271
533.473792	0.085501
533.689525	0.085442
533.905240	0.085311
534.120937	0.085284
534.336616	0.085627
534.552277	0.086735
534.767919	0.086508
534.983543	0.086202
535.199149	0.085993
535.414736	0.086441
535.630306	0.086639
535.845857	0.087026
536.061390	0.087185
536.276904	0.087128
536.492401	0.087069
536.707879	0.087475
536.923339	0.087929
537.138781	0.087962
537.354204	0.087802
537.569610	0.087891
537.784997	0.087491
538.000366	0.087595
538.215716	0.087649
538.431049	0.087858
538.646363	0.087628
538.861659	0.087868
539.076937	0.088444
539.292196	0.088319
539.507438	0.088301
539.722661	0.088736
539.937866	0.089059
540.153052	0.089467
540.368221	0.089431
540.583371	0.089643
540.798503	0.089715
541.013617	0.089214
541.228712	0.089587
541.443789	0.089552
541.658848	0.089532
541.873889	0.089326
542.088912	0.089096
542.303916	0.089196
542.518902	0.089253
542.733870	0.089378
542.948820	0.089445
543.163752	0.089116
543.378665	0.088988
543.593560	0.089410
543.808437	0.089935
544.023295	0.090096
544.238136	0.090207
544.452958	0.090600
544.667762	0.090686
544.882548	0.091331
545.097315	0.091807
545.312064	0.092173
545.526795	0.092263
545.741508	0.091908
545.956203	0.092101
546.170879	0.092141
546.385537	0.092277
546.600177	0.092420
546.814799	0.092495
547.029402	0.092575
547.243988	0.092999
547.458555	0.092856
547.673103	0.093176
547.887634	0.093298
548.102146	0.093629
548.316640	0.093963
548.531116	0.094049
548.745574	0.093888
548.960013	0.094277
549.174435	0.093844
549.388838	0.094186
549.603222	0.094311
549.817589	0.094019
550.031937	0.093591
550.246267	0.093487
550.460579	0.093553
550.674873	0.093748
550.889148	0.093767
551.103405	0.094180
551.317644	0.094008
551.531865	0.094078
551.746068	0.094729
551.960252	0.094930
552.174418	0.094754
552.388566	0.094712
552.602696	0.095063
552.816807	0.095013
553.030900	0.095117
553.244975	0.095639
553.459032	0.095698
553.673070	0.095631
553.887091	0.096057
554.101093	0.096310
554.315077	0.096288
554.529042	0.096039
554.742990	0.096282
554.956919	0.096515
555.170830	0.096471
555.384722	0.096749
555.598597	0.097200
555.812453	0.097238
556.026291	0.097212
556.240111	0.097150
556.453913	0.097331
556.667696	0.097041
556.881461	0.097092
557.095208	0.097038
557.308937	0.096201
557.522647	0.095821
557.736339	0.095795
557.950013	0.095947
558.163669	0.096148
558.377307	0.096393
558.590926	0.096565
558.804527	0.096358
559.018110	0.096280
559.231675	0.096990
559.445221	0.097019
559.658749	0.096963
559.872259	0.097020
560.085751	0.097651
560.299225	0.097818
560.512680	0.097992
560.726117	0.098240
560.939536	0.098359
561.152937	0.098442
561.366319	0.098460
561.579683	0.098721
561.793029	0.098912
562.006357	0.098518
562.219667	0.098817
562.432958	0.099023
562.646231	0.099037
562.859486	0.099375
563.072723	0.099225
563.285941	0.099212
563.499141	0.099445
563.712323	0.099349
563.925487	0.099330
564.138632	0.099155
564.351760	0.099312
564.564869	0.099553
564.777960	0.099244
564.991032	0.099491
565.204087	0.099804
565.417123	0.099794
565.630141	0.100090
565.843140	0.100465
566.056122	0.100509
566.269085	0.100354
566.482030	0.100463
566.694957	0.100561
566.907866	0.100838
567.120756	0.101471
567.333628	0.101549
567.546482	0.101502
567.759318	0.101413
567.972135	0.101287
568.184935	0.101648
568.397716	0.101798
568.610478	0.102214
568.823223	0.102183
569.035949	0.101797
569.248657	0.101530
569.461347	0.101496
569.674019	0.101395
569.886672	0.101633
570.099308	0.101402
570.311925	0.101100
570.524523	0.100986
570.737104	0.101442
570.949666	0.101769
571.162210	0.102193
571.374736	0.102195
571.587244	0.102645
571.799733	0.103102
572.012205	0.103420
572.224658	0.103950
572.437092	0.103977
572.649509	0.103640
572.861907	0.103453
573.074287	0.103471
573.286649	0.103497
573.498993	0.103519
573.711318	0.102957
573.923625	0.102750
574.135914	0.102510
574.348185	0.102568
574.560438	0.102680
574.772672	0.102483
574.984888	0.102495
575.197086	0.102940
575.409266	0.103113
575.621427	0.103515
575.833570	0.103985
576.045695	0.103739
576.257802	0.104022
576.469890	0.104345
576.681961	0.104512
576.894013	0.104396
577.106046	0.104275
577.318062	0.104214
577.530059	0.104116
577.742039	0.104280
577.954000	0.104746
578.165942	0.104811
578.377867	0.104832
578.589773	0.105107
578.801661	0.105083
579.013531	0.105262
579.225382	0.105141
579.437216	0.105309
579.649031	0.104958
579.860828	0.104787
580.072606	0.104897
580.284367	0.104654
580.496109	0.104875
580.707833	0.105393
580.919539	0.105764
581.131227	0.106048
581.342896	0.105896
581.554547	0.105876
581.766180	0.105994
581.977795	0.105873
582.189391	0.106107
582.400969	0.105982
582.612529	0.105966
582.824071	0.105863
583.035595	0.106281
583.247100	0.106671
583.458587	0.106815
583.670056	0.107353
583.881506	0.107535
584.092939	0.107704
584.304353	0.107918
584.515749	0.107955
584.727127	0.107996
584.938486	0.107984
585.149828	0.108167
585.361151	0.108498
585.572456	0.108338
585.783742	0.108287
585.995011	0.108449
586.206261	0.108368
586.417493	0.108401
586.628706	0.108483
586.839902	0.108545
587.051079	0.108349
587.262238	0.108464
587.473379	0.108620
587.684502	0.108647
587.895606	0.108477
588.106692	0.108393
588.317760	0.108516
588.528810	0.108253
588.739841	0.107988
588.950855	0.107902
589.161850	0.107690
589.372827	0.107652
589.583785	0.107968
589.794726	0.108169
590.005648	0.108467
590.216552	0.108271
590.427437	0.108725
590.638305	0.108875
590.849154	0.109354
591.059985	0.109563
591.270798	0.109695
591.481592	0.109433
591.692369	0.109780
591.903127	0.109978
592.113867	0.110261
592.324588	0.110083
592.535292	0.110293
592.745977	0.110346
592.956644	0.110593
593.167293	0.110765
593.377923	0.111042
593.588536	0.110874
593.799130	0.110704
594.009706	0.110722
594.220263	0.110844
594.430803	0.110708
594.641324	0.110505
594.851827	0.110480
595.062312	0.110559
595.272778	0.110681
595.483227	0.110791
595.693657	0.111300
595.904069	0.111755
596.114462	0.111987
596.324838	0.112321
596.535195	0.112469
596.745534	0.112541
596.955855	0.112113
597.166157	0.112277
597.376441	0.112432
597.586707	0.112208
597.796955	0.112180
598.007185	0.112291
598.217396	0.112221
598.427589	0.112404
598.637764	0.112338
598.847921	0.112859
599.058060	0.113057
599.268180	0.113098
599.478282	0.113178
599.688366	0.113236
599.898431	0.113229
600.108479	0.113530
600.318508	0.113663
600.528519	0.113782
600.738511	0.113731
600.948486	0.113642
601.158442	0.113602
601.368380	0.113826
601.578300	0.113927
601.788202	0.113949
601.998085	0.114041
602.207950	0.114114
602.417797	0.114111
602.627626	0.114056
602.837436	0.114236
603.047228	0.114071
603.257002	0.113893
603.466758	0.113917
603.676496	0.114078
603.886215	0.114107
604.095916	0.114131
604.305599	0.114350
604.515264	0.114687
604.724910	0.114546
604.934538	0.115107
605.144148	0.115447
605.353740	0.115362
605.563314	0.115228
605.772869	0.115292
605.982406	0.115116
606.191925	0.115093
606.401425	0.115128
606.610908	0.115406
606.820372	0.115301
607.029818	0.115255
607.239246	0.115446
607.448655	0.115607
607.658047	0.115584
607.867420	0.115894
608.076775	0.115904
608.286111	0.115858
608.495430	0.115716
608.704730	0.115752
608.914012	0.115776
609.123275	0.115848
609.332521	0.115889
609.541748	0.115864
609.750957	0.115892
609.960148	0.116144
610.169321	0.116421
610.378475	0.116709
610.587611	0.116666
610.796729	0.116742
611.005829	0.116881
611.214910	0.117004
611.423974	0.116901
611.633019	0.116882
611.842045	0.116670
612.051054	0.116564
612.260044	0.116483
612.469017	0.116601
612.677970	0.116525
612.886906	0.116451
613.095824	0.116568
613.304723	0.116894
613.513604	0.116988
613.722467	0.117353
613.931311	0.117572
614.140138	0.117560
614.348946	0.117483
614.557736	0.117845
614.766507	0.117954
614.975261	0.117893
615.183996	0.118030
615.392713	0.118031
615.601412	0.118123
615.810092	0.117968
616.018754	0.117998
616.227399	0.118282
616.436024	0.118192
616.644632	0.118417
616.853222	0.118567
617.061793	0.118579
617.270346	0.118706
617.478880	0.118850
617.687397	0.119122
617.895895	0.119446
618.104375	0.119606
618.312837	0.119547
618.521281	0.119480
618.729706	0.119453
618.938113	0.119529
619.146502	0.119514
619.354873	0.119370
619.563226	0.119346
619.771560	0.119216
619.979876	0.119221
620.188174	0.119266
620.396453	0.119160
620.604715	0.119260
620.812958	0.119103
621.021183	0.119320
621.229390	0.119416
621.437578	0.119290
621.645748	0.119486
621.853900	0.119325
622.062034	0.119527
622.270150	0.119633
622.478247	0.119912
622.686326	0.120127
622.894387	0.120195
623.102430	0.120232
623.310454	0.120648
623.518461	0.120766
623.726449	0.121092
623.934418	0.121334
624.142370	0.121631
624.350303	0.121808
624.558218	0.122224
624.766115	0.122479
624.973994	0.122687
625.181855	0.122617
625.389697	0.122636
625.597521	0.122666
625.805327	0.122721
626.013114	0.122806
626.220883	0.122797
626.428634	0.122710
626.636367	0.122824
626.844082	0.122778
627.051778	0.122845
627.259457	0.122959
627.467117	0.123123
627.674758	0.123297
627.882382	0.123146
628.089987	0.122996
628.297574	0.122903
628.505143	0.122682
628.712694	0.122761
628.920226	0.122827
629.127740	0.122550
629.335236	0.122503
629.542714	0.122394
629.750174	0.122524
629.957615	0.122622
630.165038	0.122669
630.372443	0.122581
630.579829	0.122548
630.787198	0.122786
630.994548	0.122980
631.201880	0.123005
631.409194	0.123062
631.616489	0.123183
631.823766	0.123108
632.031025	0.123099
632.238266	0.123463
632.445489	0.123502
632.652693	0.123558
632.859879	0.124050
633.067047	0.123905
633.274197	0.124214
633.481329	0.124248
633.688442	0.124558
633.895537	0.124877
634.102614	0.124732
634.309672	0.125057
634.516713	0.125039
634.723735	0.124697
634.930739	0.124981
635.137724	0.124784
635.344692	0.124874
635.551641	0.124846
635.758572	0.124637
635.965485	0.125035
636.172379	0.125250
636.379256	0.124932
636.586114	0.125185
636.792954	0.125198
636.999775	0.125162
637.206579	0.125398
637.413364	0.125435
637.620131	0.125521
637.826880	0.125377
638.033610	0.125005
638.240323	0.125472
638.447017	0.125671
638.653692	0.125879
638.860350	0.126043
639.066990	0.125851
639.273611	0.125938
639.480214	0.126195
639.686798	0.126453
639.893365	0.126856
640.099913	0.126790
640.306443	0.126840
640.512955	0.126681
640.719449	0.126850
640.925924	0.126975
641.132381	0.127024
641.338820	0.127130
641.545241	0.127097
641.751644	0.127155
641.958028	0.127568
642.164394	0.127842
642.370742	0.128139
642.577071	0.128275
642.783383	0.128530
642.989676	0.128483
643.195951	0.128465
643.402207	0.128598
643.608446	0.128490
643.814666	0.128299
644.020868	0.128182
644.227052	0.128292
644.433218	0.128140
644.639365	0.128306
644.845494	0.128895
645.051605	0.128926
645.257698	0.128852
645.463772	0.128954
645.669828	0.128870
645.875866	0.128563
646.081886	0.128429
646.287888	0.128469
646.493871	0.128318
646.699836	0.128178
646.905783	0.128448
647.111712	0.128541
647.317622	0.128664
647.523514	0.129092
647.729388	0.129474
647.935244	0.129570
648.141082	0.129852
648.346901	0.129874
648.552702	0.129891
648.758485	0.129972
648.964250	0.130080
649.169996	0.129965
649.375724	0.130066
649.581434	0.130142
649.787126	0.130266
649.992800	0.130359
650.198455	0.130615
650.404092	0.130751
650.609711	0.130794
650.815311	0.130783
651.020894	0.131175
651.226458	0.130941
651.432004	0.131054
651.637532	0.131285
651.843041	0.131154
652.048532	0.131155
652.254006	0.131081
652.459460	0.131205
652.664897	0.131319
652.870315	0.131268
653.075716	0.131624
653.281097	0.131560
653.486461	0.131686
653.691807	0.131960
653.897134	0.132120
654.102443	0.132316
654.307734	0.132397
654.513006	0.132451
654.718261	0.132808
654.923497	0.132785
655.128715	0.132971
655.333915	0.133157
655.539096	0.133076
655.744259	0.133180
655.949404	0.133226
656.154531	0.133348
656.359640	0.133464
656.564730	0.133225
656.769802	0.133215
656.974856	0.133548
657.179892	0.133512
657.384909	0.133761
657.589908	0.133776
657.794889	0.134045
657.999852	0.134204
658.204797	0.134419
658.409723	0.134787
658.614631	0.134901
658.819521	0.134817
659.024393	0.134960
659.229246	0.134881
659.434081	0.134945
659.638898	0.135084
659.843697	0.135063
660.048478	0.135326
660.253240	0.135333
660.457984	0.135514
660.662710	0.135768
660.867417	0.135739
661.072107	0.135992
661.276778	0.136139
661.481431	0.136070
661.686066	0.136168
661.890682	0.136209
662.095281	0.136286
662.299861	0.136286
662.504422	0.136089
662.708966	0.136103
662.913491	0.136386
663.117999	0.136503
663.322488	0.136670
663.526958	0.136893
663.731411	0.136877
663.935845	0.136936
664.140261	0.137240
664.344659	0.137541
664.549038	0.137856
664.753400	0.137838
664.957743	0.137999
665.162068	0.138002
665.366375	0.137891
665.570663	0.138042
665.774933	0.138150
665.979185	0.137975
666.183419	0.137786
666.387635	0.137752
666.591832	0.137641
666.796011	0.137635
667.000172	0.137868
667.204315	0.138022
667.408439	0.137981
667.612545	0.137877
667.816634	0.138130
668.020703	0.138193
668.224755	0.138297
668.428788	0.138446
668.632803	0.138590
668.836800	0.138533
669.040779	0.138503
669.244739	0.138549
669.448681	0.138848
669.652605	0.138905
669.856511	0.139117
670.060399	0.139207
670.264268	0.139325
670.468119	0.139228
670.671952	0.139354
670.875767	0.139509
671.079563	0.139632
671.283341	0.139583
671.487101	0.139712
671.690843	0.139738
671.894567	0.139713
672.098272	0.139777
672.301959	0.139818
672.505628	0.139735
672.709278	0.139873
672.912911	0.140175
673.116525	0.140502
673.320121	0.140556
673.523699	0.140738
673.727258	0.140986
673.930799	0.141274
674.134322	0.141877
674.337827	0.142390
674.541314	0.142550
674.744782	0.142723
674.948232	0.142786
675.151664	0.143009
675.355078	0.143250
675.558474	0.143555
675.761851	0.143585
675.965210	0.143357
676.168551	0.143226
676.371873	0.143319
676.575178	0.143350
676.778464	0.143367
676.981732	0.143194
677.184981	0.143292
677.388213	0.143351
677.591426	0.143501
677.794621	0.143735
677.997798	0.143845
678.200956	0.144026
678.404097	0.144117
678.607219	0.144450
678.810323	0.144671
679.013408	0.144647
679.216476	0.144681
679.419525	0.144723
679.622556	0.144687
679.825569	0.144930
680.028563	0.144782
680.231540	0.144963
680.434498	0.145029
680.637438	0.145087
680.840359	0.145168
681.043263	0.145063
681.246148	0.144978
681.449015	0.145113
681.651864	0.144997
681.854694	0.145239
682.057506	0.145273
682.260301	0.145389
682.463076	0.145609
682.665834	0.145680
682.868573	0.146019
683.071295	0.146138
683.273998	0.146191
683.476682	0.146506
683.679349	0.146344
683.881997	0.146541
684.084627	0.146449
684.287239	0.146359
684.489833	0.146339
684.692408	0.146134
684.894965	0.146238
685.097504	0.146344
685.300025	0.146152
685.502527	0.146416
685.705012	0.146146
685.907478	0.146083
686.109925	0.146207
686.312355	0.146328
686.514766	0.146427
686.717159	0.146549
686.919534	0.146595
687.121891	0.146799
687.324230	0.146855
687.526550	0.147151
687.728852	0.147165
687.931136	0.147302
688.133401	0.147525
688.335649	0.147872
688.537878	0.147884
688.740089	0.147952
688.942281	0.147966
689.144456	0.148091
689.346612	0.148080
689.548750	0.148263
689.750870	0.148296
689.952971	0.148029
690.155055	0.147815
690.357120	0.147863
690.559167	0.147902
690.761195	0.147997
690.963206	0.148013
691.165198	0.147875
691.367172	0.147908
691.569128	0.148025
691.771065	0.148542
691.972984	0.148840
692.174885	0.149160
692.376768	0.149237
692.578633	0.149122
692.780479	0.149214
692.982308	0.149311
693.184118	0.149574
693.385909	0.149497
693.587683	0.149305
693.789438	0.149218
693.991175	0.149070
694.192894	0.149103
694.394595	0.149223
694.596277	0.148946
694.797941	0.148971
694.999587	0.148839
695.201215	0.148842
695.402824	0.148838
695.604416	0.148963
695.805989	0.149042
696.007543	0.149014
696.209080	0.149086
696.410598	0.149290
696.612099	0.149588
696.813580	0.149645
697.015044	0.149774
697.216490	0.149863
697.417917	0.149752
697.619326	0.149639
697.820717	0.149740
698.022089	0.149783
698.223444	0.149808
698.424780	0.149834
698.626098	0.149829
698.827397	0.150006
699.028679	0.150286
699.229942	0.150295
699.431187	0.150467
699.632414	0.150612
699.833622	0.150586
700.034813	0.150833
700.235985	0.150776
700.437139	0.151003
700.638274	0.151128
700.839392	0.151312
701.040491	0.151560
701.241572	0.151876
701.442635	0.152091
701.643679	0.152536
701.844706	0.152805
702.045714	0.152984
702.246704	0.153177
702.447675	0.153362
702.648629	0.153280
702.849564	0.153364
703.050481	0.153471
703.251380	0.153526
703.452260	0.153575
703.653122	0.153679
703.853966	0.153622
704.054792	0.153600
704.255600	0.153438
704.456389	0.153263
704.657160	0.153454
704.857913	0.153209
705.058648	0.153045
705.259365	0.152792
705.460063	0.152405
705.660743	0.152352
705.861405	0.152196
706.062048	0.152290
706.262674	0.152406
706.463281	0.152175
706.663870	0.152138
706.864441	0.152221
707.064993	0.152254
707.265527	0.152312
707.466043	0.152489
707.666541	0.152656
707.867021	0.152832
708.067482	0.152903
708.267925	0.153145
708.468350	0.153608
708.668757	0.153785
708.869145	0.154035
709.069516	0.154340
709.269868	0.154420
709.470201	0.154447
709.670517	0.154136
709.870814	0.154228
710.071093	0.153979
710.271354	0.153482
710.471597	0.153388
710.671821	0.153272
710.872028	0.153193
711.072216	0.153244
711.272385	0.153200
711.472537	0.153397
711.672670	0.153329
711.872785	0.153521
712.072882	0.153737
712.272961	0.153424
712.473021	0.153401
712.673063	0.153356
712.873087	0.153299
713.073093	0.153216
713.273081	0.152992
713.473050	0.152944
713.673001	0.152780
713.872934	0.152943
714.072849	0.153189
714.272745	0.153219
714.472623	0.153204
714.672483	0.153032
714.872325	0.153152
715.072148	0.153195
715.271954	0.153358
715.471741	0.153364
715.671509	0.152989
715.871260	0.152842
716.070992	0.152771
716.270707	0.152858
716.470403	0.152933
716.670080	0.152933
716.869740	0.152994
717.069381	0.152769
717.269004	0.152774
717.468609	0.152995
717.668195	0.153257
717.867764	0.153541
718.067314	0.153583
718.266846	0.153683
718.466360	0.153683
718.665855	0.153744
718.865332	0.153809
719.064791	0.153902
719.264232	0.153775
719.463655	0.153701
719.663059	0.153379
719.862445	0.153295
720.061813	0.152910
720.261163	0.152874
720.460494	0.152734
720.659807	0.152677
720.859102	0.152482
721.058379	0.152267
721.257638	0.152064
721.456878	0.152047
721.656100	0.151775
721.855304	0.152086
722.054490	0.151984
722.253657	0.151996
722.452806	0.151975
722.651937	0.151891
722.851050	0.152035
723.050145	0.152033
723.249221	0.152054
723.448279	0.152337
723.647319	0.152491
723.846340	0.152683
724.045344	0.152668
724.244329	0.152588
724.443296	0.152662
724.642245	0.152988
724.841175	0.153106
725.040088	0.153370
725.238982	0.153432
725.437857	0.153211
725.636715	0.152880
725.835554	0.152974
726.034376	0.153034
726.233179	0.153092
726.431963	0.153135
726.630730	0.153053
726.829478	0.152803
727.028208	0.152616
727.226920	0.152796
727.425614	0.153032
727.624289	0.152969
727.822946	0.152994
728.021585	0.153033
728.220206	0.152677
728.418808	0.152684
728.617392	0.152777
728.815958	0.152716
729.014506	0.152446
729.213036	0.152148
729.411547	0.152000
729.610040	0.152024
729.808515	0.151869
730.006972	0.151797
730.205410	0.151753
730.403831	0.151464
730.602233	0.151368
730.800616	0.151299
730.998982	0.151436
731.197329	0.151331
731.395658	0.150975
731.593969	0.151040
731.792262	0.150863
731.990536	0.150813
732.188793	0.150875
732.387031	0.150665
732.585250	0.150618
732.783452	0.150348
732.981635	0.150361
733.179800	0.150441
733.377947	0.150373
733.576076	0.150446
733.774186	0.150317
733.972278	0.150091
734.170352	0.150265
734.368408	0.150113
734.566446	0.150194
734.764465	0.150223
734.962466	0.150076
735.160449	0.149719
735.358413	0.149670
735.556360	0.149595
735.754288	0.149547
735.952198	0.149267
736.150090	0.149298
736.347963	0.149038
736.545818	0.148657
736.743655	0.148609
736.941474	0.148700
737.139275	0.148778
737.337057	0.148635
737.534821	0.148592
737.732567	0.148746
737.930295	0.148676
738.128005	0.148807
738.325696	0.148913
738.523369	0.149020
738.721024	0.149038
738.918660	0.148862
739.116279	0.148908
739.313879	0.148946
739.511461	0.148852
739.709024	0.148944
739.906570	0.148854
740.104097	0.148957
740.301606	0.148912
740.499097	0.148724
740.696569	0.148645
740.894024	0.148595
741.091460	0.148217
741.288878	0.147980
741.486277	0.147582
741.683659	0.147443
741.881022	0.147190
742.078367	0.147034
742.275694	0.147014
742.473002	0.146847
742.670293	0.146722
742.867565	0.146851
743.064819	0.146761
743.262054	0.146716
743.459272	0.146517
743.656471	0.146270
743.853652	0.146367
744.050815	0.146290
744.247959	0.146307
744.445085	0.146274
744.642194	0.146099
744.839283	0.145934
745.036355	0.145977
745.233408	0.145949
745.430444	0.145809
745.627461	0.145675
745.824459	0.145775
746.021440	0.145588
746.218402	0.145551
746.415346	0.145744
746.612272	0.145949
746.809180	0.145899
747.006069	0.146069
747.202940	0.146520
747.399793	0.146519
747.596628	0.146324
747.793444	0.146531
747.990243	0.146591
748.187023	0.146360
748.383784	0.146302
748.580528	0.146356
748.777253	0.146277
748.973960	0.146142
749.170649	0.145846
749.367320	0.145692
749.563973	0.145337
749.760607	0.144991
749.957223	0.144931
750.153821	0.144707
750.350400	0.144585
750.546962	0.144363
750.743505	0.144182
750.940030	0.144386
751.136536	0.144612
751.333025	0.144745
751.529495	0.144798
751.725947	0.144844
751.922381	0.144978
752.118796	0.144886
752.315194	0.144989
752.511573	0.144983
752.707934	0.144739
752.904276	0.144531
753.100601	0.144404
753.296907	0.144491
753.493195	0.144455
753.689465	0.144366
753.885716	0.144282
754.081949	0.144379
754.278164	0.144335
754.474361	0.144356
754.670540	0.144233
754.866700	0.144208
755.062843	0.143951
755.258967	0.143739
755.455072	0.143678
755.651160	0.143638
755.847229	0.143171
756.043280	0.142940
756.239313	0.142683
756.435328	0.142540
756.631324	0.142362
756.827302	0.142384
757.023262	0.142258
757.219204	0.142127
757.415127	0.141930
757.611033	0.142021
757.806920	0.141903
758.002788	0.141804
758.198639	0.141990
758.394471	0.141943
758.590286	0.141947
758.786081	0.141866
758.981859	0.141730
759.177619	0.141623
759.373360	0.141765
759.569083	0.141873
759.764788	0.141866
759.960474	0.141613
760.156143	0.141526
760.351793	0.141327
760.547425	0.141457
760.743038	0.141429
760.938634	0.141483
761.134211	0.141272
761.329770	0.141239
761.525311	0.141306
761.720833	0.141161
761.916338	0.141005
762.111824	0.141056
762.307292	0.141121
762.502741	0.141155
762.698173	0.141265
762.893586	0.141329
763.088981	0.141463
763.284358	0.141480
763.479716	0.141637
763.675057	0.141753
763.870379	0.141609
764.065683	0.141534
764.260968	0.141551
764.456236	0.141540
764.651485	0.141442
764.846716	0.141216
765.041929	0.141279
765.237123	0.141173
765.432299	0.141302
765.627457	0.141260
765.822597	0.140977
766.017719	0.140999
766.212822	0.140812
766.407907	0.140837
766.602974	0.140856
766.798023	0.140584
766.993054	0.140373
767.188066	0.140189
767.383060	0.140180
767.578036	0.140262
767.772993	0.140121
767.967933	0.139988
768.162854	0.139838
768.357757	0.139717
768.552642	0.139781
768.747508	0.140122
768.942356	0.140400
769.137186	0.140362
769.331998	0.140392
769.526792	0.140416
769.721567	0.140543
769.916324	0.140569
770.111063	0.140680
770.305784	0.140673
770.500486	0.140473
770.695171	0.140175
770.889837	0.140120
771.084484	0.140020
771.279114	0.139867
771.473725	0.139961
771.668318	0.139845
771.862893	0.139697
772.057450	0.139587
772.251988	0.139485
772.446509	0.139406
772.641011	0.139437
772.835494	0.139453
773.029960	0.139470
773.224407	0.139290
773.418836	0.139074
773.613247	0.138942
773.807640	0.138827
774.002014	0.138968
774.196370	0.139081
774.390708	0.139189
774.585028	0.139346
774.779330	0.139278
774.973613	0.139360
775.167878	0.139356
775.362125	0.139417
775.556354	0.139210
775.750564	0.138927
775.944756	0.138825
776.138930	0.138727
776.333086	0.138420
776.527223	0.138400
776.721343	0.138209
776.915444	0.138614
777.109526	0.138774
777.303591	0.139077
777.497637	0.139326
777.691666	0.139338
777.885676	0.139394
778.079667	0.139537
778.273641	0.139390
778.467596	0.139447
778.661533	0.139296
778.855452	0.139109
779.049352	0.139122
779.243235	0.139011
779.437099	0.138976
779.630945	0.138967
779.824773	0.138945
780.018582	0.138907
780.212373	0.138891
780.406146	0.138717
780.599901	0.138728
780.793638	0.138578
780.987356	0.138488
781.181056	0.138485
781.374738	0.138225
781.568402	0.138024
781.762047	0.138088
781.955674	0.138018
782.149283	0.137879
782.342874	0.137633
782.536447	0.137512
782.730001	0.137465
782.923537	0.137423
783.117055	0.137365
783.310555	0.137525
783.504036	0.137574
783.697499	0.137441
783.890944	0.137631
784.084371	0.137646
784.277780	0.137586
784.471170	0.137498
784.664542	0.137436
784.857896	0.137628
785.051231	0.137426
785.244549	0.137304
785.437848	0.137571
785.631129	0.137401
785.824392	0.137502
786.017636	0.137751
786.210863	0.137940
786.404071	0.137928
786.597260	0.137653
786.790432	0.137685
786.983585	0.137829
787.176721	0.137517
787.369838	0.137609
787.562936	0.137315
787.756017	0.137013
787.949079	0.136779
788.142123	0.136535
788.335149	0.136376
788.528156	0.136297
788.721146	0.136130
788.914117	0.136131
789.107070	0.136074
789.300005	0.136569
789.492921	0.136829
789.685819	0.136844
789.878699	0.136912
790.071561	0.137268
790.264405	0.137335
790.457230	0.137426
790.650037	0.137604
790.842826	0.137725
791.035597	0.137636
791.228349	0.137683
791.421084	0.137704
791.613800	0.137816
791.806497	0.137814
791.999177	0.137818
792.191838	0.137928
792.384481	0.137946
792.577106	0.138026
792.769713	0.137956
792.962301	0.137957
793.154871	0.138157
793.347423	0.138280
793.539957	0.138578
793.732473	0.138889
793.924970	0.138998
794.117449	0.139248
794.309910	0.139306
794.502353	0.139630
794.694777	0.139750
794.887183	0.139790
795.079571	0.139879
795.271941	0.139745
795.464293	0.139843
795.656626	0.139693
795.848941	0.139719
796.041238	0.139648
796.233516	0.139606
796.425777	0.139474
796.618019	0.139495
796.810243	0.139592
797.002449	0.139607
797.194636	0.139656
797.386805	0.139596
797.578956	0.139487
797.771089	0.139732
797.963204	0.139896
798.155300	0.140177
798.347378	0.140416
798.539438	0.140287
798.731480	0.140522
798.923503	0.140511
799.115509	0.140793
799.307496	0.140860
799.499465	0.140811
799.691415	0.140793
799.883348	0.140636
800.075262	0.140602
800.267158	0.140715
800.459035	0.140683
800.650895	0.140704
800.842736	0.140861
801.034559	0.140997
801.226364	0.141075
801.418150	0.141086
801.609919	0.141441
801.801669	0.141756
801.993401	0.141797
802.185114	0.141729
802.376810	0.141936
802.568487	0.141937
802.760146	0.141953
802.951787	0.141712
803.143409	0.141659
803.335014	0.141540
803.526600	0.141198
803.718168	0.141423
803.909717	0.141487
804.101249	0.141130
804.292762	0.141226
804.484257	0.141338
804.675734	0.141688
804.867192	0.141872
805.058632	0.141748
805.250054	0.141933
805.441458	0.142041
805.632844	0.142393
805.824211	0.142706
806.015561	0.142922
806.206891	0.143115
806.398204	0.143235
806.589499	0.143346
806.780775	0.143539
806.972033	0.143566
807.163273	0.143518
807.354495	0.143535
807.545698	0.143585
807.736883	0.143658
807.928050	0.143536
808.119199	0.143689
808.310329	0.143704
808.501441	0.144090
808.692535	0.144260
808.883611	0.144517
809.074669	0.144649
809.265708	0.145136
809.456729	0.145236
809.647732	0.145609
809.838717	0.145765
810.029683	0.146007
810.220632	0.145907
810.411562	0.146247
810.602474	0.146312
810.793367	0.146338
810.984242	0.146256
811.175100	0.146492
811.365938	0.146578
811.556759	0.146611
811.747562	0.146681
811.938346	0.146946
812.129112	0.146820
812.319860	0.147202
812.510589	0.147229
812.701300	0.147103
812.891994	0.146830
813.082668	0.146788
813.273325	0.146695
813.463964	0.146773
813.654584	0.146918
813.845186	0.147134
814.035769	0.147169
814.226335	0.147339
814.416882	0.147666
814.607411	0.147913
814.797922	0.148180
814.988415	0.148542
815.178889	0.148668
815.369345	0.148567
815.559783	0.148844
815.750203	0.149026
815.940605	0.149078
816.130988	0.149221
816.321353	0.149307
816.511700	0.149218
816.702028	0.149213
816.892339	0.149196
817.082631	0.149566
817.272905	0.149550
817.463161	0.149675
817.653398	0.149937
817.843617	0.150142
818.033819	0.150330
818.224001	0.150611
818.414166	0.150805
818.604312	0.150974
818.794440	0.150937
818.984550	0.151109
819.174642	0.151050
819.364716	0.150849
819.554771	0.150839
819.744808	0.150772
819.934827	0.150917
820.124827	0.150911
820.314810	0.150999
820.504774	0.151138
820.694720	0.151163
820.884647	0.151192
821.074557	0.151617
821.264448	0.151872
821.454321	0.152470
821.644176	0.152435
821.834012	0.152690
822.023831	0.152976
822.213631	0.153194
822.403413	0.153288
822.593176	0.153333
822.782922	0.153318
822.972649	0.153393
823.162358	0.153499
823.352049	0.153614
823.541721	0.153622
823.731376	0.153784
823.921012	0.153716
824.110629	0.154027
824.300229	0.154180
824.489811	0.154520
824.679374	0.154545
824.868919	0.154363
825.058445	0.154483
825.247954	0.154533
825.437444	0.154494
825.626916	0.154965
825.816370	0.154812
826.005806	0.155062
826.195223	0.155063
826.384622	0.155165
826.574003	0.155318
826.763366	0.155614
826.952711	0.156014
827.142037	0.156290
827.331345	0.156424
827.520635	0.156671
827.709906	0.157035
827.899160	0.157299
828.088395	0.157588
828.277612	0.157857
828.466810	0.157948
828.655991	0.157877
828.845153	0.157960
829.034297	0.157936
829.223423	0.158141
829.412531	0.158179
829.601620	0.158468
829.790691	0.158549
829.979744	0.158631
830.168779	0.158763
830.357795	0.159041
830.546793	0.159216
830.735773	0.159626
830.924735	0.159754
831.113679	0.159852
831.302604	0.159855
831.491511	0.159821
831.680400	0.159802
831.869271	0.159939
832.058123	0.159837
832.246957	0.160294
832.435773	0.160162
832.624571	0.160315
832.813351	0.160433
833.002112	0.160602
833.190855	0.160872
833.379580	0.161191
833.568287	0.161346
833.756975	0.161759
833.945645	0.161819
834.134297	0.161725
834.322931	0.162000
834.511547	0.162089
834.700144	0.162237
834.888723	0.162346
835.077284	0.162607
835.265826	0.162779
835.454351	0.163059
835.642857	0.162882
835.831345	0.163456
836.019815	0.163773
836.208266	0.164087
836.396699	0.164148
836.585114	0.164453
836.773511	0.164656
836.961890	0.165078
837.150250	0.165272
837.338592	0.165697
837.526916	0.165704
837.715222	0.165939
837.903510	0.166297
838.091779	0.166728
838.280030	0.166876
838.468263	0.167077
838.656477	0.167005
838.844674	0.166998
839.032852	0.167052
839.221012	0.167393
839.409153	0.167391
839.597277	0.167530
839.785382	0.167617
839.973469	0.167758
840.161538	0.168039
840.349589	0.168290
840.537621	0.168728
840.725635	0.169029
840.913631	0.169232
841.101609	0.169365
841.289568	0.169357
841.477509	0.169624
841.665432	0.169850
841.853337	0.170223
842.041224	0.170673
842.229092	0.170858
842.416942	0.170989
842.604774	0.171083
842.792588	0.171618
842.980383	0.172228
843.168160	0.172504
843.355919	0.172889
843.543660	0.172711
843.731382	0.172837
843.919087	0.172842
844.106773	0.173213
844.294441	0.173371
844.482090	0.173238
844.669722	0.173228
844.857335	0.173290
845.044930	0.173628
845.232507	0.174128
845.420065	0.174398
845.607605	0.174804
845.795127	0.174930
845.982631	0.175568
846.170117	0.175915
846.357584	0.176045
846.545033	0.176269
846.732464	0.176225
846.919877	0.176475
847.107272	0.176616
847.294648	0.176902
847.482006	0.177373
847.669346	0.177339
847.856667	0.177356
848.043971	0.177666
848.231256	0.177807
848.418523	0.178182
848.605771	0.178362
848.793002	0.178506
848.980214	0.178662
849.167408	0.178691
849.354584	0.178521
849.541742	0.178652
849.728881	0.178972
849.916002	0.179268
850.103105	0.179465
850.290190	0.179614
850.477256	0.179928
850.664304	0.179927
850.851334	0.179857
851.038346	0.180236
851.225340	0.180472
851.412315	0.180310
851.599272	0.180353
851.786211	0.180575
851.973132	0.180733
852.160034	0.180624
852.346918	0.180664
852.533784	0.181078
852.720632	0.181248
852.907462	0.181383
853.094273	0.181504
853.281066	0.181440
853.467841	0.181220
853.654598	0.181070
853.841336	0.181269
854.028056	0.181532
854.214758	0.181548
854.401442	0.181808
854.588107	0.182082
854.774755	0.182238
854.961384	0.182758
855.147995	0.182991
855.334587	0.183224
855.521162	0.183498
855.707718	0.183803
855.894256	0.184080
856.080775	0.183967
856.267277	0.184392
856.453760	0.184622
856.640225	0.184597
856.826672	0.185099
857.013101	0.185214
857.199511	0.185364
857.385903	0.185661
857.572277	0.185643
857.758633	0.186335
857.944970	0.186197
858.131290	0.186346
858.317591	0.186795
858.503873	0.186761
858.690138	0.187227
858.876384	0.187461
859.062612	0.187625
859.248822	0.187935
859.435014	0.187755
859.621188	0.187994
859.807343	0.188263
859.993480	0.188155
860.179599	0.188371
860.365699	0.188531
860.551781	0.188831
860.737846	0.189101
860.923891	0.189290
861.109919	0.189351
861.295929	0.189820
861.481920	0.190090
861.667893	0.190644
861.853848	0.191062
862.039784	0.191367
862.225702	0.191361
862.411603	0.191308
862.597484	0.191498
862.783348	0.191818
862.969193	0.191522
863.155021	0.191743
863.340830	0.191606
863.526620	0.191606
863.712393	0.191442
863.898147	0.191654
864.083883	0.191991
864.269601	0.192108
864.455301	0.192357
864.640982	0.192644
864.826645	0.192311
865.012290	0.192551
865.197917	0.192534
865.383526	0.192623
865.569116	0.192911
865.754688	0.193029
865.940242	0.193143
866.125777	0.193277
866.311295	0.193519
866.496794	0.194176
866.682275	0.194154
866.867737	0.194052
867.053182	0.194286
867.238608	0.194258
867.424016	0.194102
867.609406	0.194361
867.794778	0.194543
867.980131	0.194776
868.165466	0.194508
868.350783	0.194813
868.536082	0.195217
868.721362	0.195518
868.906625	0.195628
869.091869	0.195778
869.277094	0.195878
869.462302	0.196058
869.647491	0.195984
869.832662	0.196283
870.017815	0.196452
870.202950	0.196834
870.388066	0.196806
870.573165	0.197016
870.758245	0.197361
870.943306	0.197310
871.128350	0.197202
871.313375	0.197416
871.498382	0.197652
871.683371	0.197768
871.868342	0.197668
872.053294	0.197626
872.238229	0.197518
872.423144	0.197448
872.608042	0.197577
872.792922	0.197736
872.977783	0.197541
873.162626	0.197679
873.347451	0.197827
873.532258	0.198122
873.717046	0.198204
873.901816	0.198013
874.086568	0.197965
874.271302	0.198468
874.456017	0.198205
874.640715	0.198616
874.825394	0.198612
875.010055	0.198369
875.194697	0.198215
875.379322	0.198211
875.563928	0.198476
875.748516	0.198660
875.933085	0.198538
876.117637	0.199004
876.302170	0.198787
876.486685	0.198998
876.671182	0.199186
876.855661	0.199146
877.040121	0.199720
877.224563	0.200044
877.408987	0.200109
877.593393	0.199816
877.777780	0.200099
877.962150	0.200210
878.146501	0.200175
878.330833	0.200284
878.515148	0.200361
878.699444	0.200289
878.883722	0.200302
879.067982	0.200624
879.252224	0.201154
879.436447	0.200986
879.620653	0.201043
879.804840	0.200706
879.989008	0.200650
880.173159	0.201153
880.357291	0.201135
880.541405	0.201088
880.725501	0.201305
880.909579	0.200989
881.093638	0.201337
881.277680	0.201713
881.461703	0.202076
881.645707	0.202462
881.829694	0.202159
882.013662	0.201963
882.197612	0.202263
882.381544	0.202256
882.565458	0.202481
882.749353	0.202259
882.933230	0.202310
883.117089	0.202146
883.300930	0.202163
883.484753	0.202227
883.668557	0.202537
883.852343	0.202343
884.036111	0.202240
884.219861	0.202139
884.403592	0.202432
884.587305	0.202232
884.771000	0.202793
884.954677	0.202729
885.138335	0.202662
885.321976	0.202714
885.505598	0.202996
885.689201	0.203023
885.872787	0.203321
886.056354	0.202984
886.239904	0.203182
886.423434	0.203213
886.606947	0.203035
886.790442	0.203067
886.973918	0.202797
887.157376	0.202858
887.340816	0.202660
887.524237	0.202603
887.707641	0.202833
887.891026	0.202981
888.074393	0.202501
888.257741	0.202754
888.441072	0.202745
888.624384	0.203120
888.807678	0.203120
888.990954	0.203043
889.174211	0.202470
889.357451	0.202167
889.540672	0.202082
889.723875	0.202183
889.907059	0.202048
890.090226	0.202289
890.273374	0.202178
890.456504	0.201800
890.639616	0.202051
890.822709	0.202529
891.005785	0.202568
891.188842	0.202025
891.371881	0.201775
891.554901	0.201617
891.737904	0.201247
891.920888	0.201214
892.103854	0.200956
892.286802	0.200869
892.469731	0.200896
892.652643	0.200672
892.835536	0.201065
893.018410	0.201540
893.201267	0.201884
893.384106	0.202105
893.566926	0.201913
893.749728	0.202162
893.932511	0.202285
894.115277	0.202088
894.298024	0.202358
894.480753	0.202756
894.663464	0.202411
894.846157	0.202306
895.028831	0.202206
895.211487	0.202509
895.394125	0.202721
895.576745	0.202580
895.759346	0.202906
895.941930	0.202668
896.124495	0.202349
896.307041	0.202447
896.489570	0.202091
896.672080	0.201694
896.854573	0.201284
897.037046	0.201014
897.219502	0.200693
897.401940	0.200139
897.584359	0.200265
897.766760	0.199737
897.949143	0.199389
898.131507	0.199553
898.313854	0.199626
898.496182	0.199158
898.678492	0.199159
898.860783	0.199334
899.043057	0.199550
899.225312	0.199465
899.407549	0.199305
899.589768	0.199418
899.771968	0.198967
899.954151	0.198922
900.136315	0.199111
900.318461	0.198941
900.500588	0.199016
900.682698	0.198342
900.864789	0.198130
901.046862	0.198411
901.228917	0.197913
901.410953	0.197883
901.592971	0.197894
901.774972	0.197589
901.956953	0.197102
902.138917	0.196210
902.320862	0.196815
902.502790	0.196465
902.684699	0.195841
902.866589	0.196239
903.048462	0.196315
903.230316	0.196058
903.412152	0.196307
903.593970	0.196155
903.775770	0.196070
903.957551	0.195272
904.139314	0.195513
904.321059	0.195792
904.502786	0.195228
904.684494	0.194646
904.866185	0.194437
905.047857	0.194071
905.229510	0.194250
905.411146	0.194463
905.592763	0.194644
905.774363	0.194212
905.955943	0.193890
906.137506	0.193636
906.319051	0.193378
906.500577	0.193220
906.682085	0.192912
906.863575	0.192546
907.045046	0.192183
907.226500	0.191977
907.407935	0.191765
907.589352	0.191628
907.770750	0.191633
907.952131	0.192280
908.133493	0.192368
908.314837	0.192312
908.496163	0.192048
908.677470	0.192087
908.858760	0.191839
909.040031	0.191824
909.221284	0.191670
909.402518	0.191533
909.583735	0.190817
909.764933	0.190111
909.946113	0.189417
910.127275	0.189368
910.308418	0.189051
910.489544	0.188754
910.670651	0.187959
910.851740	0.187198
911.032810	0.186903
911.213863	0.187015
911.394897	0.186938
911.575913	0.187140
911.756911	0.186892
911.937890	0.186818
912.118851	0.186730
912.299794	0.187227
912.480719	0.187443
912.661626	0.187246
912.842514	0.186364
913.023384	0.185993
913.204236	0.185541
913.385070	0.185405
913.565886	0.184824
913.746683	0.184233
913.927462	0.183850
914.108223	0.183856
914.288965	0.183545
914.469690	0.183643
914.650396	0.183354
914.831084	0.183289
915.011754	0.183142
915.192405	0.183049
915.373038	0.182731
915.553653	0.182387
915.734250	0.181326
915.914829	0.180558
916.095389	0.180299
916.275931	0.180015
916.456455	0.179789
916.636961	0.179029
916.817448	0.178869
916.997917	0.178840
917.178368	0.177976
917.358801	0.178133
917.539216	0.178694
917.719612	0.178365
917.899990	0.178244
918.080350	0.178103
918.260692	0.177899
918.441015	0.177419
918.621320	0.176933
918.801607	0.176957
918.981876	0.176601
919.162127	0.175546
919.342359	0.175515
919.522573	0.174652
919.702769	0.174049
919.882947	0.173254
920.063106	0.172908
920.243247	0.172819
920.423370	0.172755
920.603475	0.172125
920.783562	0.172220
920.963630	0.171174
921.143680	0.171120
921.323712	0.171048
921.503725	0.171121
921.683721	0.170518
921.863698	0.169793
922.043657	0.169430
922.223598	0.169316
922.403520	0.168638
922.583424	0.168469
922.763311	0.168523
922.943178	0.167703
923.123028	0.167530
923.302859	0.167127
923.482673	0.166600
923.662467	0.165898
923.842244	0.165372
924.022003	0.164871
924.201743	0.164138
924.381465	0.163261
924.561169	0.162777
924.740854	0.161476
924.920522	0.161097
925.100171	0.160746
925.279802	0.159960
925.459414	0.159655
925.639009	0.159003
925.818585	0.158763
925.998143	0.158096
926.177683	0.158000
926.357205	0.157938
926.536708	0.157531
926.716193	0.157113
926.895660	0.156826
927.075109	0.155975
927.254539	0.155845
927.433951	0.154832
927.613345	0.154466
927.792721	0.153620
927.972079	0.153360
928.151418	0.152700
928.330739	0.152480
928.510042	0.152804
928.689327	0.152697
928.868593	0.152663
929.047841	0.152717
929.227071	0.152332
929.406283	0.152041
929.585476	0.151816
929.764652	0.151628
929.943809	0.150886
930.122948	0.150222
930.302068	0.149722
930.481171	0.148924
930.660255	0.148535
930.839321	0.148326
931.018369	0.147499
931.197398	0.147125
931.376409	0.146151
931.555402	0.145870
931.734377	0.144791
931.913334	0.144381
932.092272	0.143750
932.271192	0.142771
932.450094	0.141927
932.628978	0.141514
932.807844	0.141138
932.986691	0.140877
933.165520	0.140462
933.344331	0.139842
933.523123	0.138491
933.701898	0.138305
933.880654	0.138097
934.059392	0.137406
934.238111	0.137253
934.416813	0.136503
934.595496	0.136756
934.774161	0.136507
934.952808	0.136223
935.131437	0.136383
935.310047	0.136125
935.488639	0.136100
935.667213	0.136288
935.845769	0.135992
936.024306	0.135176
936.202825	0.134348
936.381326	0.133344
936.559809	0.132537
936.738274	0.132341
936.916720	0.131569
937.095148	0.130345
937.273558	0.129837
937.451950	0.128751
937.630323	0.128684
937.808678	0.128152
937.987015	0.128296
938.165334	0.127886
938.343635	0.126933
938.521917	0.126223
938.700181	0.126134
938.878427	0.126117
939.056655	0.126628
939.234864	0.125632
939.413055	0.124909
939.591228	0.124031
939.769383	0.123499
939.947519	0.122826
940.125638	0.121838
940.303738	0.121264
940.481820	0.120018
940.659883	0.118809
940.837929	0.118345
941.015956	0.116895
941.193965	0.116132
941.371955	0.116143
941.549928	0.116092
941.727882	0.115276
941.905818	0.114837
942.083736	0.114914
942.261636	0.112965
942.439517	0.113064
942.617380	0.114011
942.795225	0.111814
942.973052	0.110880
943.150860	0.109502
943.328651	0.108695
943.506423	0.108424
943.684176	0.106916
943.861912	0.107943
944.039629	0.106370
944.217328	0.104704
944.395009	0.106065
944.572672	0.105941
944.750317	0.105753
944.927943	0.106048
945.105551	0.105576
945.283141	0.105729
945.460712	0.105610
945.638265	0.105327
945.815801	0.105801
945.993317	0.104402
946.170816	0.103538
946.348297	0.103462
946.525759	0.102921
946.703203	0.102418
946.880629	0.100924
947.058036	0.099409
947.235425	0.099830
947.412797	0.098733
947.590149	0.098910
947.767484	0.099083
947.944800	0.098998
948.122099	0.098818
948.299379	0.096494
948.476640	0.096649
948.653884	0.096928
948.831109	0.096757
949.008316	0.095913
949.185505	0.095909
949.362676	0.095772
949.539828	0.095140
949.716962	0.093590
949.894078	0.094730
950.071176	0.094493
950.248256	0.093645
950.425317	0.092035
950.602360	0.091960
950.779385	0.091909
950.956391	0.091771
951.133380	0.091136
951.310350	0.090800
951.487302	0.090682
951.664235	0.089723
951.841151	0.089394
952.018048	0.088011
952.194927	0.087092
952.371788	0.086087
952.548631	0.082624
952.725455	0.081989
952.902261	0.081576
953.079049	0.080880
953.255819	0.079667
953.432570	0.078662
953.609303	0.077944
953.786018	0.077862
953.962715	0.076825
954.139394	0.077315
954.316054	0.076488
954.492696	0.076764
954.669320	0.075818
954.845926	0.075659
955.022513	0.076627
955.199083	0.077411
955.375634	0.076929
955.552166	0.078429
955.728681	0.076923
955.905177	0.077326
956.081655	0.077043
956.258115	0.075715
956.434557	0.076009
956.610980	0.074651
956.787385	0.074243
956.963772	0.074318
957.140141	0.070905
957.316492	0.072700
957.492824	0.072351
957.669138	0.072544
957.845434	0.074246
958.021712	0.074160
958.197971	0.072902
958.374212	0.072705
958.550435	0.071159
958.726640	0.070904
958.902826	0.070682
959.078995	0.071907
959.255145	0.071811
959.431277	0.070786
959.607390	0.070499
959.783486	0.073366
959.959563	0.073373
960.135622	0.075523
960.311662	0.076317
960.487685	0.077243
960.663689	0.075808
960.839675	0.073941
961.015643	0.072986
961.191593	0.073547
961.367524	0.072712
961.543437	0.072666
961.719332	0.072025
961.895209	0.073344
962.071067	0.069804
962.246907	0.068244
962.422730	0.069037
962.598533	0.069712
962.774319	0.068116
962.950086	0.066100
963.125835	0.066060
963.301566	0.064107
963.477279	0.065920
963.652973	0.067162
963.828650	0.068391
964.004308	0.069814
964.179947	0.070076
964.355569	0.070306
964.531172	0.071616
964.706757	0.070123
964.882324	0.070960
965.057873	0.069590
965.233403	0.070761
965.408916	0.070203
965.584410	0.069763
965.759885	0.070932
965.935343	0.069815
966.110782	0.069801
966.286203	0.072660
966.461606	0.073505
966.636991	0.073566
966.812357	0.070639
966.987705	0.069415
967.163035	0.067097
967.338347	0.066578
967.513641	0.068174
967.688916	0.067536
967.864173	0.066829
968.039412	0.066977
968.214632	0.066045
968.389835	0.069284
968.565019	0.070185
968.740185	0.071390
968.915333	0.070302
969.090462	0.071126
969.265573	0.069498
969.440667	0.070087
969.615741	0.070614
969.790798	0.069660
969.965836	0.068871
970.140856	0.069586
970.315858	0.071342
970.490842	0.069783
970.665808	0.069710
970.840755	0.070363
971.015684	0.068253
971.190595	0.067247
971.365487	0.070218
971.540362	0.070078
971.715218	0.070531
971.890056	0.068918
972.064875	0.070084
972.239677	0.068391
972.414460	0.070601
972.589225	0.071971
972.763972	0.071824
972.938700	0.070061
973.113411	0.071008
973.288103	0.070866
973.462777	0.071326
973.637432	0.070449
973.812070	0.071791
973.986689	0.070452
974.161290	0.069686
974.335873	0.070686
974.510437	0.070282
974.684984	0.068684
974.859512	0.067204
975.034022	0.068172
975.208513	0.072714
975.382987	0.074796
975.557442	0.074396
975.731879	0.074900
975.906298	0.074660
976.080698	0.072559
976.255080	0.073898
976.429445	0.074466
976.603790	0.071344
976.778118	0.068491
976.952427	0.066044
977.126719	0.066263
977.300992	0.067521
977.475246	0.065853
977.649483	0.067784
977.823701	0.066231
977.997901	0.064081
978.172083	0.065784
978.346247	0.067285
978.520392	0.067130
978.694519	0.067141
978.868628	0.066641
979.042719	0.070143
979.216791	0.070719
979.390845	0.072688
979.564882	0.075910
979.738899	0.075426
979.912899	0.072236
980.086880	0.071675
980.260843	0.070251
980.434788	0.071467
980.608715	0.068200
980.782623	0.066766
980.956514	0.066759
981.130386	0.065197
981.304240	0.066191
981.478075	0.068230
981.651892	0.068005
981.825692	0.068043
981.999472	0.068055
982.173235	0.067505
982.346980	0.068573
982.520706	0.068371
982.694414	0.070556
982.868104	0.069561
983.041775	0.069438
983.215428	0.070944
983.389064	0.074511
983.562680	0.071325
983.736279	0.074000
983.909860	0.074373
984.083422	0.072528
984.256966	0.072395
984.430491	0.072170
984.603999	0.071623
984.777488	0.071941
984.950959	0.070407
985.124412	0.070855
985.297847	0.070239
985.471263	0.070190
985.644661	0.071927
985.818041	0.071101
985.991403	0.071322
986.164747	0.072850
986.338072	0.071679
986.511379	0.072144
986.684668	0.073965
986.857938	0.073706
987.031191	0.073381
987.204425	0.071671
987.377641	0.072528
987.550839	0.071785
987.724018	0.069453
987.897179	0.070347
988.070322	0.068366
988.243447	0.066293
988.416554	0.066931
988.589642	0.066095
988.762712	0.068239
988.935764	0.067241
989.108798	0.067325
989.281813	0.069543
989.454811	0.069148
989.627790	0.068865
989.800751	0.068725
989.973693	0.066501
990.146617	0.068212
990.319524	0.068438
990.492412	0.070502
990.665281	0.071499
990.838133	0.070533
991.010966	0.069178
991.183781	0.070892
991.356578	0.072106
991.529356	0.073532
991.702117	0.073429
991.874859	0.072096
992.047583	0.069964
992.220288	0.070758
992.392976	0.070383
992.565645	0.071360
992.738296	0.070699
992.910929	0.070347
993.083543	0.069083
993.256139	0.067465
993.428718	0.066591
993.601277	0.065480
993.773819	0.065027
993.946342	0.064614
994.118848	0.064049
994.291335	0.063239
994.463803	0.063548
994.636254	0.065641
994.808686	0.067697
994.981100	0.068797
995.153496	0.071916
995.325874	0.073185
995.498233	0.074998
995.670574	0.075947
995.842897	0.078975
996.015202	0.079261
996.187488	0.078201
996.359757	0.077106
996.532007	0.076739
996.704239	0.074044
996.876452	0.073721
997.048648	0.075762
997.220825	0.074339
997.392984	0.070674
997.565124	0.070389
997.737247	0.071183
997.909351	0.070991
998.081437	0.070146
998.253505	0.069981
998.425554	0.068590
998.597586	0.067789
998.769599	0.069349
998.941594	0.071063
999.113571	0.070331
999.285529	0.068765
999.457469	0.070573
999.629391	0.070151
999.801295	0.071842
999.973181	0.072301
1000.145048	0.069446
1000.316897	0.070284
1000.488728	0.069641
1000.660541	0.071975
1000.832335	0.072248
1001.004111	0.071238
1001.175869	0.072910
1001.347609	0.069601
1001.519331	0.069845
1001.691034	0.069218
1001.862719	0.067643
1002.034386	0.068360
1002.206035	0.064902
1002.377665	0.064299
1002.549277	0.063579
1002.720871	0.064215
1002.892447	0.066473
1003.064004	0.066514
1003.235544	0.068740
1003.407065	0.068508
1003.578568	0.068955
1003.750052	0.069932
1003.921519	0.071512
1004.092967	0.071777
1004.264397	0.070206
1004.435809	0.071169
1004.607202	0.071877
1004.778577	0.069940
1004.949934	0.071024
1005.121273	0.070462
1005.292594	0.070829
1005.463896	0.069600
1005.635180	0.069732
1005.806446	0.070026
1005.977694	0.068788
1006.148923	0.066650
1006.320135	0.067711
1006.491328	0.067191
1006.662503	0.067516
1006.833659	0.068647
1007.004798	0.069541
1007.175918	0.068031
1007.347020	0.067712
1007.518103	0.067380
1007.689169	0.067801
1007.860216	0.067230
1008.031245	0.064678
1008.202256	0.064129
1008.373248	0.063337
1008.544223	0.062799
1008.715179	0.062036
1008.886117	0.062544
1009.057036	0.063194
1009.227938	0.063198
1009.398821	0.063978
1009.569686	0.067167
1009.740533	0.066850
1009.911361	0.066841
1010.082172	0.066354
1010.252964	0.068244
1010.423738	0.069471
1010.594493	0.069211
1010.765231	0.069314
1010.935950	0.068454
1011.106651	0.069205
1011.277334	0.068569
1011.447998	0.067993
1011.618645	0.068468
1011.789273	0.068113
1011.959882	0.067107
1012.130474	0.069553
1012.301048	0.068900
1012.471603	0.069079
1012.642140	0.066898
1012.812658	0.068055
1012.983159	0.067804
1013.153641	0.066385
1013.324105	0.066255
1013.494551	0.065945
1013.664979	0.062822
1013.835388	0.063760
1014.005779	0.065293
1014.176152	0.064739
1014.346507	0.064192
1014.516843	0.064932
1014.687162	0.066476
1014.857462	0.067298
1015.027744	0.067982
1015.198007	0.068717
1015.368252	0.069889
1015.538480	0.068819
1015.708689	0.071793
1015.878879	0.073689
1016.049052	0.072623
1016.219206	0.072029
1016.389342	0.072387
1016.559460	0.072144
1016.729559	0.071604
1016.899641	0.069734
1017.069704	0.069558
1017.239749	0.068087
1017.409775	0.065737
1017.579784	0.068379
1017.749774	0.068515
1017.919746	0.066199
1018.089700	0.064534
1018.259635	0.065336
1018.429553	0.066443
1018.599452	0.066272
1018.769333	0.067078
1018.939195	0.066796
1019.109040	0.063131
1019.278866	0.062477
1019.448674	0.065783
1019.618464	0.066452
1019.788235	0.065757
1019.957989	0.065347
1020.127724	0.063771
1020.297441	0.061734
1020.467139	0.062884
1020.636820	0.065194
1020.806482	0.066348
1020.976126	0.065209
1021.145752	0.065202
1021.315359	0.065541
1021.484948	0.065325
1021.654519	0.066806
1021.824072	0.068241
1021.993607	0.068034
1022.163123	0.066802
1022.332621	0.067073
1022.502101	0.067051
1022.671563	0.068510
1022.841007	0.069500
1023.010432	0.070278
1023.179839	0.070628
1023.349228	0.070850
1023.518598	0.070929
1023.687951	0.070994
1023.857285	0.069958
1024.026601	0.069148
1024.195899	0.067835
1024.365178	0.065411
1024.534439	0.064625
1024.703682	0.062759
1024.872907	0.061892
1025.042114	0.061388
1025.211302	0.063859
1025.380472	0.064540
1025.549624	0.064192
1025.718758	0.064603
1025.887873	0.067668
1026.056970	0.067683
1026.226049	0.070842
1026.395110	0.071353
1026.564153	0.072023
1026.733177	0.070188
1026.902183	0.070644
1027.071171	0.070907
1027.240141	0.070906
1027.409092	0.068585
1027.578026	0.068216
1027.746940	0.066706
1027.915837	0.067167
1028.084716	0.066508
1028.253576	0.066488
1028.422418	0.065521
1028.591242	0.065689
1028.760048	0.065489
1028.928835	0.066284
1029.097604	0.066428
1029.266355	0.066422
1029.435088	0.066242
1029.603803	0.066439
1029.772499	0.066450
1029.941177	0.065784
1030.109837	0.064802
1030.278478	0.065020
1030.447102	0.064497
1030.615707	0.063234
1030.784294	0.064265
1030.952863	0.062516
1031.121413	0.062031
1031.289945	0.061325
1031.458460	0.061171
1031.626955	0.062363
1031.795433	0.061441
1031.963892	0.060847
1032.132334	0.061540
1032.300756	0.060262
1032.469161	0.061610
1032.637548	0.061419
1032.805916	0.061406
1032.974266	0.062067
1033.142598	0.060362
1033.310911	0.060789
1033.479207	0.059776
1033.647484	0.060978
1033.815743	0.060609
1033.983983	0.059741
1034.152206	0.059114
1034.320410	0.059201
1034.488596	0.060049
1034.656764	0.061258
1034.824914	0.061608
1034.993045	0.063770
1035.161158	0.064298
1035.329253	0.063638
1035.497330	0.063533
1035.665388	0.065351
1035.833428	0.065691
1036.001450	0.065264
1036.169454	0.064874
1036.337440	0.065466
1036.505407	0.063311
1036.673356	0.062142
1036.841287	0.063594
1037.009200	0.064812
1037.177094	0.064590
1037.344970	0.064271
1037.512828	0.063536
1037.680668	0.065044
1037.848489	0.063263
1038.016293	0.068163
1038.184078	0.067140
1038.351845	0.066983
1038.519593	0.066516
1038.687324	0.066478
1038.855036	0.065613
1039.022730	0.065289
1039.190406	0.064775
1039.358063	0.066525
1039.525702	0.063060
1039.693323	0.065034
1039.860926	0.063875
1040.028511	0.064696
1040.196077	0.064603
1040.363625	0.067441
1040.531155	0.069500
1040.698667	0.067567
1040.866161	0.067201
1041.033636	0.068108
1041.201093	0.066865
1041.368532	0.068773
1041.535952	0.067340
1041.703355	0.067666
1041.870739	0.065411
1042.038105	0.063187
1042.205452	0.064577
1042.372782	0.064161
1042.540093	0.064115
1042.707386	0.063236
1042.874661	0.063318
1043.041918	0.064591
1043.209156	0.063318
1043.376376	0.063588
1043.543578	0.065034
1043.710762	0.065692
1043.877927	0.065096
1044.045074	0.064541
1044.212203	0.064465
1044.379314	0.064710
1044.546407	0.065818
1044.713481	0.066599
1044.880537	0.067468
1045.047575	0.067208
1045.214595	0.067068
1045.381596	0.065597
1045.548579	0.066662
1045.715544	0.068278
1045.882491	0.065250
1046.049420	0.063700
1046.216330	0.063831
1046.383222	0.062905
1046.550096	0.062284
1046.716951	0.061194
1046.883789	0.062102
1047.050608	0.062728
1047.217409	0.062367
1047.384192	0.063636
1047.550956	0.063417
1047.717703	0.062702
1047.884431	0.063716
1048.051140	0.065412
1048.217832	0.064429
1048.384505	0.067700
1048.551161	0.066794
1048.717798	0.066726
1048.884416	0.064465
1049.051017	0.064231
1049.217599	0.065627
1049.384163	0.064779
1049.550709	0.064301
1049.717237	0.063775
1049.883746	0.061505
1050.050237	0.061244
1050.216710	0.060340
1050.383165	0.063770
1050.549601	0.064276
1050.716019	0.063198
1050.882420	0.062765
1051.048801	0.063198
1051.215165	0.064780
1051.381510	0.064931
1051.547837	0.064272
1051.714146	0.066311
1051.880437	0.066046
1052.046709	0.064677
1052.212964	0.066024
1052.379200	0.066119
1052.545417	0.064993
1052.711617	0.065813
1052.877798	0.067209
1053.043961	0.069069
1053.210106	0.067653
1053.376233	0.068361
1053.542341	0.070766
1053.708432	0.069955
1053.874504	0.069167
1054.040557	0.069169
1054.206593	0.066153
1054.372610	0.063976
1054.538609	0.062672
1054.704590	0.063416
1054.870553	0.061436
1055.036497	0.060623
1055.202424	0.060708
1055.368331	0.063006
1055.534221	0.062587
1055.700093	0.066362
1055.865946	0.067608
1056.031781	0.066097
1056.197598	0.065297
1056.363397	0.066098
1056.529177	0.064139
1056.694939	0.065412
1056.860683	0.065700
1057.026409	0.066504
1057.192116	0.065843
1057.357806	0.064881
1057.523477	0.065780
1057.689130	0.064796
1057.854764	0.064932
1058.020381	0.067361
1058.185979	0.065301
1058.351559	0.064896
1058.517120	0.063615
1058.682664	0.064497
1058.848189	0.064528
1059.013696	0.063771
1059.179185	0.066086
1059.344656	0.065684
1059.510108	0.064964
1059.675542	0.065483
1059.840958	0.063891
1060.006356	0.064399
1060.171735	0.063256
1060.337096	0.065088
1060.502439	0.066991
1060.667764	0.068700
1060.833071	0.068459
1060.998359	0.067783
1061.163629	0.067797
1061.328881	0.069254
1061.494115	0.068059
1061.659330	0.068971
1061.824527	0.065695
1061.989706	0.066173
1062.154867	0.062366
1062.320010	0.062941
1062.485134	0.063333
1062.650240	0.062951
1062.815328	0.061625
1062.980398	0.063831
1063.145449	0.063377
1063.310482	0.065910
1063.475497	0.065756
1063.640494	0.066979
1063.805473	0.066870
1063.970433	0.065848
1064.135375	0.067623
1064.300299	0.067736
1064.465204	0.067303
1064.630092	0.066301
1064.794961	0.065263
1064.959812	0.065087
1065.124645	0.064716
1065.289459	0.065017
1065.454256	0.065499
1065.619034	0.064905
1065.783793	0.066954
1065.948535	0.066343
1066.113258	0.065230
1066.277964	0.067043
1066.442651	0.066760
1066.607319	0.068874
1066.771970	0.070018
1066.936602	0.069528
1067.101216	0.068660
1067.265812	0.068279
1067.430389	0.070299
1067.594949	0.074627
1067.759490	0.074069
1067.924013	0.073763
1068.088518	0.073869
1068.253004	0.071442
1068.417472	0.073839
1068.581922	0.073796
1068.746354	0.072423
1068.910768	0.070431
1069.075163	0.065309
1069.239540	0.066307
1069.403899	0.066981
1069.568240	0.066673
1069.732562	0.068375
1069.896866	0.067883
1070.061152	0.067244
1070.225420	0.068067
1070.389670	0.068180
1070.553901	0.070973
1070.718114	0.070989
1070.882309	0.069960
1071.046486	0.068061
1071.210644	0.067821
1071.374784	0.069278
1071.538906	0.069933
1071.703010	0.069425
1071.867096	0.068762
1072.031163	0.068349
1072.195212	0.067485
1072.359243	0.068279
1072.523256	0.067044
1072.687250	0.066846
1072.851226	0.065526
1073.015184	0.066484
1073.179124	0.066607
1073.343045	0.068964
1073.506949	0.066913
1073.670834	0.066465
1073.834701	0.066044
1073.998549	0.067566
1074.162380	0.068004
1074.326192	0.067542
1074.489986	0.066530
1074.653761	0.068394
1074.817519	0.066646
1074.981258	0.068811
1075.144979	0.067379
1075.308682	0.066427
1075.472367	0.065868
1075.636033	0.065193
1075.799681	0.064547
1075.963311	0.064850
1076.126923	0.063191
1076.290516	0.063271
1076.454092	0.062465
1076.617649	0.064379
1076.781187	0.066496
1076.944708	0.068260
1077.108210	0.068998
1077.271695	0.068419
1077.435160	0.067081
1077.598608	0.066145
1077.762038	0.067529
1077.925449	0.068066
1078.088842	0.069041
1078.252217	0.068058
1078.415573	0.068057
1078.578912	0.067132
1078.742232	0.067370
1078.905534	0.067741
1079.068817	0.071130
1079.232083	0.072854
1079.395330	0.075226
1079.558559	0.071693
1079.721770	0.072805
1079.884962	0.074429
1080.048136	0.074025
1080.211293	0.075636
1080.374430	0.079040
1080.537550	0.077339
1080.700651	0.075852
1080.863735	0.075258
1081.026800	0.077390
1081.189846	0.074788
1081.352875	0.072343
1081.515885	0.072650
1081.678877	0.073659
1081.841851	0.072011
1082.004807	0.072987
1082.167744	0.072006
1082.330663	0.071693
1082.493564	0.074276
1082.656447	0.076798
1082.819312	0.078969
1082.982158	0.082440
1083.144986	0.077497
1083.307796	0.079450
1083.470587	0.077647
1083.633361	0.077097
1083.796116	0.074586
1083.958853	0.073931
1084.121571	0.073593
1084.284272	0.073096
1084.446954	0.070387
1084.609618	0.073389
1084.772264	0.071652
1084.934892	0.072533
1085.097501	0.076172
1085.260092	0.076711
1085.422665	0.075692
1085.585220	0.078375
1085.747756	0.076499
1085.910274	0.074774
1086.072774	0.074034
1086.235256	0.076244
1086.397720	0.078683
1086.560165	0.077494
1086.722592	0.080415
1086.885001	0.080296
1087.047392	0.078805
1087.209764	0.077616
1087.372119	0.077540
1087.534455	0.081224
1087.696772	0.077761
1087.859072	0.075364
1088.021353	0.074606
1088.183616	0.073996
1088.345861	0.075827
1088.508088	0.073733
1088.670296	0.077674
1088.832486	0.079495
1088.994658	0.075163
1089.156812	0.077958
1089.318948	0.078430
1089.481065	0.080104
1089.643164	0.079760
1089.805245	0.076573
1089.967308	0.076927
1090.129352	0.078021
1090.291378	0.079712
1090.453386	0.079643
1090.615376	0.078286
1090.777347	0.077008
1090.939301	0.075342
1091.101236	0.075324
1091.263153	0.077896
1091.425051	0.078323
1091.586932	0.075079
1091.748794	0.072467
1091.910638	0.074290
1092.072463	0.073181
1092.234271	0.075731
1092.396060	0.076220
1092.557831	0.076225
1092.719584	0.075274
1092.881319	0.074839
1093.043035	0.074388
1093.204733	0.076503
1093.366413	0.078226
1093.528075	0.080634
1093.689718	0.080833
1093.851343	0.080057
1094.012950	0.080142
1094.174539	0.077853
1094.336110	0.079223
1094.497662	0.081273
1094.659196	0.081199
1094.820712	0.080069
1094.982210	0.078837
1095.143689	0.079400
1095.305151	0.081215
1095.466594	0.081345
1095.628018	0.086141
1095.789425	0.083776
1095.950813	0.084949
1096.112183	0.085128
1096.273535	0.083765
1096.434869	0.082717
1096.596184	0.080030
1096.757482	0.082131
1096.918761	0.082471
1097.080021	0.079868
1097.241264	0.080046
1097.402488	0.077764
1097.563694	0.079770
1097.724882	0.082098
1097.886052	0.083572
1098.047203	0.083691
1098.208336	0.080291
1098.369451	0.078022
1098.530548	0.076749
1098.691627	0.077901
1098.852687	0.077933
1099.013729	0.077268
1099.174753	0.076786
1099.335758	0.074823
1099.496746	0.076949
1099.657715	0.076244
1099.818666	0.078124
1099.979599	0.080051
1100.140513	0.081902
1100.301409	0.079580
1100.462287	0.074777
1100.623147	0.074549
1100.783989	0.074567
1100.944812	0.074571
1101.105617	0.073597
1101.266404	0.075039
1101.427173	0.073484
1101.587923	0.074182
1101.748656	0.077387
1101.909370	0.080916
1102.070066	0.077299
1102.230743	0.080949
1102.391403	0.079428
1102.552044	0.081923
1102.712667	0.079923
1102.873271	0.082921
1103.033858	0.078996
1103.194426	0.078303
1103.354976	0.079587
1103.515508	0.084625
1103.676021	0.084613
1103.836517	0.086788
1103.996994	0.087265
1104.157453	0.084832
1104.317893	0.083977
1104.478316	0.086885
1104.638720	0.089207
1104.799106	0.087783
1104.959474	0.086727
1105.119823	0.084640
1105.280155	0.084573
1105.440468	0.084310
1105.600763	0.091062
1105.761039	0.092720
1105.921298	0.090699
1106.081538	0.090445
1106.241760	0.092516
1106.401964	0.096202
1106.562149	0.096198
1106.722316	0.094376
1106.882465	0.096060
1107.042596	0.092987
1107.202709	0.090884
1107.362803	0.092242
1107.522879	0.093788
1107.682937	0.089633
1107.842977	0.086196
1108.002999	0.085989
1108.163002	0.085058
1108.322987	0.082073
1108.482954	0.085407
1108.642902	0.083688
1108.802833	0.080827
1108.962745	0.080959
1109.122639	0.084331
1109.282515	0.087165
1109.442372	0.089045
1109.602211	0.089953
1109.762032	0.089369
1109.921835	0.085917
1110.081620	0.087696
1110.241386	0.092496
1110.401134	0.089087
1110.560864	0.088032
1110.720576	0.088189
1110.880269	0.089099
1111.039945	0.093086
1111.199602	0.094360
1111.359240	0.092477
1111.518861	0.090754
1111.678463	0.090851
1111.838047	0.092310
1111.997613	0.091886
1112.157161	0.088955
1112.316690	0.087538
1112.476202	0.083758
1112.635695	0.083180
1112.795169	0.085731
1112.954626	0.085336
1113.114064	0.084425
1113.273484	0.084517
1113.432886	0.086982
1113.592270	0.088941
1113.751635	0.092097
1113.910983	0.093148
1114.070312	0.095229
1114.229622	0.095591
1114.388915	0.100862
1114.548189	0.099082
1114.707445	0.100152
1114.866683	0.097330
1115.025903	0.091805
1115.185104	0.086653
1115.344287	0.087001
1115.503452	0.086635
1115.662599	0.086349
1115.821727	0.079309
1115.980838	0.082529
1116.139930	0.084307
1116.299004	0.088776
1116.458059	0.092000
1116.617097	0.090332
1116.776116	0.088532
1116.935117	0.091811
1117.094099	0.090672
1117.253064	0.096527
1117.412010	0.092874
1117.570938	0.092404
1117.729848	0.085477
1117.888740	0.087193
1118.047613	0.094218
1118.206468	0.093633
1118.365305	0.088594
1118.524124	0.088467
1118.682924	0.085867
1118.841707	0.089957
1119.000471	0.084383
1119.159216	0.090321
1119.317944	0.093430
1119.476653	0.092238
1119.635344	0.093585
1119.794017	0.099024
1119.952672	0.101585
1120.111308	0.104383
1120.269927	0.102022
1120.428527	0.108628
1120.587108	0.106306
1120.745672	0.104886
1120.904217	0.102852
1121.062744	0.100489
1121.221253	0.095473
1121.379744	0.093722
1121.538216	0.090008
1121.696671	0.089260
1121.855107	0.084112
1122.013524	0.081133
1122.171924	0.078917
1122.330305	0.078464
1122.488668	0.077634
1122.647013	0.081252
1122.805340	0.079498
1122.963648	0.077301
1123.121938	0.077240
1123.280210	0.081709
1123.438464	0.087486
1123.596700	0.087751
1123.754917	0.087259
1123.913116	0.089026
1124.071297	0.085834
1124.229459	0.081205
1124.387604	0.082555
1124.545730	0.086755
1124.703838	0.080990
1124.861928	0.076322
1125.019999	0.076139
1125.178052	0.076425
1125.336088	0.075931
1125.494104	0.076019
1125.652103	0.083969
1125.810083	0.090623
1125.968045	0.089737
1126.125989	0.092020
1126.283915	0.091568
1126.441823	0.091695
1126.599712	0.091340
1126.757583	0.094976
1126.915436	0.095969
1127.073270	0.092856
1127.231087	0.088499
1127.388885	0.088376
1127.546665	0.084653
1127.704426	0.084188
1127.862170	0.086077
1128.019895	0.087718
1128.177602	0.089097
1128.335291	0.086632
1128.492961	0.087514
1128.650614	0.087173
1128.808248	0.087518
1128.965864	0.092011
1129.123461	0.091399
1129.281041	0.093426
1129.438602	0.094675
1129.596145	0.090042
1129.753670	0.093679
1129.911176	0.098918
1130.068665	0.101283
1130.226135	0.097026
1130.383587	0.096966
1130.541020	0.099636
1130.698436	0.091672
1130.855833	0.087374
1131.013212	0.089479
1131.170573	0.085502
1131.327915	0.082621
1131.485239	0.088534
1131.642545	0.086533
1131.799833	0.090858
1131.957103	0.087758
1132.114354	0.090474
1132.271588	0.090269
1132.428803	0.092555
1132.585999	0.096013
1132.743178	0.094658
1132.900338	0.089385
1133.057480	0.094014
1133.214604	0.087248
1133.371710	0.086777
1133.528797	0.089938
1133.685866	0.097703
1133.842917	0.092904
1133.999950	0.091212
1134.156964	0.090234
1134.313960	0.090825
1134.470938	0.091154
1134.627898	0.089577
1134.784840	0.099597
1134.941763	0.099178
1135.098668	0.094073
1135.255555	0.094544
1135.412424	0.096529
1135.569274	0.098329
1135.726107	0.100331
1135.882921	0.099086
1136.039716	0.100049
1136.196494	0.104130
1136.353253	0.100235
1136.509995	0.104047
1136.666717	0.105580
1136.823422	0.104729
1136.980109	0.108276
1137.136777	0.104504
1137.293427	0.106700
1137.450059	0.113189
1137.606672	0.102204
1137.763267	0.100499
1137.919844	0.099698
1138.076403	0.099234
1138.232944	0.101875
1138.389466	0.093234
1138.545971	0.094251
1138.702457	0.094366
1138.858924	0.091506
1139.015374	0.092574
1139.171805	0.099534
1139.328218	0.097790
1139.484613	0.095196
1139.640990	0.096902
1139.797348	0.110453
1139.953688	0.108512
1140.110010	0.107254
1140.266314	0.100921
1140.422600	0.102887
1140.578867	0.101248
1140.735116	0.101873
1140.891347	0.108450
1141.047559	0.100710
1141.203754	0.092678
1141.359930	0.097222
1141.516088	0.095424
1141.672228	0.101906
1141.828349	0.099211
1141.984452	0.103974
1142.140537	0.102549
1142.296604	0.101304
1142.452653	0.109706
1142.608683	0.110410
1142.764695	0.106751
1142.920689	0.105039
1143.076665	0.106690
1143.232622	0.112192
1143.388562	0.117372
1143.544483	0.111624
1143.700385	0.105693
1143.856270	0.094411
1144.012136	0.094089
1144.167985	0.100085
1144.323814	0.106947
1144.479626	0.097167
1144.635420	0.100119
1144.791195	0.090340
1144.946952	0.099768
1145.102691	0.101493
1145.258411	0.115857
1145.414113	0.116145
1145.569798	0.109704
1145.725463	0.101618
1145.881111	0.114148
1146.036741	0.105880
1146.192352	0.104198
1146.347945	0.104950
1146.503519	0.115623
1146.659076	0.104673
1146.814614	0.100265
1146.970134	0.109669
1147.125636	0.116998
1147.281120	0.108852
1147.436585	0.116508
1147.592032	0.117078
1147.747461	0.117765
1147.902872	0.103202
1148.058265	0.111219
1148.213639	0.119189
1148.368995	0.116923
1148.524333	0.115848
1148.679653	0.119690
1148.834954	0.106645
1148.990237	0.102915
1149.145502	0.094750
1149.300749	0.099053
1149.455977	0.088978
1149.611188	0.091463
1149.766380	0.087057
1149.921553	0.087449
1150.076709	0.087930
1150.231846	0.097199
1150.386966	0.098126
1150.542066	0.100146
1150.697149	0.102868
1150.852214	0.109245
1151.007260	0.103920
1151.162288	0.106621
1151.317298	0.108853
1151.472289	0.116950
1151.627263	0.112505
1151.782218	0.118156
1151.937155	0.126038
1152.092073	0.123449
1152.246974	0.125525
1152.401856	0.126789
1152.556720	0.116822
1152.711566	0.116270
1152.866393	0.108239
1153.021203	0.112464
1153.175994	0.107000
1153.330767	0.107490
1153.485521	0.105921
1153.640258	0.104030
1153.794976	0.107805
1153.949676	0.112348
1154.104358	0.103983
1154.259021	0.103042
1154.413667	0.103793
1154.568294	0.112726
1154.722903	0.107249
1154.877493	0.114948
1155.032066	0.118508
1155.186620	0.110374
1155.341156	0.102672
1155.495674	0.098863
1155.650173	0.106551
1155.804654	0.099022
1155.959118	0.091093
1156.113562	0.088791
1156.267989	0.090862
1156.422397	0.083194
1156.576788	0.084606
1156.731160	0.083668
1156.885513	0.091975
1157.039849	0.088665
1157.194166	0.098801
1157.348465	0.097755
1157.502746	0.097108
1157.657009	0.085008
1157.811253	0.081246
1157.965479	0.081515
1158.119687	0.083465
1158.273877	0.088750
1158.428048	0.087412
1158.582201	0.079243
1158.736337	0.077003
1158.890453	0.078199
1159.044552	0.081417
1159.198632	0.083455
1159.352694	0.085627
1159.506738	0.088054
1159.660764	0.082655
1159.814771	0.084482
1159.968761	0.084744
1160.122732	0.100236
1160.276685	0.100207
1160.430619	0.097879
1160.584535	0.103158
1160.738434	0.095502
1160.892313	0.098970
1161.046175	0.092268
1161.200019	0.093675
1161.353844	0.104351
1161.507651	0.103020
1161.661440	0.113892
1161.815210	0.121563
1161.968962	0.114818
1162.122697	0.132327
1162.276412	0.142777
1162.430110	0.155039
1162.583789	0.145054
1162.737451	0.137050
1162.891094	0.130463
1163.044718	0.124985
1163.198325	0.144125
1163.351913	0.141449
1163.505483	0.128779
1163.659035	0.118130
1163.812569	0.117657
1163.966084	0.105483
1164.119581	0.109972
1164.273060	0.112258
1164.426521	0.101829
1164.579964	0.079992
1164.733388	0.087331
1164.886794	0.087306
1165.040182	0.083251
1165.193551	0.092071
1165.346903	0.117612
1165.500236	0.107278
1165.653551	0.088516
1165.806848	0.102471
1165.960126	0.103062
1166.113386	0.107789
1166.266628	0.114129
1166.419852	0.130510
1166.573058	0.115289
1166.726245	0.100391
1166.879414	0.111032
1167.032565	0.129905
1167.185698	0.110672
1167.338812	0.126594
1167.491909	0.120416
1167.644987	0.119561
1167.798046	0.105974
1167.951088	0.104831
1168.104111	0.119032
1168.257117	0.103961
1168.410103	0.100178
1168.563072	0.117033
1168.716023	0.105664
1168.868955	0.110908
1169.021869	0.108854
1169.174765	0.117038
1169.327642	0.126728
1169.480501	0.126022
1169.633343	0.143911
1169.786165	0.157288
1169.938970	0.151414
1170.091757	0.151795
1170.244525	0.152231
1170.397275	0.152456
1170.550007	0.140081
1170.702720	0.121700
1170.855415	0.112414
1171.008092	0.111225
1171.160751	0.103818
1171.313392	0.105960
1171.466014	0.114181
1171.618619	0.141488
1171.771205	0.141488
1171.923772	0.141488
