sample name	sample
index	847
start time	 04-08-2021  10:34:54 AM


Wavelength (nm)	Absorbance
494.344910	-0.046246
494.563924	-0.046246
494.782919	-0.046246
495.001897	0.321932
495.220856	0.045282
495.439797	0.043906
495.658719	0.044637
495.877624	0.039969
496.096510	-0.003123
496.315378	-0.020465
496.534227	-0.029852
496.753059	-0.050423
496.971872	-0.026329
497.190667	0.077336
497.409444	0.115438
497.628203	0.125806
497.846943	0.131878
498.065665	0.137662
498.284369	0.140487
498.503055	0.142862
498.721723	0.145391
498.940372	0.145418
499.159003	0.146234
499.377616	0.146238
499.596210	0.147821
499.814787	0.148584
500.033345	0.149864
500.251885	0.150422
500.470406	0.150175
500.688910	0.149460
500.907395	0.148856
501.125862	0.148862
501.344311	0.149210
501.562742	0.149120
501.781154	0.149209
501.999548	0.148194
502.217924	0.148154
502.436282	0.149086
502.654621	0.150188
502.872942	0.151315
503.091245	0.152009
503.309530	0.151943
503.527797	0.150470
503.746045	0.149950
503.964275	0.149146
504.182487	0.149227
504.400681	0.149083
504.618856	0.148738
504.837013	0.148390
505.055152	0.146651
505.273273	0.146743
505.491376	0.148442
505.709460	0.149221
505.927526	0.149686
506.145574	0.149370
506.363604	0.150610
506.581615	0.149926
506.799608	0.150775
507.017583	0.151782
507.235540	0.151931
507.453478	0.151024
507.671399	0.151203
507.889301	0.152153
508.107185	0.152810
508.325050	0.152245
508.542898	0.152865
508.760727	0.152818
508.978538	0.153165
509.196330	0.153535
509.414105	0.153948
509.631861	0.154082
509.849599	0.153701
510.067319	0.153911
510.285021	0.153660
510.502704	0.154402
510.720369	0.153432
510.938016	0.153659
511.155645	0.154394
511.373255	0.155065
511.590848	0.155288
511.808422	0.155209
512.025977	0.155073
512.243515	0.155532
512.461034	0.155796
512.678536	0.156839
512.896018	0.157025
513.113483	0.157311
513.330930	0.157939
513.548358	0.158785
513.765768	0.159478
513.983160	0.160051
514.200533	0.160277
514.417889	0.160251
514.635226	0.160698
514.852545	0.160891
515.069845	0.160501
515.287128	0.159768
515.504392	0.159689
515.721638	0.159931
515.938866	0.160289
516.156075	0.160301
516.373267	0.160414
516.590440	0.160926
516.807594	0.160816
517.024731	0.161211
517.241850	0.161546
517.458950	0.161137
517.676032	0.161689
517.893095	0.161033
518.110141	0.162201
518.327168	0.162257
518.544177	0.161964
518.761168	0.162723
518.978141	0.162806
519.195095	0.163065
519.412031	0.162969
519.628949	0.162741
519.845849	0.163875
520.062731	0.162999
520.279594	0.162919
520.496439	0.162623
520.713266	0.162819
520.930074	0.162939
521.146865	0.163160
521.363637	0.164306
521.580391	0.164520
521.797127	0.164574
522.013844	0.165163
522.230543	0.165376
522.447224	0.166237
522.663887	0.166098
522.880532	0.166376
523.097158	0.166980
523.313766	0.166588
523.530356	0.167171
523.746928	0.167335
523.963481	0.167413
524.180017	0.168179
524.396534	0.168419
524.613032	0.168796
524.829513	0.168829
525.045975	0.168890
525.262420	0.169540
525.478845	0.169685
525.695253	0.169751
525.911643	0.169843
526.128014	0.169754
526.344367	0.169744
526.560702	0.169709
526.777018	0.170542
526.993316	0.170659
527.209597	0.170669
527.425858	0.171041
527.642102	0.172064
527.858328	0.172755
528.074535	0.172513
528.290724	0.172250
528.506894	0.172936
528.723047	0.173053
528.939181	0.173826
529.155297	0.174420
529.371395	0.174057
529.587475	0.173633
529.803536	0.173813
530.019579	0.175294
530.235604	0.175984
530.451611	0.176012
530.667600	0.176458
530.883570	0.176405
531.099522	0.176623
531.315456	0.177006
531.531372	0.177572
531.747269	0.178018
531.963148	0.178025
532.179009	0.178662
532.394852	0.178834
532.610676	0.179475
532.826482	0.180193
533.042271	0.180132
533.258040	0.180811
533.473792	0.181322
533.689525	0.181367
533.905240	0.181647
534.120937	0.181510
534.336616	0.181879
534.552277	0.181662
534.767919	0.181887
534.983543	0.182103
535.199149	0.182333
535.414736	0.182065
535.630306	0.182180
535.845857	0.182109
536.061390	0.182458
536.276904	0.182855
536.492401	0.182840
536.707879	0.182451
536.923339	0.182960
537.138781	0.183378
537.354204	0.183737
537.569610	0.184197
537.784997	0.184574
538.000366	0.184537
538.215716	0.184621
538.431049	0.185243
538.646363	0.186101
538.861659	0.186757
539.076937	0.186314
539.292196	0.187150
539.507438	0.187097
539.722661	0.187182
539.937866	0.187917
540.153052	0.188521
540.368221	0.189012
540.583371	0.188826
540.798503	0.188683
541.013617	0.189286
541.228712	0.189605
541.443789	0.190023
541.658848	0.190292
541.873889	0.190037
542.088912	0.189835
542.303916	0.190128
542.518902	0.190978
542.733870	0.191563
542.948820	0.191862
543.163752	0.191908
543.378665	0.192331
543.593560	0.192823
543.808437	0.193905
544.023295	0.194732
544.238136	0.194682
544.452958	0.194215
544.667762	0.194495
544.882548	0.194793
545.097315	0.194444
545.312064	0.195132
545.526795	0.195706
545.741508	0.195666
545.956203	0.195759
546.170879	0.195833
546.385537	0.196589
546.600177	0.196502
546.814799	0.196478
547.029402	0.196960
547.243988	0.197075
547.458555	0.197214
547.673103	0.196978
547.887634	0.197363
548.102146	0.197883
548.316640	0.198201
548.531116	0.198673
548.745574	0.199323
548.960013	0.199761
549.174435	0.200131
549.388838	0.199671
549.603222	0.201032
549.817589	0.201230
550.031937	0.201269
550.246267	0.201393
550.460579	0.201235
550.674873	0.201560
550.889148	0.201561
551.103405	0.201203
551.317644	0.202295
551.531865	0.201458
551.746068	0.201899
551.960252	0.202475
552.174418	0.202482
552.388566	0.203575
552.602696	0.203858
552.816807	0.204170
553.030900	0.204708
553.244975	0.204714
553.459032	0.205378
553.673070	0.205315
553.887091	0.205468
554.101093	0.205429
554.315077	0.204698
554.529042	0.204434
554.742990	0.204449
554.956919	0.204636
555.170830	0.204378
555.384722	0.204700
555.598597	0.204927
555.812453	0.204682
556.026291	0.205231
556.240111	0.205650
556.453913	0.205795
556.667696	0.206235
556.881461	0.206615
557.095208	0.207425
557.308937	0.207417
557.522647	0.207727
557.736339	0.208341
557.950013	0.208805
558.163669	0.209047
558.377307	0.209605
558.590926	0.210245
558.804527	0.210109
559.018110	0.209774
559.231675	0.209878
559.445221	0.209699
559.658749	0.209476
559.872259	0.209265
560.085751	0.209589
560.299225	0.209521
560.512680	0.208957
560.726117	0.208928
560.939536	0.208882
561.152937	0.208701
561.366319	0.209163
561.579683	0.209426
561.793029	0.209620
562.006357	0.209616
562.219667	0.209904
562.432958	0.210138
562.646231	0.210950
562.859486	0.211552
563.072723	0.212071
563.285941	0.212256
563.499141	0.212381
563.712323	0.212842
563.925487	0.213028
564.138632	0.213025
564.351760	0.213213
564.564869	0.213145
564.777960	0.213209
564.991032	0.213680
565.204087	0.213591
565.417123	0.213972
565.630141	0.214038
565.843140	0.214276
566.056122	0.214805
566.269085	0.214809
566.482030	0.214653
566.694957	0.215109
566.907866	0.214998
567.120756	0.215581
567.333628	0.215519
567.546482	0.215376
567.759318	0.215514
567.972135	0.215360
568.184935	0.215917
568.397716	0.216203
568.610478	0.216214
568.823223	0.216099
569.035949	0.215734
569.248657	0.215876
569.461347	0.216240
569.674019	0.216417
569.886672	0.216461
570.099308	0.216243
570.311925	0.216157
570.524523	0.216218
570.737104	0.216677
570.949666	0.217121
571.162210	0.217161
571.374736	0.217016
571.587244	0.217358
571.799733	0.217778
572.012205	0.218192
572.224658	0.218685
572.437092	0.219140
572.649509	0.219011
572.861907	0.219015
573.074287	0.219795
573.286649	0.220090
573.498993	0.219898
573.711318	0.220178
573.923625	0.220248
574.135914	0.220294
574.348185	0.219919
574.560438	0.220371
574.772672	0.220318
574.984888	0.220081
575.197086	0.220157
575.409266	0.220667
575.621427	0.220692
575.833570	0.220872
576.045695	0.220977
576.257802	0.221371
576.469890	0.221569
576.681961	0.221713
576.894013	0.221590
577.106046	0.222267
577.318062	0.221774
577.530059	0.222008
577.742039	0.221941
577.954000	0.221996
578.165942	0.222256
578.377867	0.222313
578.589773	0.222292
578.801661	0.222346
579.013531	0.222415
579.225382	0.222878
579.437216	0.223056
579.649031	0.223275
579.860828	0.223419
580.072606	0.223230
580.284367	0.223154
580.496109	0.223437
580.707833	0.223579
580.919539	0.223451
581.131227	0.223416
581.342896	0.223238
581.554547	0.223668
581.766180	0.224022
581.977795	0.224405
582.189391	0.224646
582.400969	0.225018
582.612529	0.225614
582.824071	0.225782
583.035595	0.225999
583.247100	0.226224
583.458587	0.226612
583.670056	0.226524
583.881506	0.226397
584.092939	0.226480
584.304353	0.226789
584.515749	0.226854
584.727127	0.227010
584.938486	0.227571
585.149828	0.227692
585.361151	0.227409
585.572456	0.227448
585.783742	0.227926
585.995011	0.228418
586.206261	0.228440
586.417493	0.229028
586.628706	0.229189
586.839902	0.229294
587.051079	0.229508
587.262238	0.230118
587.473379	0.230535
587.684502	0.230189
587.895606	0.230146
588.106692	0.230646
588.317760	0.230242
588.528810	0.230276
588.739841	0.230036
588.950855	0.230225
589.161850	0.230068
589.372827	0.230095
589.583785	0.230413
589.794726	0.230744
590.005648	0.230901
590.216552	0.231313
590.427437	0.231966
590.638305	0.232432
590.849154	0.232368
591.059985	0.232179
591.270798	0.232275
591.481592	0.232738
591.692369	0.232463
591.903127	0.231820
592.113867	0.231881
592.324588	0.231672
592.535292	0.232036
592.745977	0.232188
592.956644	0.232819
593.167293	0.233101
593.377923	0.233154
593.588536	0.233820
593.799130	0.234359
594.009706	0.234257
594.220263	0.234070
594.430803	0.233718
594.641324	0.233768
594.851827	0.233650
595.062312	0.234058
595.272778	0.234264
595.483227	0.234241
595.693657	0.234393
595.904069	0.235012
596.114462	0.235320
596.324838	0.235602
596.535195	0.236124
596.745534	0.236363
596.955855	0.236652
597.166157	0.236541
597.376441	0.236611
597.586707	0.236845
597.796955	0.237155
598.007185	0.237512
598.217396	0.237668
598.427589	0.237763
598.637764	0.237892
598.847921	0.237390
599.058060	0.237708
599.268180	0.237735
599.478282	0.237723
599.688366	0.237329
599.898431	0.237627
600.108479	0.237583
600.318508	0.237731
600.528519	0.238081
600.738511	0.238592
600.948486	0.238736
601.158442	0.239077
601.368380	0.239255
601.578300	0.239455
601.788202	0.239171
601.998085	0.239509
602.207950	0.239413
602.417797	0.239632
602.627626	0.239871
602.837436	0.240070
603.047228	0.240465
603.257002	0.240657
603.466758	0.240773
603.676496	0.241153
603.886215	0.241065
604.095916	0.241211
604.305599	0.241313
604.515264	0.240902
604.724910	0.240657
604.934538	0.240412
605.144148	0.240393
605.353740	0.240576
605.563314	0.240335
605.772869	0.240503
605.982406	0.240746
606.191925	0.240872
606.401425	0.241286
606.610908	0.241747
606.820372	0.241797
607.029818	0.242008
607.239246	0.242027
607.448655	0.242358
607.658047	0.242872
607.867420	0.242987
608.076775	0.243102
608.286111	0.243025
608.495430	0.242972
608.704730	0.243489
608.914012	0.243942
609.123275	0.244155
609.332521	0.244236
609.541748	0.244293
609.750957	0.244182
609.960148	0.244254
610.169321	0.244503
610.378475	0.244753
610.587611	0.244331
610.796729	0.244203
611.005829	0.244624
611.214910	0.244490
611.423974	0.244440
611.633019	0.245076
611.842045	0.244773
612.051054	0.244957
612.260044	0.244725
612.469017	0.245178
612.677970	0.245106
612.886906	0.244737
613.095824	0.245052
613.304723	0.245138
613.513604	0.244989
613.722467	0.245291
613.931311	0.245547
614.140138	0.246100
614.348946	0.246286
614.557736	0.246556
614.766507	0.247135
614.975261	0.247107
615.183996	0.247436
615.392713	0.247657
615.601412	0.247874
615.810092	0.247981
616.018754	0.247703
616.227399	0.247778
616.436024	0.248064
616.644632	0.247882
616.853222	0.248101
617.061793	0.248110
617.270346	0.247894
617.478880	0.247862
617.687397	0.248014
617.895895	0.248586
618.104375	0.248710
618.312837	0.248914
618.521281	0.249110
618.729706	0.249498
618.938113	0.249807
619.146502	0.250389
619.354873	0.250419
619.563226	0.250346
619.771560	0.250283
619.979876	0.250446
620.188174	0.250330
620.396453	0.250377
620.604715	0.250475
620.812958	0.250357
621.021183	0.250037
621.229390	0.250568
621.437578	0.250778
621.645748	0.250892
621.853900	0.251070
622.062034	0.251244
622.270150	0.251762
622.478247	0.251838
622.686326	0.251954
622.894387	0.252312
623.102430	0.252175
623.310454	0.252278
623.518461	0.252314
623.726449	0.252270
623.934418	0.252398
624.142370	0.252218
624.350303	0.252466
624.558218	0.252981
624.766115	0.253487
624.973994	0.253483
625.181855	0.253837
625.389697	0.254071
625.597521	0.254373
625.805327	0.254297
626.013114	0.254480
626.220883	0.254571
626.428634	0.254606
626.636367	0.254304
626.844082	0.254787
627.051778	0.254986
627.259457	0.255073
627.467117	0.255196
627.674758	0.255526
627.882382	0.255684
628.089987	0.255729
628.297574	0.255622
628.505143	0.255817
628.712694	0.255446
628.920226	0.255439
629.127740	0.255633
629.335236	0.255404
629.542714	0.255281
629.750174	0.255438
629.957615	0.255495
630.165038	0.255655
630.372443	0.255968
630.579829	0.256355
630.787198	0.256420
630.994548	0.256405
631.201880	0.256762
631.409194	0.257167
631.616489	0.257259
631.823766	0.257683
632.031025	0.257700
632.238266	0.257452
632.445489	0.257789
632.652693	0.257902
632.859879	0.258237
633.067047	0.258545
633.274197	0.258709
633.481329	0.258698
633.688442	0.258774
633.895537	0.259116
634.102614	0.259369
634.309672	0.259399
634.516713	0.259612
634.723735	0.260054
634.930739	0.260426
635.137724	0.260673
635.344692	0.260801
635.551641	0.260840
635.758572	0.260782
635.965485	0.261096
636.172379	0.261531
636.379256	0.261395
636.586114	0.261196
636.792954	0.261073
636.999775	0.260988
637.206579	0.261232
637.413364	0.261520
637.620131	0.261764
637.826880	0.262020
638.033610	0.262027
638.240323	0.262345
638.447017	0.262706
638.653692	0.262615
638.860350	0.262669
639.066990	0.262562
639.273611	0.262630
639.480214	0.262672
639.686798	0.262353
639.893365	0.262371
640.099913	0.262839
640.306443	0.262794
640.512955	0.263362
640.719449	0.263659
640.925924	0.264065
641.132381	0.264131
641.338820	0.264473
641.545241	0.264904
641.751644	0.265103
641.958028	0.265192
642.164394	0.265417
642.370742	0.265363
642.577071	0.265507
642.783383	0.265952
642.989676	0.266277
643.195951	0.266750
643.402207	0.267005
643.608446	0.267110
643.814666	0.267165
644.020868	0.267477
644.227052	0.267797
644.433218	0.267922
644.639365	0.267748
644.845494	0.267952
645.051605	0.267791
645.257698	0.267803
645.463772	0.267961
645.669828	0.268229
645.875866	0.268086
646.081886	0.268083
646.287888	0.268275
646.493871	0.268437
646.699836	0.268558
646.905783	0.268764
647.111712	0.268875
647.317622	0.269097
647.523514	0.269024
647.729388	0.269192
647.935244	0.269440
648.141082	0.269817
648.346901	0.269836
648.552702	0.269936
648.758485	0.270024
648.964250	0.270401
649.169996	0.270682
649.375724	0.270716
649.581434	0.271038
649.787126	0.270974
649.992800	0.271179
650.198455	0.271619
650.404092	0.271624
650.609711	0.271857
650.815311	0.271943
651.020894	0.271812
651.226458	0.272244
651.432004	0.272434
651.637532	0.272723
651.843041	0.272908
652.048532	0.273105
652.254006	0.273434
652.459460	0.273224
652.664897	0.273458
652.870315	0.273889
653.075716	0.273856
653.281097	0.274101
653.486461	0.274312
653.691807	0.274263
653.897134	0.274567
654.102443	0.274712
654.307734	0.275024
654.513006	0.274993
654.718261	0.275206
654.923497	0.275494
655.128715	0.275620
655.333915	0.275621
655.539096	0.275799
655.744259	0.275803
655.949404	0.275861
656.154531	0.276005
656.359640	0.276335
656.564730	0.276236
656.769802	0.276634
656.974856	0.276496
657.179892	0.276814
657.384909	0.277119
657.589908	0.277383
657.794889	0.277480
657.999852	0.277936
658.204797	0.277959
658.409723	0.278445
658.614631	0.278459
658.819521	0.278795
659.024393	0.278959
659.229246	0.279211
659.434081	0.279008
659.638898	0.279333
659.843697	0.279356
660.048478	0.279760
660.253240	0.279917
660.457984	0.279854
660.662710	0.280182
660.867417	0.280320
661.072107	0.280239
661.276778	0.280336
661.481431	0.280485
661.686066	0.280668
661.890682	0.280800
662.095281	0.280905
662.299861	0.281151
662.504422	0.281136
662.708966	0.281401
662.913491	0.281560
663.117999	0.282218
663.322488	0.282439
663.526958	0.282457
663.731411	0.282807
663.935845	0.282838
664.140261	0.283292
664.344659	0.283689
664.549038	0.283998
664.753400	0.284481
664.957743	0.284864
665.162068	0.285171
665.366375	0.285742
665.570663	0.285587
665.774933	0.286038
665.979185	0.286148
666.183419	0.286561
666.387635	0.286647
666.591832	0.286546
666.796011	0.286659
667.000172	0.286912
667.204315	0.287071
667.408439	0.287351
667.612545	0.287415
667.816634	0.287641
668.020703	0.287507
668.224755	0.287558
668.428788	0.287988
668.632803	0.287907
668.836800	0.287900
669.040779	0.287848
669.244739	0.288233
669.448681	0.288483
669.652605	0.288808
669.856511	0.288972
670.060399	0.289319
670.264268	0.289679
670.468119	0.289922
670.671952	0.290202
670.875767	0.290576
671.079563	0.290705
671.283341	0.290844
671.487101	0.290922
671.690843	0.291262
671.894567	0.291485
672.098272	0.291446
672.301959	0.291597
672.505628	0.291532
672.709278	0.291746
672.912911	0.291752
673.116525	0.291851
673.320121	0.291997
673.523699	0.292304
673.727258	0.292506
673.930799	0.292801
674.134322	0.293020
674.337827	0.293335
674.541314	0.293487
674.744782	0.293868
674.948232	0.294278
675.151664	0.294588
675.355078	0.294423
675.558474	0.294512
675.761851	0.294459
675.965210	0.294622
676.168551	0.295015
676.371873	0.295231
676.575178	0.295528
676.778464	0.295742
676.981732	0.295852
677.184981	0.296236
677.388213	0.296657
677.591426	0.296970
677.794621	0.297342
677.997798	0.297498
678.200956	0.297932
678.404097	0.298130
678.607219	0.298291
678.810323	0.298461
679.013408	0.298546
679.216476	0.298700
679.419525	0.298819
679.622556	0.298955
679.825569	0.299116
680.028563	0.299181
680.231540	0.299292
680.434498	0.299482
680.637438	0.299695
680.840359	0.300067
681.043263	0.300145
681.246148	0.300491
681.449015	0.300623
681.651864	0.300774
681.854694	0.300765
682.057506	0.300883
682.260301	0.300877
682.463076	0.301040
682.665834	0.300937
682.868573	0.301392
683.071295	0.301579
683.273998	0.301678
683.476682	0.301837
683.679349	0.301988
683.881997	0.302359
684.084627	0.302721
684.287239	0.302675
684.489833	0.302961
684.692408	0.302833
684.894965	0.302967
685.097504	0.303304
685.300025	0.303687
685.502527	0.303968
685.705012	0.304191
685.907478	0.304200
686.109925	0.304642
686.312355	0.305006
686.514766	0.305286
686.717159	0.305426
686.919534	0.305734
687.121891	0.305766
687.324230	0.306246
687.526550	0.306395
687.728852	0.306809
687.931136	0.307065
688.133401	0.307419
688.335649	0.307607
688.537878	0.307583
688.740089	0.307639
688.942281	0.307795
689.144456	0.307898
689.346612	0.308144
689.548750	0.308164
689.750870	0.308346
689.952971	0.308162
690.155055	0.308374
690.357120	0.308730
690.559167	0.309004
690.761195	0.309313
690.963206	0.309120
691.165198	0.308862
691.367172	0.308869
691.569128	0.308892
691.771065	0.309155
691.972984	0.309120
692.174885	0.309402
692.376768	0.309408
692.578633	0.309319
692.780479	0.309996
692.982308	0.310377
693.184118	0.310646
693.385909	0.310869
693.587683	0.311074
693.789438	0.311404
693.991175	0.311557
694.192894	0.311637
694.394595	0.312032
694.596277	0.311807
694.797941	0.312003
694.999587	0.312344
695.201215	0.312520
695.402824	0.312513
695.604416	0.312631
695.805989	0.312798
696.007543	0.312967
696.209080	0.313177
696.410598	0.313405
696.612099	0.313570
696.813580	0.313535
697.015044	0.313591
697.216490	0.313869
697.417917	0.314217
697.619326	0.314222
697.820717	0.314322
698.022089	0.314383
698.223444	0.314476
698.424780	0.314513
698.626098	0.314446
698.827397	0.314642
699.028679	0.314692
699.229942	0.314498
699.431187	0.314973
699.632414	0.315197
699.833622	0.315190
700.034813	0.315413
700.235985	0.315476
700.437139	0.315699
700.638274	0.315805
700.839392	0.316121
701.040491	0.316470
701.241572	0.316517
701.442635	0.316695
701.643679	0.316895
701.844706	0.317124
702.045714	0.317235
702.246704	0.317726
702.447675	0.317784
702.648629	0.317617
702.849564	0.317748
703.050481	0.317846
703.251380	0.317900
703.452260	0.318101
703.653122	0.318066
703.853966	0.318057
704.054792	0.318020
704.255600	0.318210
704.456389	0.318340
704.657160	0.318176
704.857913	0.317894
705.058648	0.318049
705.259365	0.317863
705.460063	0.317736
705.660743	0.317967
705.861405	0.317895
706.062048	0.317760
706.262674	0.317736
706.463281	0.317651
706.663870	0.317575
706.864441	0.317368
707.064993	0.317417
707.265527	0.317490
707.466043	0.317390
707.666541	0.317306
707.867021	0.317587
708.067482	0.317811
708.267925	0.318160
708.468350	0.318443
708.668757	0.318667
708.869145	0.318975
709.069516	0.319115
709.269868	0.319394
709.470201	0.319763
709.670517	0.319489
709.870814	0.319399
710.071093	0.319262
710.271354	0.319045
710.471597	0.319035
710.671821	0.318973
710.872028	0.318606
711.072216	0.318570
711.272385	0.318437
711.472537	0.318650
711.672670	0.318554
711.872785	0.318627
712.072882	0.318811
712.272961	0.318719
712.473021	0.318775
712.673063	0.318807
712.873087	0.318551
713.073093	0.318100
713.273081	0.317978
713.473050	0.318088
713.673001	0.318088
713.872934	0.318184
714.072849	0.318287
714.272745	0.318114
714.472623	0.318310
714.672483	0.318304
714.872325	0.318697
715.072148	0.318577
715.271954	0.318366
715.471741	0.318298
715.671509	0.317863
715.871260	0.317563
716.070992	0.317467
716.270707	0.317522
716.470403	0.317452
716.670080	0.317202
716.869740	0.317385
717.069381	0.317482
717.269004	0.317493
717.468609	0.317688
717.668195	0.317822
717.867764	0.317600
718.067314	0.317202
718.266846	0.317354
718.466360	0.317212
718.665855	0.316850
718.865332	0.316500
719.064791	0.316261
719.264232	0.316173
719.463655	0.315952
719.663059	0.315835
719.862445	0.315519
720.061813	0.315226
720.261163	0.314982
720.460494	0.314799
720.659807	0.314883
720.859102	0.314561
721.058379	0.314187
721.257638	0.314149
721.456878	0.314394
721.656100	0.314636
721.855304	0.314826
722.054490	0.315054
722.253657	0.315135
722.452806	0.315088
722.651937	0.315071
722.851050	0.315149
723.050145	0.314951
723.249221	0.314603
723.448279	0.314705
723.647319	0.314343
723.846340	0.314194
724.045344	0.314114
724.244329	0.313884
724.443296	0.313958
724.642245	0.313840
724.841175	0.313831
725.040088	0.313821
725.238982	0.313493
725.437857	0.313409
725.636715	0.313274
725.835554	0.313153
726.034376	0.313135
726.233179	0.312916
726.431963	0.312914
726.630730	0.312562
726.829478	0.312371
727.028208	0.312325
727.226920	0.312108
727.425614	0.311912
727.624289	0.311849
727.822946	0.311568
728.021585	0.311412
728.220206	0.311390
728.418808	0.311615
728.617392	0.311602
728.815958	0.311552
729.014506	0.311363
729.213036	0.311426
729.411547	0.311306
729.610040	0.311727
729.808515	0.311566
730.006972	0.311243
730.205410	0.310997
730.403831	0.310780
730.602233	0.310744
730.800616	0.310585
730.998982	0.310498
731.197329	0.310131
731.395658	0.309668
731.593969	0.309681
731.792262	0.309824
731.990536	0.309808
732.188793	0.309544
732.387031	0.309427
732.585250	0.309449
732.783452	0.309022
732.981635	0.309133
733.179800	0.309130
733.377947	0.309043
733.576076	0.308572
733.774186	0.308089
733.972278	0.308081
734.170352	0.307710
734.368408	0.307505
734.566446	0.307429
734.764465	0.307139
734.962466	0.306886
735.160449	0.306708
735.358413	0.306565
735.556360	0.306171
735.754288	0.305801
735.952198	0.305769
736.150090	0.305766
736.347963	0.305570
736.545818	0.305541
736.743655	0.305257
736.941474	0.304779
737.139275	0.304644
737.337057	0.304873
737.534821	0.304872
737.732567	0.304361
737.930295	0.304205
738.128005	0.303823
738.325696	0.303394
738.523369	0.303096
738.721024	0.303108
738.918660	0.302812
739.116279	0.302488
739.313879	0.302275
739.511461	0.302428
739.709024	0.301964
739.906570	0.301951
740.104097	0.301694
740.301606	0.301695
740.499097	0.301652
740.696569	0.301550
740.894024	0.301619
741.091460	0.301441
741.288878	0.301095
741.486277	0.301047
741.683659	0.300866
741.881022	0.300642
742.078367	0.300262
742.275694	0.299805
742.473002	0.299497
742.670293	0.299013
742.867565	0.298862
743.064819	0.298317
743.262054	0.298107
743.459272	0.297911
743.656471	0.298051
743.853652	0.297698
744.050815	0.297653
744.247959	0.297637
744.445085	0.297654
744.642194	0.297233
744.839283	0.297447
745.036355	0.297267
745.233408	0.297191
745.430444	0.296882
745.627461	0.296926
745.824459	0.296762
746.021440	0.296529
746.218402	0.296199
746.415346	0.296215
746.612272	0.295890
746.809180	0.295866
747.006069	0.295700
747.202940	0.295384
747.399793	0.294987
747.596628	0.294385
747.793444	0.294162
747.990243	0.293845
748.187023	0.293421
748.383784	0.293311
748.580528	0.293043
748.777253	0.292886
748.973960	0.292831
749.170649	0.292955
749.367320	0.293024
749.563973	0.292871
749.760607	0.292940
749.957223	0.292819
750.153821	0.292665
750.350400	0.292384
750.546962	0.291786
750.743505	0.291701
750.940030	0.291348
751.136536	0.291217
751.333025	0.290891
751.529495	0.290738
751.725947	0.290689
751.922381	0.290666
752.118796	0.290459
752.315194	0.290452
752.511573	0.290061
752.707934	0.289805
752.904276	0.289471
753.100601	0.289706
753.296907	0.289499
753.493195	0.288894
753.689465	0.288553
753.885716	0.288465
754.081949	0.288240
754.278164	0.288149
754.474361	0.288153
754.670540	0.288400
754.866700	0.287913
755.062843	0.287561
755.258967	0.287855
755.455072	0.287664
755.651160	0.287499
755.847229	0.287642
756.043280	0.287434
756.239313	0.287264
756.435328	0.286845
756.631324	0.286627
756.827302	0.286656
757.023262	0.286514
757.219204	0.286435
757.415127	0.286216
757.611033	0.286054
757.806920	0.286048
758.002788	0.285960
758.198639	0.285893
758.394471	0.285981
758.590286	0.285750
758.786081	0.285603
758.981859	0.285263
759.177619	0.285319
759.373360	0.284965
759.569083	0.284899
759.764788	0.284492
759.960474	0.284134
760.156143	0.283928
760.351793	0.283574
760.547425	0.283476
760.743038	0.283398
760.938634	0.283182
761.134211	0.283246
761.329770	0.282700
761.525311	0.282822
761.720833	0.282715
761.916338	0.282546
762.111824	0.282432
762.307292	0.282215
762.502741	0.282253
762.698173	0.282247
762.893586	0.281965
763.088981	0.282099
763.284358	0.282007
763.479716	0.281975
763.675057	0.282058
763.870379	0.282074
764.065683	0.282202
764.260968	0.281817
764.456236	0.281558
764.651485	0.281642
764.846716	0.281718
765.041929	0.281790
765.237123	0.281804
765.432299	0.281445
765.627457	0.281581
765.822597	0.281345
766.017719	0.281302
766.212822	0.281211
766.407907	0.280998
766.602974	0.280858
766.798023	0.280521
766.993054	0.280452
767.188066	0.280320
767.383060	0.280137
767.578036	0.280016
767.772993	0.280117
767.967933	0.280154
768.162854	0.280318
768.357757	0.280250
768.552642	0.280416
768.747508	0.280537
768.942356	0.280631
769.137186	0.280443
769.331998	0.280378
769.526792	0.280302
769.721567	0.280226
769.916324	0.279939
770.111063	0.279671
770.305784	0.279197
770.500486	0.278677
770.695171	0.278383
770.889837	0.278418
771.084484	0.278180
771.279114	0.278190
771.473725	0.277856
771.668318	0.277701
771.862893	0.277671
772.057450	0.277595
772.251988	0.277733
772.446509	0.277677
772.641011	0.277372
772.835494	0.277594
773.029960	0.277491
773.224407	0.277510
773.418836	0.277618
773.613247	0.277409
773.807640	0.277514
774.002014	0.277374
774.196370	0.277493
774.390708	0.277452
774.585028	0.277149
774.779330	0.277016
774.973613	0.276902
775.167878	0.276694
775.362125	0.276821
775.556354	0.277086
775.750564	0.277190
775.944756	0.277126
776.138930	0.277215
776.333086	0.277405
776.527223	0.277257
776.721343	0.277310
776.915444	0.277442
777.109526	0.277526
777.303591	0.277264
777.497637	0.277149
777.691666	0.277284
777.885676	0.277192
778.079667	0.276991
778.273641	0.276899
778.467596	0.276742
778.661533	0.276704
778.855452	0.276422
779.049352	0.276166
779.243235	0.276009
779.437099	0.275762
779.630945	0.276091
779.824773	0.276027
780.018582	0.276328
780.212373	0.276532
780.406146	0.276594
780.599901	0.276899
780.793638	0.277294
780.987356	0.277519
781.181056	0.277649
781.374738	0.277632
781.568402	0.277981
781.762047	0.278118
781.955674	0.278159
782.149283	0.278053
782.342874	0.277954
782.536447	0.278020
782.730001	0.278147
782.923537	0.278148
783.117055	0.278074
783.310555	0.278115
783.504036	0.277820
783.697499	0.277915
783.890944	0.278155
784.084371	0.278137
784.277780	0.278028
784.471170	0.277911
784.664542	0.278184
784.857896	0.278303
785.051231	0.277990
785.244549	0.278484
785.437848	0.278444
785.631129	0.278490
785.824392	0.278583
786.017636	0.278653
786.210863	0.278828
786.404071	0.278802
786.597260	0.279139
786.790432	0.279461
786.983585	0.279215
787.176721	0.279209
787.369838	0.279283
787.562936	0.279592
787.756017	0.279617
787.949079	0.279600
788.142123	0.279871
788.335149	0.279649
788.528156	0.279906
788.721146	0.280376
788.914117	0.280683
789.107070	0.280769
789.300005	0.280714
789.492921	0.280922
789.685819	0.281284
789.878699	0.281006
790.071561	0.281019
790.264405	0.280961
790.457230	0.280684
790.650037	0.280888
790.842826	0.281223
791.035597	0.281565
791.228349	0.282046
791.421084	0.282162
791.613800	0.282360
791.806497	0.282677
791.999177	0.282913
792.191838	0.283182
792.384481	0.283002
792.577106	0.282818
792.769713	0.282986
792.962301	0.282681
793.154871	0.282565
793.347423	0.282744
793.539957	0.283157
793.732473	0.283171
793.924970	0.283208
794.117449	0.283364
794.309910	0.283417
794.502353	0.283246
794.694777	0.283647
794.887183	0.283836
795.079571	0.284054
795.271941	0.283471
795.464293	0.283658
795.656626	0.283839
795.848941	0.283993
796.041238	0.284302
796.233516	0.284473
796.425777	0.284403
796.618019	0.284422
796.810243	0.284620
797.002449	0.285203
797.194636	0.285302
797.386805	0.285403
797.578956	0.285864
797.771089	0.286026
797.963204	0.286302
798.155300	0.286383
798.347378	0.286726
798.539438	0.286889
798.731480	0.287147
798.923503	0.287388
799.115509	0.287535
799.307496	0.287725
799.499465	0.287934
799.691415	0.287742
799.883348	0.288055
800.075262	0.288268
800.267158	0.288232
800.459035	0.288506
800.650895	0.288331
800.842736	0.288598
801.034559	0.288783
801.226364	0.288988
801.418150	0.289625
801.609919	0.290054
801.801669	0.290192
801.993401	0.290672
802.185114	0.290705
802.376810	0.291302
802.568487	0.291647
802.760146	0.291715
802.951787	0.292102
803.143409	0.292258
803.335014	0.292455
803.526600	0.292571
803.718168	0.292669
803.909717	0.292584
804.101249	0.292859
804.292762	0.293217
804.484257	0.293490
804.675734	0.293580
804.867192	0.293917
805.058632	0.294098
805.250054	0.294783
805.441458	0.295206
805.632844	0.295694
805.824211	0.296141
806.015561	0.296223
806.206891	0.296481
806.398204	0.296493
806.589499	0.296637
806.780775	0.296445
806.972033	0.296487
807.163273	0.296701
807.354495	0.297274
807.545698	0.297226
807.736883	0.297369
807.928050	0.297735
808.119199	0.298244
808.310329	0.298403
808.501441	0.298891
808.692535	0.299253
808.883611	0.299469
809.074669	0.299499
809.265708	0.299581
809.456729	0.299645
809.647732	0.299848
809.838717	0.300120
810.029683	0.300645
810.220632	0.300849
810.411562	0.301141
810.602474	0.301426
810.793367	0.301969
810.984242	0.302474
811.175100	0.303012
811.365938	0.303440
811.556759	0.303760
811.747562	0.303732
811.938346	0.304464
812.129112	0.304802
812.319860	0.305172
812.510589	0.305394
812.701300	0.305566
812.891994	0.306121
813.082668	0.306207
813.273325	0.306515
813.463964	0.307082
813.654584	0.307384
813.845186	0.307344
814.035769	0.307667
814.226335	0.307645
814.416882	0.308263
814.607411	0.308191
814.797922	0.308456
814.988415	0.308657
815.178889	0.309060
815.369345	0.309186
815.559783	0.309534
815.750203	0.309744
815.940605	0.310276
816.130988	0.310171
816.321353	0.310688
816.511700	0.311125
816.702028	0.311730
816.892339	0.312246
817.082631	0.312401
817.272905	0.312689
817.463161	0.313189
817.653398	0.313480
817.843617	0.314410
818.033819	0.314914
818.224001	0.315153
818.414166	0.315586
818.604312	0.315726
818.794440	0.316354
818.984550	0.317158
819.174642	0.317466
819.364716	0.317919
819.554771	0.318081
819.744808	0.318768
819.934827	0.319260
820.124827	0.319559
820.314810	0.319836
820.504774	0.320185
820.694720	0.320290
820.884647	0.320454
821.074557	0.320954
821.264448	0.321496
821.454321	0.321454
821.644176	0.321926
821.834012	0.321935
822.023831	0.322462
822.213631	0.323019
822.403413	0.323045
822.593176	0.323373
822.782922	0.323625
822.972649	0.323743
823.162358	0.324349
823.352049	0.324670
823.541721	0.325053
823.731376	0.325425
823.921012	0.325335
824.110629	0.325938
824.300229	0.326509
824.489811	0.326707
824.679374	0.327292
824.868919	0.327446
825.058445	0.327513
825.247954	0.328183
825.437444	0.328308
825.626916	0.328918
825.816370	0.329306
826.005806	0.329778
826.195223	0.330282
826.384622	0.330462
826.574003	0.330747
826.763366	0.331183
826.952711	0.331300
827.142037	0.331849
827.331345	0.332250
827.520635	0.332734
827.709906	0.332744
827.899160	0.333170
828.088395	0.333584
828.277612	0.333960
828.466810	0.334719
828.655991	0.335178
828.845153	0.335385
829.034297	0.335460
829.223423	0.335702
829.412531	0.336351
829.601620	0.336633
829.790691	0.336945
829.979744	0.337237
830.168779	0.337442
830.357795	0.337857
830.546793	0.338458
830.735773	0.338954
830.924735	0.339463
831.113679	0.339683
831.302604	0.340276
831.491511	0.340909
831.680400	0.341805
831.869271	0.342217
832.058123	0.342805
832.246957	0.343091
832.435773	0.343693
832.624571	0.344359
832.813351	0.344891
833.002112	0.345336
833.190855	0.345698
833.379580	0.345888
833.568287	0.346326
833.756975	0.346590
833.945645	0.347097
834.134297	0.347545
834.322931	0.347759
834.511547	0.348316
834.700144	0.348592
834.888723	0.348979
835.077284	0.349601
835.265826	0.350230
835.454351	0.350621
835.642857	0.350971
835.831345	0.351445
836.019815	0.351882
836.208266	0.352750
836.396699	0.353373
836.585114	0.353625
836.773511	0.354004
836.961890	0.354280
837.150250	0.354797
837.338592	0.355250
837.526916	0.355963
837.715222	0.356655
837.903510	0.356549
838.091779	0.356933
838.280030	0.357529
838.468263	0.357845
838.656477	0.358111
838.844674	0.358250
839.032852	0.358646
839.221012	0.358888
839.409153	0.359019
839.597277	0.359504
839.785382	0.359731
839.973469	0.360296
840.161538	0.360647
840.349589	0.361368
840.537621	0.362145
840.725635	0.362718
840.913631	0.362926
841.101609	0.363397
841.289568	0.363750
841.477509	0.364462
841.665432	0.364783
841.853337	0.365189
842.041224	0.365601
842.229092	0.366052
842.416942	0.366722
842.604774	0.367489
842.792588	0.368220
842.980383	0.368645
843.168160	0.369263
843.355919	0.369282
843.543660	0.369930
843.731382	0.370629
843.919087	0.371399
844.106773	0.371586
844.294441	0.372186
844.482090	0.372735
844.669722	0.373354
844.857335	0.373424
845.044930	0.374400
845.232507	0.374902
845.420065	0.375350
845.607605	0.375579
845.795127	0.376203
845.982631	0.376400
846.170117	0.376435
846.357584	0.377000
846.545033	0.377685
846.732464	0.378075
846.919877	0.378537
847.107272	0.379196
847.294648	0.379683
847.482006	0.379941
847.669346	0.380493
847.856667	0.381251
848.043971	0.381481
848.231256	0.381605
848.418523	0.382053
848.605771	0.382545
848.793002	0.382491
848.980214	0.382765
849.167408	0.383232
849.354584	0.383672
849.541742	0.383838
849.728881	0.384492
849.916002	0.384999
850.103105	0.385744
850.290190	0.385977
850.477256	0.386859
850.664304	0.387398
850.851334	0.387981
851.038346	0.388607
851.225340	0.389281
851.412315	0.389681
851.599272	0.390264
851.786211	0.390048
851.973132	0.390282
852.160034	0.390281
852.346918	0.390630
852.533784	0.391071
852.720632	0.391582
852.907462	0.392153
853.094273	0.392517
853.281066	0.392997
853.467841	0.394009
853.654598	0.394939
853.841336	0.395668
854.028056	0.396472
854.214758	0.397079
854.401442	0.397294
854.588107	0.397525
854.774755	0.398192
854.961384	0.398586
855.147995	0.398860
855.334587	0.399176
855.521162	0.399235
855.707718	0.399392
855.894256	0.399178
856.080775	0.399585
856.267277	0.399981
856.453760	0.400218
856.640225	0.400630
856.826672	0.401111
857.013101	0.401140
857.199511	0.401792
857.385903	0.402580
857.572277	0.403578
857.758633	0.404151
857.944970	0.404898
858.131290	0.405941
858.317591	0.406587
858.503873	0.406931
858.690138	0.408059
858.876384	0.408795
859.062612	0.409097
859.248822	0.409753
859.435014	0.409956
859.621188	0.410730
859.807343	0.410549
859.993480	0.410821
860.179599	0.411555
860.365699	0.411900
860.551781	0.411930
860.737846	0.412149
860.923891	0.412187
861.109919	0.412713
861.295929	0.412799
861.481920	0.413189
861.667893	0.413617
861.853848	0.413687
862.039784	0.413492
862.225702	0.414021
862.411603	0.414419
862.597484	0.414834
862.783348	0.414996
862.969193	0.414927
863.155021	0.415434
863.340830	0.415744
863.526620	0.416211
863.712393	0.416819
863.898147	0.416889
864.083883	0.417784
864.269601	0.418352
864.455301	0.418908
864.640982	0.419606
864.826645	0.420324
865.012290	0.420906
865.197917	0.421358
865.383526	0.421911
865.569116	0.422559
865.754688	0.421925
865.940242	0.421934
866.125777	0.422413
866.311295	0.422999
866.496794	0.423423
866.682275	0.423889
866.867737	0.424102
867.053182	0.424406
867.238608	0.424669
867.424016	0.425323
867.609406	0.425889
867.794778	0.425898
867.980131	0.425890
868.165466	0.425719
868.350783	0.426155
868.536082	0.426425
868.721362	0.426080
868.906625	0.426406
869.091869	0.426908
869.277094	0.427204
869.462302	0.427775
869.647491	0.428394
869.832662	0.428715
870.017815	0.429132
870.202950	0.429650
870.388066	0.430587
870.573165	0.430528
870.758245	0.431057
870.943306	0.431265
871.128350	0.431632
871.313375	0.431609
871.498382	0.432027
871.683371	0.432071
871.868342	0.432117
872.053294	0.432512
872.238229	0.433538
872.423144	0.433298
872.608042	0.433243
872.792922	0.433388
872.977783	0.433897
873.162626	0.434023
873.347451	0.434368
873.532258	0.434681
873.717046	0.435140
873.901816	0.435335
874.086568	0.435928
874.271302	0.436651
874.456017	0.436719
874.640715	0.436866
874.825394	0.437192
875.010055	0.437299
875.194697	0.437530
875.379322	0.437855
875.563928	0.437731
875.748516	0.438079
875.933085	0.438102
876.117637	0.438709
876.302170	0.439145
876.486685	0.439652
876.671182	0.439954
876.855661	0.440556
877.040121	0.440371
877.224563	0.440537
877.408987	0.441035
877.593393	0.441741
877.777780	0.441636
877.962150	0.441501
878.146501	0.441793
878.330833	0.442292
878.515148	0.442813
878.699444	0.443174
878.883722	0.443236
879.067982	0.443169
879.252224	0.442844
879.436447	0.443415
879.620653	0.443759
879.804840	0.443343
879.989008	0.443041
880.173159	0.442877
880.357291	0.442801
880.541405	0.443539
880.725501	0.443310
880.909579	0.444056
881.093638	0.444402
881.277680	0.444854
881.461703	0.445513
881.645707	0.445222
881.829694	0.445190
882.013662	0.445735
882.197612	0.445922
882.381544	0.446263
882.565458	0.446197
882.749353	0.446035
882.933230	0.446028
883.117089	0.446266
883.300930	0.446745
883.484753	0.446427
883.668557	0.446554
883.852343	0.446459
884.036111	0.447136
884.219861	0.447090
884.403592	0.447102
884.587305	0.447035
884.771000	0.446551
884.954677	0.446685
885.138335	0.447144
885.321976	0.447448
885.505598	0.447919
885.689201	0.447395
885.872787	0.447044
886.056354	0.447166
886.239904	0.446832
886.423434	0.446975
886.606947	0.447358
886.790442	0.447491
886.973918	0.446949
887.157376	0.446515
887.340816	0.446513
887.524237	0.447130
887.707641	0.447116
887.891026	0.447380
888.074393	0.447673
888.257741	0.447366
888.441072	0.447022
888.624384	0.446883
888.807678	0.446876
888.990954	0.447189
889.174211	0.446783
889.357451	0.447071
889.540672	0.446833
889.723875	0.446818
889.907059	0.446558
890.090226	0.446579
890.273374	0.447027
890.456504	0.446957
890.639616	0.446912
890.822709	0.446827
891.005785	0.445987
891.188842	0.446081
891.371881	0.446336
891.554901	0.447162
891.737904	0.447654
891.920888	0.447763
892.103854	0.448125
892.286802	0.448101
892.469731	0.448522
892.652643	0.449360
892.835536	0.449763
893.018410	0.449576
893.201267	0.449234
893.384106	0.448824
893.566926	0.448348
893.749728	0.447676
893.932511	0.447210
894.115277	0.446873
894.298024	0.446366
894.480753	0.446450
894.663464	0.446124
894.846157	0.446078
895.028831	0.445899
895.211487	0.445559
895.394125	0.445949
895.576745	0.445396
895.759346	0.445092
895.941930	0.444856
896.124495	0.444498
896.307041	0.444463
896.489570	0.444273
896.672080	0.444459
896.854573	0.444463
897.037046	0.443769
897.219502	0.444246
897.401940	0.444311
897.584359	0.444562
897.766760	0.444112
897.949143	0.443933
898.131507	0.443854
898.313854	0.443713
898.496182	0.443705
898.678492	0.443489
898.860783	0.443761
899.043057	0.443645
899.225312	0.443186
899.407549	0.443462
899.589768	0.442849
899.771968	0.442369
899.954151	0.441923
900.136315	0.441244
900.318461	0.441292
900.500588	0.440809
900.682698	0.440673
900.864789	0.440459
901.046862	0.439737
901.228917	0.440472
901.410953	0.439913
901.592971	0.439550
901.774972	0.439927
901.956953	0.439491
902.138917	0.439079
902.320862	0.438477
902.502790	0.438228
902.684699	0.438167
902.866589	0.437303
903.048462	0.437463
903.230316	0.436955
903.412152	0.436907
903.593970	0.436466
903.775770	0.436288
903.957551	0.436210
904.139314	0.435594
904.321059	0.435603
904.502786	0.434889
904.684494	0.434892
904.866185	0.435023
905.047857	0.433918
905.229510	0.434163
905.411146	0.433642
905.592763	0.433557
905.774363	0.433417
905.955943	0.432694
906.137506	0.432315
906.319051	0.431661
906.500577	0.431191
906.682085	0.430917
906.863575	0.430438
907.045046	0.430044
907.226500	0.429097
907.407935	0.428514
907.589352	0.427576
907.770750	0.427971
907.952131	0.426820
908.133493	0.426066
908.314837	0.425462
908.496163	0.424123
908.677470	0.423394
908.858760	0.422699
909.040031	0.422471
909.221284	0.422312
909.402518	0.421006
909.583735	0.421006
909.764933	0.421102
909.946113	0.420777
910.127275	0.420732
910.308418	0.420343
910.489544	0.420479
910.670651	0.420074
910.851740	0.419738
911.032810	0.419622
911.213863	0.419101
911.394897	0.418506
911.575913	0.418336
911.756911	0.418246
911.937890	0.417720
912.118851	0.416658
912.299794	0.415774
912.480719	0.414847
912.661626	0.414480
912.842514	0.413889
913.023384	0.413647
913.204236	0.412782
913.385070	0.412139
913.565886	0.411345
913.746683	0.411148
913.927462	0.411187
914.108223	0.410291
914.288965	0.409306
914.469690	0.408385
914.650396	0.406154
914.831084	0.405357
915.011754	0.404319
915.192405	0.403893
915.373038	0.403404
915.553653	0.402346
915.734250	0.402410
915.914829	0.401462
916.095389	0.400915
916.275931	0.401122
916.456455	0.400149
916.636961	0.399975
916.817448	0.398734
916.997917	0.398203
917.178368	0.396881
917.358801	0.395590
917.539216	0.395013
917.719612	0.394705
917.899990	0.394402
918.080350	0.394255
918.260692	0.392933
918.441015	0.392823
918.621320	0.391704
918.801607	0.391067
918.981876	0.390193
919.162127	0.389406
919.342359	0.388620
919.522573	0.387277
919.702769	0.386930
919.882947	0.386727
920.063106	0.385898
920.243247	0.384744
920.423370	0.383560
920.603475	0.383758
920.783562	0.383375
920.963630	0.382325
921.143680	0.382184
921.323712	0.380936
921.503725	0.380011
921.683721	0.378689
921.863698	0.377794
922.043657	0.377775
922.223598	0.375828
922.403520	0.374790
922.583424	0.374002
922.763311	0.372316
922.943178	0.372181
923.123028	0.371124
923.302859	0.370644
923.482673	0.369695
923.662467	0.369406
923.842244	0.369843
924.022003	0.369052
924.201743	0.367754
924.381465	0.366537
924.561169	0.365189
924.740854	0.364667
924.920522	0.363901
925.100171	0.363226
925.279802	0.361862
925.459414	0.360438
925.639009	0.359286
925.818585	0.358833
925.998143	0.359584
926.177683	0.358375
926.357205	0.357968
926.536708	0.357625
926.716193	0.356771
926.895660	0.356584
927.075109	0.355523
927.254539	0.354974
927.433951	0.354154
927.613345	0.352239
927.792721	0.351397
927.972079	0.350105
928.151418	0.349234
928.330739	0.348980
928.510042	0.348058
928.689327	0.347071
928.868593	0.346106
929.047841	0.344732
929.227071	0.344189
929.406283	0.343264
929.585476	0.342415
929.764652	0.340768
929.943809	0.339637
930.122948	0.338118
930.302068	0.337385
930.481171	0.336248
930.660255	0.335543
930.839321	0.334617
931.018369	0.333633
931.197398	0.331795
931.376409	0.331365
931.555402	0.330527
931.734377	0.328593
931.913334	0.327989
932.092272	0.326824
932.271192	0.326077
932.450094	0.325506
932.628978	0.324799
932.807844	0.324228
932.986691	0.322946
933.165520	0.321221
933.344331	0.320395
933.523123	0.319320
933.701898	0.318846
933.880654	0.316724
934.059392	0.315378
934.238111	0.313818
934.416813	0.312732
934.595496	0.312359
934.774161	0.312706
934.952808	0.312394
935.131437	0.311280
935.310047	0.310542
935.488639	0.310005
935.667213	0.307570
935.845769	0.306195
936.024306	0.305497
936.202825	0.303608
936.381326	0.300669
936.559809	0.300107
936.738274	0.298696
936.916720	0.296664
937.095148	0.296659
937.273558	0.297024
937.451950	0.296797
937.630323	0.295611
937.808678	0.294086
937.987015	0.294544
938.165334	0.293076
938.343635	0.292448
938.521917	0.292046
938.700181	0.291244
938.878427	0.289378
939.056655	0.288592
939.234864	0.286751
939.413055	0.286309
939.591228	0.284735
939.769383	0.283427
939.947519	0.281563
940.125638	0.280401
940.303738	0.278438
940.481820	0.277679
940.659883	0.276262
940.837929	0.276452
941.015956	0.275650
941.193965	0.274536
941.371955	0.273077
941.549928	0.271712
941.727882	0.271432
941.905818	0.269631
942.083736	0.269148
942.261636	0.267570
942.439517	0.265096
942.617380	0.264044
942.795225	0.262325
942.973052	0.260985
943.150860	0.259873
943.328651	0.256384
943.506423	0.255579
943.684176	0.253842
943.861912	0.252938
944.039629	0.253281
944.217328	0.252078
944.395009	0.250874
944.572672	0.248370
944.750317	0.247666
944.927943	0.245780
945.105551	0.244312
945.283141	0.242038
945.460712	0.241210
945.638265	0.239016
945.815801	0.236796
945.993317	0.236220
946.170816	0.235954
946.348297	0.234025
946.525759	0.233633
946.703203	0.231887
946.880629	0.232089
947.058036	0.229693
947.235425	0.226827
947.412797	0.226033
947.590149	0.224341
947.767484	0.223331
947.944800	0.223405
948.122099	0.223642
948.299379	0.221914
948.476640	0.219133
948.653884	0.218569
948.831109	0.218289
949.008316	0.217392
949.185505	0.217844
949.362676	0.215839
949.539828	0.212429
949.716962	0.210477
949.894078	0.210640
950.071176	0.209767
950.248256	0.208731
950.425317	0.208504
950.602360	0.205181
950.779385	0.202714
950.956391	0.203459
951.133380	0.203110
951.310350	0.202357
951.487302	0.201231
951.664235	0.201380
951.841151	0.199036
952.018048	0.197056
952.194927	0.197875
952.371788	0.196729
952.548631	0.194719
952.725455	0.193485
952.902261	0.191231
953.079049	0.189793
953.255819	0.188722
953.432570	0.187996
953.609303	0.187101
953.786018	0.185120
953.962715	0.183412
954.139394	0.181860
954.316054	0.180085
954.492696	0.179195
954.669320	0.178865
954.845926	0.177803
955.022513	0.178451
955.199083	0.176527
955.375634	0.175187
955.552166	0.175048
955.728681	0.174111
955.905177	0.176547
956.081655	0.175262
956.258115	0.173490
956.434557	0.172742
956.610980	0.169545
956.787385	0.169718
956.963772	0.170897
957.140141	0.169169
957.316492	0.168097
957.492824	0.164303
957.669138	0.163077
957.845434	0.161814
958.021712	0.160110
958.197971	0.160495
958.374212	0.157763
958.550435	0.154205
958.726640	0.152919
958.902826	0.151793
959.078995	0.152400
959.255145	0.153437
959.431277	0.154274
959.607390	0.153056
959.783486	0.151131
959.959563	0.152586
960.135622	0.152524
960.311662	0.150829
960.487685	0.151371
960.663689	0.150456
960.839675	0.147187
961.015643	0.143784
961.191593	0.145094
961.367524	0.145714
961.543437	0.145412
961.719332	0.145414
961.895209	0.146517
962.071067	0.147146
962.246907	0.145932
962.422730	0.150187
962.598533	0.150697
962.774319	0.148234
962.950086	0.147995
963.125835	0.147394
963.301566	0.146139
963.477279	0.145903
963.652973	0.143779
963.828650	0.144869
964.004308	0.142450
964.179947	0.143015
964.355569	0.143450
964.531172	0.142353
964.706757	0.141515
964.882324	0.142844
965.057873	0.141245
965.233403	0.139926
965.408916	0.139557
965.584410	0.137310
965.759885	0.135421
965.935343	0.135581
966.110782	0.134941
966.286203	0.136678
966.461606	0.136196
966.636991	0.136241
966.812357	0.138431
966.987705	0.138350
967.163035	0.140538
967.338347	0.140419
967.513641	0.140136
967.688916	0.139425
967.864173	0.137624
968.039412	0.136699
968.214632	0.134311
968.389835	0.132290
968.565019	0.128999
968.740185	0.129108
968.915333	0.129866
969.090462	0.130282
969.265573	0.131504
969.440667	0.131900
969.615741	0.133720
969.790798	0.133193
969.965836	0.133662
970.140856	0.135535
970.315858	0.135985
970.490842	0.137310
970.665808	0.136858
970.840755	0.137436
971.015684	0.138368
971.190595	0.135918
971.365487	0.138923
971.540362	0.138905
971.715218	0.138965
971.890056	0.138254
972.064875	0.138270
972.239677	0.136281
972.414460	0.134914
972.589225	0.136266
972.763972	0.133678
972.938700	0.132997
973.113411	0.134075
973.288103	0.133601
973.462777	0.133598
973.637432	0.131708
973.812070	0.133968
973.986689	0.133909
974.161290	0.131073
974.335873	0.134285
974.510437	0.134001
974.684984	0.133488
974.859512	0.133785
975.034022	0.133799
975.208513	0.134533
975.382987	0.131586
975.557442	0.132326
975.731879	0.132734
975.906298	0.132672
976.080698	0.133159
976.255080	0.132874
976.429445	0.131980
976.603790	0.130902
976.778118	0.131425
976.952427	0.134612
977.126719	0.133295
977.300992	0.132679
977.475246	0.133118
977.649483	0.134930
977.823701	0.133983
977.997901	0.136004
978.172083	0.134722
978.346247	0.134248
978.520392	0.131543
978.694519	0.133135
978.868628	0.134484
979.042719	0.135089
979.216791	0.134056
979.390845	0.133727
979.564882	0.132023
979.738899	0.131270
979.912899	0.131680
980.086880	0.131886
980.260843	0.132142
980.434788	0.132787
980.608715	0.132642
980.782623	0.131782
980.956514	0.132561
981.130386	0.132335
981.304240	0.134749
981.478075	0.134460
981.651892	0.136125
981.825692	0.134953
981.999472	0.134587
982.173235	0.134426
982.346980	0.136073
982.520706	0.137104
982.694414	0.136892
982.868104	0.136690
983.041775	0.136912
983.215428	0.136265
983.389064	0.135839
983.562680	0.134591
983.736279	0.133995
983.909860	0.133462
984.083422	0.132963
984.256966	0.134393
984.430491	0.134918
984.603999	0.134312
984.777488	0.135126
984.950959	0.136664
985.124412	0.136683
985.297847	0.137112
985.471263	0.136912
985.644661	0.136269
985.818041	0.134502
985.991403	0.135018
986.164747	0.135032
986.338072	0.134991
986.511379	0.133710
986.684668	0.133449
986.857938	0.132778
987.031191	0.134781
987.204425	0.135776
987.377641	0.137111
987.550839	0.135723
987.724018	0.136571
987.897179	0.135451
988.070322	0.135416
988.243447	0.135950
988.416554	0.136454
988.589642	0.134512
988.762712	0.133565
988.935764	0.134996
989.108798	0.133875
989.281813	0.133177
989.454811	0.134837
989.627790	0.135246
989.800751	0.135513
989.973693	0.136116
990.146617	0.136189
990.319524	0.137140
990.492412	0.134391
990.665281	0.135902
990.838133	0.137923
991.010966	0.136106
991.183781	0.136320
991.356578	0.135926
991.529356	0.134400
991.702117	0.134305
991.874859	0.135487
992.047583	0.137052
992.220288	0.137376
992.392976	0.134787
992.565645	0.136059
992.738296	0.134193
992.910929	0.133184
993.083543	0.135030
993.256139	0.135203
993.428718	0.133579
993.601277	0.134601
993.773819	0.135099
993.946342	0.134729
994.118848	0.133469
994.291335	0.134165
994.463803	0.134607
994.636254	0.134989
994.808686	0.136441
994.981100	0.137562
995.153496	0.136313
995.325874	0.137257
995.498233	0.136956
995.670574	0.137644
995.842897	0.139143
996.015202	0.139148
996.187488	0.137611
996.359757	0.135211
996.532007	0.135837
996.704239	0.136069
996.876452	0.134538
997.048648	0.135032
997.220825	0.135622
997.392984	0.136213
997.565124	0.138166
997.737247	0.140446
997.909351	0.141740
998.081437	0.139564
998.253505	0.140888
998.425554	0.142237
998.597586	0.142904
998.769599	0.144344
998.941594	0.143673
999.113571	0.141601
999.285529	0.140803
999.457469	0.139725
999.629391	0.138159
999.801295	0.136052
999.973181	0.134886
1000.145048	0.134979
1000.316897	0.131104
1000.488728	0.129679
1000.660541	0.130035
1000.832335	0.128091
1001.004111	0.127383
1001.175869	0.127854
1001.347609	0.128651
1001.519331	0.128037
1001.691034	0.128045
1001.862719	0.128483
1002.034386	0.130211
1002.206035	0.130525
1002.377665	0.133435
1002.549277	0.135619
1002.720871	0.137633
1002.892447	0.137859
1003.064004	0.138056
1003.235544	0.137694
1003.407065	0.140774
1003.578568	0.140979
1003.750052	0.140873
1003.921519	0.138949
1004.092967	0.138851
1004.264397	0.138524
1004.435809	0.138311
1004.607202	0.138131
1004.778577	0.139654
1004.949934	0.137461
1005.121273	0.136324
1005.292594	0.137751
1005.463896	0.138488
1005.635180	0.138272
1005.806446	0.138053
1005.977694	0.136687
1006.148923	0.136329
1006.320135	0.133927
1006.491328	0.133651
1006.662503	0.134804
1006.833659	0.132805
1007.004798	0.131702
1007.175918	0.131203
1007.347020	0.131293
1007.518103	0.133531
1007.689169	0.135390
1007.860216	0.136265
1008.031245	0.137265
1008.202256	0.136649
1008.373248	0.136393
1008.544223	0.136758
1008.715179	0.136237
1008.886117	0.136013
1009.057036	0.136535
1009.227938	0.134836
1009.398821	0.136242
1009.569686	0.136125
1009.740533	0.135268
1009.911361	0.133907
1010.082172	0.133709
1010.252964	0.133122
1010.423738	0.132164
1010.594493	0.129448
1010.765231	0.130290
1010.935950	0.130450
1011.106651	0.130938
1011.277334	0.131510
1011.447998	0.133685
1011.618645	0.133133
1011.789273	0.133902
1011.959882	0.136523
1012.130474	0.137198
1012.301048	0.137036
1012.471603	0.135033
1012.642140	0.134610
1012.812658	0.133690
1012.983159	0.132467
1013.153641	0.132439
1013.324105	0.133266
1013.494551	0.130998
1013.664979	0.131067
1013.835388	0.130059
1014.005779	0.131791
1014.176152	0.130201
1014.346507	0.131438
1014.516843	0.133485
1014.687162	0.134138
1014.857462	0.133876
1015.027744	0.132953
1015.198007	0.133497
1015.368252	0.135729
1015.538480	0.135194
1015.708689	0.136008
1015.878879	0.134677
1016.049052	0.133639
1016.219206	0.133442
1016.389342	0.132114
1016.559460	0.133490
1016.729559	0.133929
1016.899641	0.132822
1017.069704	0.133055
1017.239749	0.133442
1017.409775	0.134216
1017.579784	0.135203
1017.749774	0.134710
1017.919746	0.136794
1018.089700	0.136379
1018.259635	0.134586
1018.429553	0.133404
1018.599452	0.132743
1018.769333	0.135625
1018.939195	0.135658
1019.109040	0.135575
1019.278866	0.138199
1019.448674	0.136141
1019.618464	0.136947
1019.788235	0.139501
1019.957989	0.139286
1020.127724	0.140137
1020.297441	0.137211
1020.467139	0.137476
1020.636820	0.136661
1020.806482	0.134013
1020.976126	0.134801
1021.145752	0.134256
1021.315359	0.132468
1021.484948	0.133086
1021.654519	0.133063
1021.824072	0.132549
1021.993607	0.132539
1022.163123	0.132123
1022.332621	0.132574
1022.502101	0.131206
1022.671563	0.130726
1022.841007	0.130847
1023.010432	0.132053
1023.179839	0.132723
1023.349228	0.133346
1023.518598	0.132311
1023.687951	0.133424
1023.857285	0.133813
1024.026601	0.135101
1024.195899	0.137224
1024.365178	0.138356
1024.534439	0.137115
1024.703682	0.136756
1024.872907	0.137898
1025.042114	0.138427
1025.211302	0.138886
1025.380472	0.138206
1025.549624	0.136764
1025.718758	0.135048
1025.887873	0.135380
1026.056970	0.136018
1026.226049	0.134829
1026.395110	0.134398
1026.564153	0.134462
1026.733177	0.132952
1026.902183	0.132823
1027.071171	0.135656
1027.240141	0.136126
1027.409092	0.133302
1027.578026	0.133345
1027.746940	0.131604
1027.915837	0.130534
1028.084716	0.131459
1028.253576	0.132018
1028.422418	0.132056
1028.591242	0.131239
1028.760048	0.131198
1028.928835	0.133342
1029.097604	0.133906
1029.266355	0.134621
1029.435088	0.134747
1029.603803	0.133609
1029.772499	0.133373
1029.941177	0.134456
1030.109837	0.134894
1030.278478	0.134488
1030.447102	0.134575
1030.615707	0.132371
1030.784294	0.133187
1030.952863	0.132141
1031.121413	0.132237
1031.289945	0.131483
1031.458460	0.129416
1031.626955	0.128957
1031.795433	0.129108
1031.963892	0.128729
1032.132334	0.131329
1032.300756	0.130381
1032.469161	0.131647
1032.637548	0.129730
1032.805916	0.129669
1032.974266	0.131453
1033.142598	0.128582
1033.310911	0.128880
1033.479207	0.127824
1033.647484	0.126585
1033.815743	0.127079
1033.983983	0.126081
1034.152206	0.128192
1034.320410	0.130111
1034.488596	0.129508
1034.656764	0.131498
1034.824914	0.130367
1034.993045	0.131237
1035.161158	0.129899
1035.329253	0.129829
1035.497330	0.133042
1035.665388	0.133441
1035.833428	0.133123
1036.001450	0.133143
1036.169454	0.135606
1036.337440	0.137136
1036.505407	0.137490
1036.673356	0.140538
1036.841287	0.141433
1037.009200	0.138248
1037.177094	0.137233
1037.344970	0.136956
1037.512828	0.137134
1037.680668	0.133999
1037.848489	0.134392
1038.016293	0.133793
1038.184078	0.131943
1038.351845	0.135073
1038.519593	0.134952
1038.687324	0.137110
1038.855036	0.136228
1039.022730	0.136532
1039.190406	0.136605
1039.358063	0.134649
1039.525702	0.133075
1039.693323	0.133958
1039.860926	0.129465
1040.028511	0.128562
1040.196077	0.125474
1040.363625	0.125435
1040.531155	0.126695
1040.698667	0.129128
1040.866161	0.130183
1041.033636	0.130430
1041.201093	0.130072
1041.368532	0.129917
1041.535952	0.131622
1041.703355	0.135443
1041.870739	0.134027
1042.038105	0.132572
1042.205452	0.132513
1042.372782	0.130570
1042.540093	0.132564
1042.707386	0.133125
1042.874661	0.135399
1043.041918	0.135143
1043.209156	0.131136
1043.376376	0.132057
1043.543578	0.133075
1043.710762	0.131557
1043.877927	0.133360
1044.045074	0.134953
1044.212203	0.134876
1044.379314	0.135067
1044.546407	0.134533
1044.713481	0.135547
1044.880537	0.135392
1045.047575	0.133818
1045.214595	0.134919
1045.381596	0.135529
1045.548579	0.133660
1045.715544	0.132119
1045.882491	0.130380
1046.049420	0.130447
1046.216330	0.132482
1046.383222	0.132005
1046.550096	0.132444
1046.716951	0.131948
1046.883789	0.130415
1047.050608	0.130396
1047.217409	0.130440
1047.384192	0.130194
1047.550956	0.132104
1047.717703	0.129828
1047.884431	0.131946
1048.051140	0.130463
1048.217832	0.130238
1048.384505	0.131473
1048.551161	0.131385
1048.717798	0.132543
1048.884416	0.134258
1049.051017	0.134062
1049.217599	0.134581
1049.384163	0.133474
1049.550709	0.133083
1049.717237	0.131890
1049.883746	0.131616
1050.050237	0.130345
1050.216710	0.131896
1050.383165	0.129846
1050.549601	0.129605
1050.716019	0.130341
1050.882420	0.130451
1051.048801	0.131992
1051.215165	0.133979
1051.381510	0.134631
1051.547837	0.135005
1051.714146	0.134400
1051.880437	0.135155
1052.046709	0.133353
1052.212964	0.133022
1052.379200	0.132581
1052.545417	0.134279
1052.711617	0.132909
1052.877798	0.131256
1053.043961	0.130322
1053.210106	0.128492
1053.376233	0.129401
1053.542341	0.131081
1053.708432	0.132069
1053.874504	0.131228
1054.040557	0.130741
1054.206593	0.131263
1054.372610	0.131462
1054.538609	0.133537
1054.704590	0.133846
1054.870553	0.133458
1055.036497	0.133099
1055.202424	0.132098
1055.368331	0.133684
1055.534221	0.133385
1055.700093	0.133163
1055.865946	0.134213
1056.031781	0.133781
1056.197598	0.134727
1056.363397	0.134651
1056.529177	0.135446
1056.694939	0.135654
1056.860683	0.136088
1057.026409	0.136199
1057.192116	0.136010
1057.357806	0.136106
1057.523477	0.137360
1057.689130	0.136009
1057.854764	0.134315
1058.020381	0.132537
1058.185979	0.132673
1058.351559	0.131834
1058.517120	0.131356
1058.682664	0.133379
1058.848189	0.133238
1059.013696	0.131115
1059.179185	0.132410
1059.344656	0.132745
1059.510108	0.133974
1059.675542	0.133320
1059.840958	0.134552
1060.006356	0.134837
1060.171735	0.133604
1060.337096	0.133004
1060.502439	0.134918
1060.667764	0.134998
1060.833071	0.135840
1060.998359	0.135704
1061.163629	0.137812
1061.328881	0.134487
1061.494115	0.134025
1061.659330	0.132590
1061.824527	0.131954
1061.989706	0.131869
1062.154867	0.132055
1062.320010	0.133794
1062.485134	0.134920
1062.650240	0.133600
1062.815328	0.136795
1062.980398	0.135401
1063.145449	0.136936
1063.310482	0.137694
1063.475497	0.137125
1063.640494	0.135359
1063.805473	0.133581
1063.970433	0.132213
1064.135375	0.133032
1064.300299	0.129304
1064.465204	0.132173
1064.630092	0.133433
1064.794961	0.133384
1064.959812	0.133521
1065.124645	0.134759
1065.289459	0.136127
1065.454256	0.137615
1065.619034	0.135760
1065.783793	0.140563
1065.948535	0.139799
1066.113258	0.137266
1066.277964	0.137767
1066.442651	0.135959
1066.607319	0.136496
1066.771970	0.135954
1066.936602	0.137105
1067.101216	0.138289
1067.265812	0.136525
1067.430389	0.135421
1067.594949	0.136941
1067.759490	0.137822
1067.924013	0.141630
1068.088518	0.139435
1068.253004	0.140144
1068.417472	0.138283
1068.581922	0.137291
1068.746354	0.139703
1068.910768	0.140188
1069.075163	0.140612
1069.239540	0.140136
1069.403899	0.135901
1069.568240	0.138455
1069.732562	0.138111
1069.896866	0.137339
1070.061152	0.135907
1070.225420	0.134033
1070.389670	0.133560
1070.553901	0.134186
1070.718114	0.135034
1070.882309	0.140064
1071.046486	0.139217
1071.210644	0.139615
1071.374784	0.141683
1071.538906	0.144327
1071.703010	0.144371
1071.867096	0.143461
1072.031163	0.141442
1072.195212	0.141871
1072.359243	0.137656
1072.523256	0.138707
1072.687250	0.137577
1072.851226	0.136513
1073.015184	0.137602
1073.179124	0.138772
1073.343045	0.139932
1073.506949	0.139174
1073.670834	0.138101
1073.834701	0.142357
1073.998549	0.141276
1074.162380	0.142838
1074.326192	0.142895
1074.489986	0.141829
1074.653761	0.140828
1074.817519	0.140567
1074.981258	0.142795
1075.144979	0.142876
1075.308682	0.140968
1075.472367	0.140502
1075.636033	0.139735
1075.799681	0.138162
1075.963311	0.140637
1076.126923	0.141360
1076.290516	0.142420
1076.454092	0.141486
1076.617649	0.141188
1076.781187	0.138939
1076.944708	0.138085
1077.108210	0.138460
1077.271695	0.141619
1077.435160	0.141540
1077.598608	0.141382
1077.762038	0.142419
1077.925449	0.144866
1078.088842	0.147311
1078.252217	0.148593
1078.415573	0.150108
1078.578912	0.149699
1078.742232	0.147808
1078.905534	0.144704
1079.068817	0.143235
1079.232083	0.141026
1079.395330	0.137447
1079.558559	0.135496
1079.721770	0.134902
1079.884962	0.135477
1080.048136	0.135860
1080.211293	0.136494
1080.374430	0.138481
1080.537550	0.139944
1080.700651	0.141269
1080.863735	0.144743
1081.026800	0.144423
1081.189846	0.145728
1081.352875	0.142820
1081.515885	0.142644
1081.678877	0.142385
1081.841851	0.142484
1082.004807	0.141165
1082.167744	0.141426
1082.330663	0.139938
1082.493564	0.142181
1082.656447	0.144279
1082.819312	0.147523
1082.982158	0.146486
1083.144986	0.148317
1083.307796	0.147265
1083.470587	0.147574
1083.633361	0.149812
1083.796116	0.150116
1083.958853	0.148481
1084.121571	0.145586
1084.284272	0.145066
1084.446954	0.148409
1084.609618	0.146731
1084.772264	0.149794
1084.934892	0.149828
1085.097501	0.149773
1085.260092	0.149434
1085.422665	0.150091
1085.585220	0.149942
1085.747756	0.149971
1085.910274	0.146188
1086.072774	0.146556
1086.235256	0.143029
1086.397720	0.142307
1086.560165	0.141956
1086.722592	0.143625
1086.885001	0.141498
1087.047392	0.144123
1087.209764	0.146058
1087.372119	0.149532
1087.534455	0.148798
1087.696772	0.148867
1087.859072	0.150017
1088.021353	0.149355
1088.183616	0.145824
1088.345861	0.148876
1088.508088	0.149996
1088.670296	0.149599
1088.832486	0.148223
1088.994658	0.147320
1089.156812	0.147607
1089.318948	0.149237
1089.481065	0.147931
1089.643164	0.149836
1089.805245	0.145465
1089.967308	0.143165
1090.129352	0.140723
1090.291378	0.138956
1090.453386	0.140384
1090.615376	0.140436
1090.777347	0.138785
1090.939301	0.138467
1091.101236	0.140015
1091.263153	0.140256
1091.425051	0.140381
1091.586932	0.142146
1091.748794	0.142993
1091.910638	0.142773
1092.072463	0.141816
1092.234271	0.141434
1092.396060	0.140826
1092.557831	0.137673
1092.719584	0.141758
1092.881319	0.139250
1093.043035	0.140722
1093.204733	0.141408
1093.366413	0.141373
1093.528075	0.142976
1093.689718	0.144694
1093.851343	0.144839
1094.012950	0.144930
1094.174539	0.143245
1094.336110	0.145099
1094.497662	0.142153
1094.659196	0.142809
1094.820712	0.141554
1094.982210	0.143592
1095.143689	0.142944
1095.305151	0.140916
1095.466594	0.144371
1095.628018	0.143965
1095.789425	0.144556
1095.950813	0.147239
1096.112183	0.148287
1096.273535	0.151520
1096.434869	0.149223
1096.596184	0.150311
1096.757482	0.151344
1096.918761	0.150209
1097.080021	0.149023
1097.241264	0.148299
1097.402488	0.147532
1097.563694	0.145193
1097.724882	0.141444
1097.886052	0.139524
1098.047203	0.137817
1098.208336	0.141325
1098.369451	0.137635
1098.530548	0.136183
1098.691627	0.138776
1098.852687	0.137361
1099.013729	0.136326
1099.174753	0.138253
1099.335758	0.137889
1099.496746	0.139812
1099.657715	0.138861
1099.818666	0.138933
1099.979599	0.144046
1100.140513	0.140993
1100.301409	0.138412
1100.462287	0.138987
1100.623147	0.138240
1100.783989	0.142873
1100.944812	0.141544
1101.105617	0.140927
1101.266404	0.142436
1101.427173	0.141002
1101.587923	0.141290
1101.748656	0.142169
1101.909370	0.144614
1102.070066	0.144840
1102.230743	0.144703
1102.391403	0.144295
1102.552044	0.144648
1102.712667	0.147783
1102.873271	0.150608
1103.033858	0.147868
1103.194426	0.150543
1103.354976	0.149706
1103.515508	0.150241
1103.676021	0.149924
1103.836517	0.150872
1103.996994	0.152050
1104.157453	0.152750
1104.317893	0.149705
1104.478316	0.153396
1104.638720	0.148297
1104.799106	0.146510
1104.959474	0.144339
1105.119823	0.142157
1105.280155	0.142466
1105.440468	0.138591
1105.600763	0.134904
1105.761039	0.134427
1105.921298	0.135429
1106.081538	0.138780
1106.241760	0.137286
1106.401964	0.140222
1106.562149	0.143268
1106.722316	0.144101
1106.882465	0.147729
1107.042596	0.149757
1107.202709	0.150364
1107.362803	0.147156
1107.522879	0.147407
1107.682937	0.153126
1107.842977	0.153032
1108.002999	0.150140
1108.163002	0.151157
1108.322987	0.150618
1108.482954	0.150581
1108.642902	0.152201
1108.802833	0.155878
1108.962745	0.157281
1109.122639	0.153773
1109.282515	0.154002
1109.442372	0.153369
1109.602211	0.148639
1109.762032	0.151322
1109.921835	0.152925
1110.081620	0.150089
1110.241386	0.148684
1110.401134	0.147933
1110.560864	0.149413
1110.720576	0.146586
1110.880269	0.148968
1111.039945	0.151116
1111.199602	0.151145
1111.359240	0.151849
1111.518861	0.151398
1111.678463	0.153419
1111.838047	0.151531
1111.997613	0.153213
1112.157161	0.151886
1112.316690	0.150856
1112.476202	0.152329
1112.635695	0.150815
1112.795169	0.148397
1112.954626	0.150876
1113.114064	0.149912
1113.273484	0.153269
1113.432886	0.150875
1113.592270	0.151419
1113.751635	0.151509
1113.910983	0.148829
1114.070312	0.145290
1114.229622	0.145675
1114.388915	0.147439
1114.548189	0.147559
1114.707445	0.150229
1114.866683	0.154044
1115.025903	0.158341
1115.185104	0.156716
1115.344287	0.156151
1115.503452	0.158254
1115.662599	0.157516
1115.821727	0.153001
1115.980838	0.151864
1116.139930	0.150305
1116.299004	0.145514
1116.458059	0.143915
1116.617097	0.145679
1116.776116	0.149172
1116.935117	0.149269
1117.094099	0.148820
1117.253064	0.153720
1117.412010	0.154363
1117.570938	0.149690
1117.729848	0.150605
1117.888740	0.152958
1118.047613	0.152593
1118.206468	0.149589
1118.365305	0.149123
1118.524124	0.147819
1118.682924	0.143100
1118.841707	0.141655
1119.000471	0.146023
1119.159216	0.145196
1119.317944	0.142768
1119.476653	0.143677
1119.635344	0.148008
1119.794017	0.148831
1119.952672	0.148590
1120.111308	0.150422
1120.269927	0.150883
1120.428527	0.148184
1120.587108	0.146779
1120.745672	0.145593
1120.904217	0.148877
1121.062744	0.145763
1121.221253	0.146141
1121.379744	0.152864
1121.538216	0.153806
1121.696671	0.154161
1121.855107	0.156369
1122.013524	0.159636
1122.171924	0.164555
1122.330305	0.159979
1122.488668	0.158311
1122.647013	0.155866
1122.805340	0.153074
1122.963648	0.152481
1123.121938	0.153428
1123.280210	0.152872
1123.438464	0.151857
1123.596700	0.148990
1123.754917	0.147370
1123.913116	0.151713
1124.071297	0.150601
1124.229459	0.150186
1124.387604	0.148625
1124.545730	0.151122
1124.703838	0.146815
1124.861928	0.150775
1125.019999	0.156487
1125.178052	0.157136
1125.336088	0.153431
1125.494104	0.153935
1125.652103	0.153068
1125.810083	0.153477
1125.968045	0.149185
1126.125989	0.155584
1126.283915	0.156861
1126.441823	0.154582
1126.599712	0.157478
1126.757583	0.157007
1126.915436	0.160841
1127.073270	0.161784
1127.231087	0.165690
1127.388885	0.166965
1127.546665	0.163558
1127.704426	0.157033
1127.862170	0.155449
1128.019895	0.150896
1128.177602	0.151037
1128.335291	0.144553
1128.492961	0.136209
1128.650614	0.135096
1128.808248	0.134026
1128.965864	0.135431
1129.123461	0.136220
1129.281041	0.131623
1129.438602	0.130722
1129.596145	0.131130
1129.753670	0.142044
1129.911176	0.148133
1130.068665	0.143858
1130.226135	0.145337
1130.383587	0.144356
1130.541020	0.141693
1130.698436	0.144002
1130.855833	0.152553
1131.013212	0.154705
1131.170573	0.143145
1131.327915	0.142338
1131.485239	0.142966
1131.642545	0.140445
1131.799833	0.138749
1131.957103	0.140985
1132.114354	0.146088
1132.271588	0.137448
1132.428803	0.133859
1132.585999	0.139188
1132.743178	0.141822
1132.900338	0.140081
1133.057480	0.145309
1133.214604	0.145045
1133.371710	0.140834
1133.528797	0.134464
1133.685866	0.136790
1133.842917	0.138412
1133.999950	0.145583
1134.156964	0.146220
1134.313960	0.144070
1134.470938	0.137303
1134.627898	0.137787
1134.784840	0.140312
1134.941763	0.138479
1135.098668	0.140965
1135.255555	0.143183
1135.412424	0.137631
1135.569274	0.135225
1135.726107	0.139832
1135.882921	0.143892
1136.039716	0.143191
1136.196494	0.144360
1136.353253	0.146449
1136.509995	0.148309
1136.666717	0.148573
1136.823422	0.150116
1136.980109	0.145350
1137.136777	0.143261
1137.293427	0.141136
1137.450059	0.140310
1137.606672	0.143374
1137.763267	0.141364
1137.919844	0.136645
1138.076403	0.135693
1138.232944	0.131166
1138.389466	0.136579
1138.545971	0.139356
1138.702457	0.142330
1138.858924	0.145202
1139.015374	0.144814
1139.171805	0.148364
1139.328218	0.148589
1139.484613	0.147198
1139.640990	0.147350
1139.797348	0.144099
1139.953688	0.146022
1140.110010	0.145659
1140.266314	0.146610
1140.422600	0.140771
1140.578867	0.139897
1140.735116	0.135313
1140.891347	0.137726
1141.047559	0.136967
1141.203754	0.135094
1141.359930	0.134737
1141.516088	0.132030
1141.672228	0.130042
1141.828349	0.138213
1141.984452	0.137669
1142.140537	0.137252
1142.296604	0.137853
1142.452653	0.140541
1142.608683	0.148304
1142.764695	0.144904
1142.920689	0.147567
1143.076665	0.144526
1143.232622	0.140692
1143.388562	0.142719
1143.544483	0.151576
1143.700385	0.148771
1143.856270	0.143874
1144.012136	0.140260
1144.167985	0.139454
1144.323814	0.137890
1144.479626	0.136157
1144.635420	0.138676
1144.791195	0.137404
1144.946952	0.136440
1145.102691	0.137589
1145.258411	0.139033
1145.414113	0.135421
1145.569798	0.138442
1145.725463	0.136231
1145.881111	0.149613
1146.036741	0.144132
1146.192352	0.153311
1146.347945	0.148993
1146.503519	0.147227
1146.659076	0.148791
1146.814614	0.155905
1146.970134	0.153765
1147.125636	0.153667
1147.281120	0.149422
1147.436585	0.154997
1147.592032	0.143047
1147.747461	0.140707
1147.902872	0.142177
1148.058265	0.142461
1148.213639	0.140577
1148.368995	0.135886
1148.524333	0.136928
1148.679653	0.130921
1148.834954	0.127898
1148.990237	0.130104
1149.145502	0.133521
1149.300749	0.133746
1149.455977	0.132020
1149.611188	0.129039
1149.766380	0.131780
1149.921553	0.132808
1150.076709	0.138493
1150.231846	0.137090
1150.386966	0.135093
1150.542066	0.139150
1150.697149	0.137747
1150.852214	0.141715
1151.007260	0.143334
1151.162288	0.146016
1151.317298	0.146236
1151.472289	0.141910
1151.627263	0.142598
1151.782218	0.147083
1151.937155	0.147403
1152.092073	0.144412
1152.246974	0.142121
1152.401856	0.139757
1152.556720	0.142441
1152.711566	0.149366
1152.866393	0.155910
1153.021203	0.156751
1153.175994	0.154154
1153.330767	0.156463
1153.485521	0.153338
1153.640258	0.154144
1153.794976	0.158233
1153.949676	0.155724
1154.104358	0.146472
1154.259021	0.140040
1154.413667	0.133997
1154.568294	0.131566
1154.722903	0.125897
1154.877493	0.133275
1155.032066	0.134441
1155.186620	0.129912
1155.341156	0.129515
1155.495674	0.120322
1155.650173	0.118799
1155.804654	0.130154
1155.959118	0.131319
1156.113562	0.130811
1156.267989	0.131379
1156.422397	0.127528
1156.576788	0.129561
1156.731160	0.135141
1156.885513	0.140584
1157.039849	0.143174
1157.194166	0.132567
1157.348465	0.134714
1157.502746	0.134787
1157.657009	0.133379
1157.811253	0.130798
1157.965479	0.129407
1158.119687	0.128887
1158.273877	0.133185
1158.428048	0.132548
1158.582201	0.139954
1158.736337	0.135978
1158.890453	0.133273
1159.044552	0.129438
1159.198632	0.134157
1159.352694	0.137690
1159.506738	0.139997
1159.660764	0.138896
1159.814771	0.140369
1159.968761	0.136893
1160.122732	0.141940
1160.276685	0.144299
1160.430619	0.141640
1160.584535	0.141862
1160.738434	0.133564
1160.892313	0.118360
1161.046175	0.124403
1161.200019	0.124047
1161.353844	0.121415
1161.507651	0.118680
1161.661440	0.119221
1161.815210	0.121336
1161.968962	0.119473
1162.122697	0.122831
1162.276412	0.134927
1162.430110	0.129004
1162.583789	0.122326
1162.737451	0.125961
1162.891094	0.126985
1163.044718	0.125490
1163.198325	0.122793
1163.351913	0.123773
1163.505483	0.125567
1163.659035	0.119565
1163.812569	0.116795
1163.966084	0.122970
1164.119581	0.116573
1164.273060	0.119765
1164.426521	0.129488
1164.579964	0.138810
1164.733388	0.144750
1164.886794	0.152914
1165.040182	0.154793
1165.193551	0.164263
1165.346903	0.160460
1165.500236	0.168218
1165.653551	0.156529
1165.806848	0.146687
1165.960126	0.145647
1166.113386	0.141617
1166.266628	0.137556
1166.419852	0.138705
1166.573058	0.133919
1166.726245	0.138631
1166.879414	0.135564
1167.032565	0.142262
1167.185698	0.139006
1167.338812	0.136181
1167.491909	0.135957
1167.644987	0.143027
1167.798046	0.144089
1167.951088	0.143824
1168.104111	0.143113
1168.257117	0.144485
1168.410103	0.140273
1168.563072	0.146444
1168.716023	0.145750
1168.868955	0.141128
1169.021869	0.130853
1169.174765	0.128888
1169.327642	0.133958
1169.480501	0.139562
1169.633343	0.139363
1169.786165	0.141462
1169.938970	0.137815
1170.091757	0.141962
1170.244525	0.138392
1170.397275	0.132638
1170.550007	0.131382
1170.702720	0.131975
1170.855415	0.120154
1171.008092	0.118940
1171.160751	0.119360
1171.313392	0.118860
1171.466014	0.098084
1171.618619	0.116835
1171.771205	0.116835
1171.923772	0.116835
