sample name	sample
index	1029
start time	 04-19-2021  12:32:19 PM
880	0.519459
Peak Time (s)	100.037
Peak Height 	0.5195
calc peak height	100,103
Baseline Time (s)	9.534
Baseline Value 	-0.005117
subtract baseline	10,4
Abs	0.363063
Peak Time (s)	102.035
Peak Height 	0.3631
calc peak height	100,103
Baseline Time (s)	8.54
Baseline Value 	2.4188E-4
subtract baseline	10,3
PK_550	0.199662
Peak Time (s)	102.535
Peak Height 	0.1997
calc peak height	100,103
Baseline Time (s)	9.037
Baseline Value 	3.993E-4
subtract baseline	10,2
PK_880	0.336792
Peak Time (s)	102.535
Peak Height 	0.3368
calc peak height	100,103
Baseline Time (s)	11.036
Baseline Value 	9.7094E-4
subtract baseline	10,1


Time (s)	A880-A510	A880-A775	A880-A975	A880	I510	I775	I975	I880	
0.037500	-0.001449	-0.000258	-0.003260	0.003406	6567.310127	45966.030072	3973.167638	24305.269498
0.538000	-0.003453	-0.001524	-0.003762	0.007278	6516.440321	45458.449130	3960.992029	24114.184507
1.035500	-0.001313	-0.000604	0.003879	0.004719	6557.071214	45801.490297	3989.579143	24240.313241
1.536500	-0.001879	-0.000665	-0.005245	0.001958	6576.190358	46069.536528	3971.665960	24377.148422
2.036000	-0.000990	-0.000049	-0.003146	0.001176	6590.820101	46209.093744	3979.744142	24416.111229
2.536500	-0.004840	-0.000702	-0.001870	0.006477	6511.414938	45618.175632	3968.476128	24153.601203
3.036500	0.002154	0.000065	0.004183	-0.000485	6633.186070	46386.766761	4005.297707	24499.030043
3.537000	-0.001102	-0.000676	0.005398	0.001238	6589.293183	46140.196759	4003.838771	24413.007265
4.039500	-0.001658	0.000577	-0.001861	0.001462	6582.463403	46243.025702	3982.559281	24401.862485
4.537500	-0.001042	-0.000444	-0.000922	0.002268	6580.801352	46060.749966	3982.932390	24361.771898
5.037500	-0.000896	-0.000017	-0.000774	0.000465	6597.889710	46283.378134	3988.448095	24451.566843
5.535000	-0.002376	-0.000475	-0.001649	0.000304	6586.314347	46253.648569	3986.426199	24459.598157
6.035000	-0.001012	0.000032	-0.002832	0.000858	6593.411278	46248.878216	3981.522531	24431.933034
6.536000	-0.001801	-0.000244	-0.001466	0.000423	6590.304574	46264.780399	3986.607874	24453.634945
7.036000	0.001186	-0.000387	0.001133	0.000197	6618.585823	46273.111996	3994.624068	24464.943155
7.536500	-0.000246	0.000400	0.000516	0.000966	6599.195081	46274.917044	3990.684714	24426.556875
8.036500	-0.001512	0.000502	0.003030	0.001018	6587.628118	46279.945504	3997.690908	24423.964586
8.539500	0.000439	-0.000096	0.000000	0.000184	6612.108968	46303.527662	3991.439572	24465.574970
9.037000	-0.000687	0.000000	0.001537	0.000277	6601.373055	46303.845114	3995.546244	24460.924866
9.534000	-0.000590	0.000537	0.002552	0.000000	6604.660298	46385.473313	3999.234208	24474.765233
10.037500	0.001841	0.000176	0.003646	0.000169	6624.626402	46332.365131	4001.882186	24466.344943
10.535000	0.000942	-0.000128	-0.001228	-0.000453	6622.176484	46364.174185	3989.762848	24497.420818
11.035500	0.000000	0.000083	-0.001995	-0.000475	6614.049880	46387.617640	3987.653421	24498.524448
11.535500	-0.000701	-0.000035	-0.002054	-0.000252	6605.901636	46353.304088	3986.853187	24487.338608
12.036500	0.001052	-0.000218	0.000917	-0.000431	6622.944983	46352.933022	3995.796963	24496.296405
12.536000	-0.000358	0.000144	-0.001459	-0.000427	6610.466829	46388.880326	3989.034585	24496.122932
13.039500	-0.000162	-0.000075	0.004508	-0.000430	6612.222558	46367.153589	4006.072017	24496.263678
13.537000	-0.001437	-0.000409	-0.001499	-0.000232	6599.249430	46313.837471	3988.366880	24486.344502
14.036500	0.000082	0.000039	0.000874	0.002428	6589.232855	46092.839430	3987.553719	24353.793369
14.537500	-0.002785	-0.000618	-0.002769	0.001665	6570.846043	46103.424595	3979.431281	24391.757111
15.051000	-0.002388	-0.000510	-0.001546	-0.000312	6591.607870	46311.780120	3988.462898	24490.365410
15.535500	0.000003	-0.000027	0.004806	0.000023	6609.685582	46326.610690	4005.624080	24473.610408
16.036000	-0.000860	-0.000103	0.002638	-0.000408	6605.873474	46362.126979	4000.644068	24495.135952
16.535500	-0.000139	-0.000008	-0.002446	-0.000339	6611.627088	46364.863070	3985.991793	24491.724992
17.036000	0.002835	0.000586	0.002311	0.000247	6632.739764	46365.676760	3997.841924	24462.451576
17.539000	0.000349	-0.000765	-0.001095	-0.000059	6613.455398	46260.932007	3989.023018	24477.708685
18.036500	-0.000900	0.000172	0.002512	0.001231	6591.120406	46225.601828	3995.607181	24413.348713
18.537000	-0.000894	0.000536	-0.001303	0.001735	6586.754577	46211.565759	3983.359894	24388.242457
19.034500	0.000326	0.000108	0.001415	0.001337	6600.958222	46208.591391	3992.181434	24408.052687
19.535000	-0.000038	-0.000084	0.004212	0.001366	6597.504867	46186.469601	4000.072984	24406.611252
20.035500	-0.000862	-0.000016	-0.000299	0.001465	6589.412652	46183.536670	3986.962650	24401.722220
20.535500	-0.002039	0.000398	0.005174	0.001638	6577.596275	46207.533308	4002.049640	24393.102435
21.035000	-0.000153	0.000817	0.001422	0.001678	6593.758867	46245.443920	3991.235813	24391.113772
21.536500	-0.000893	-0.000328	0.004218	0.000915	6593.957835	46207.179802	4001.382022	24429.093875
22.039000	-0.001757	0.000432	0.001224	0.001413	6582.030190	46233.441691	3991.425526	24404.311019
22.536500	-0.000855	-0.000705	-0.001492	0.000735	6595.874932	46187.578990	3985.651890	24438.074568
23.037000	-0.001809	-0.000258	-0.003091	0.001151	6583.861415	46190.719034	3979.970589	24417.361677
23.537000	0.002493	-0.000008	-0.004414	0.000758	6625.174441	46254.883093	3977.354251	24436.907141
24.037500	-0.000621	-0.000285	-0.000895	0.001205	6593.801062	46182.506438	3986.010194	24414.632102
24.535000	-0.001442	-0.000753	-0.002793	0.000438	6593.333164	46212.459741	3982.818039	24452.919597
25.035500	-0.000461	0.000566	0.001472	0.001776	6590.196863	46210.466569	3991.099377	24386.214994
25.535000	-0.001173	0.000138	0.000234	0.001396	6587.288336	46205.797365	3988.666055	24405.149364
26.036000	-0.001017	0.000612	0.003882	0.001337	6589.171440	46259.007738	3999.213018	24408.074225
26.538500	0.000464	-0.000022	-0.003181	0.001248	6602.954966	46204.584447	3979.444140	24412.510154
27.036500	0.000289	0.000383	0.004310	0.001684	6597.586639	46201.471064	3999.446454	24390.798077
27.537000	0.002238	0.000369	0.001167	-0.001629	6644.082511	46532.202382	3999.929559	24556.278319
28.037000	0.000820	0.000201	-0.000740	-0.000086	6617.850675	46360.366956	3990.106504	24479.077532
28.537000	-0.002089	-0.000432	-0.002279	-0.000866	6599.096264	46375.107144	3987.951925	24518.049152
29.037000	0.000512	0.000634	0.001574	0.000203	6612.581461	46374.798206	3995.863305	24464.627223
29.535500	0.000876	-0.000290	-0.003303	0.000286	6615.062013	46273.938064	3981.808175	24460.487314
30.035500	0.000411	0.000593	0.000009	0.000317	6610.688920	46359.284520	3991.086157	24458.933919
30.536000	-0.000333	-0.000024	0.002060	0.000755	6600.287502	46253.610226	3995.676070	24437.092644
31.039000	-0.001597	-0.000189	-0.000442	0.001923	6578.967409	46120.481816	3985.261946	24378.916052
31.536000	-0.000942	-0.000240	-0.000272	0.000130	6600.423276	46294.522489	3990.820255	24468.262553
32.036500	0.000005	0.000096	-0.001035	-0.000321	6612.727908	46373.374148	3989.934074	24490.804795
32.537000	-0.001803	0.000063	0.000715	0.000438	6590.160894	46293.974194	3992.748163	24452.876070
33.037000	-0.001728	0.000092	0.005164	-0.000507	6599.114496	46391.588824	4008.178052	24500.092522
33.537500	0.000811	0.000085	-0.001571	0.000345	6613.961983	46305.585325	3986.530567	24457.528915
34.035000	-0.000373	0.000700	0.001089	0.001211	6595.924291	46280.432404	3991.616134	24414.366312
34.535500	-0.000815	0.000353	-0.001274	0.002063	6584.580308	46160.615472	3982.517882	24371.938488
35.035500	-0.002852	0.000305	0.000195	0.001790	6569.160968	46183.027981	3987.438920	24385.510293
35.538500	0.000223	0.000001	-0.004585	0.001625	6597.518060	46169.217353	3974.445037	24393.731210
36.035500	-0.001370	0.000047	-0.000885	0.002147	6578.994386	46121.692830	3983.380103	24367.783540
36.536500	-0.001358	0.000124	-0.004730	0.001520	6584.579518	46191.945355	3974.332339	24398.954533
37.036000	-0.002616	-0.000451	0.000115	0.001213	6576.262099	46165.136214	3988.845319	24414.230347
37.537000	-0.001777	-0.000059	0.002495	0.001944	6577.211581	46131.459434	3993.529909	24377.888944
38.037500	0.000264	-0.000189	0.000959	0.001652	6597.646472	46147.590244	3989.997247	24392.409075
38.537000	-0.000593	0.000235	-0.002522	0.001618	6590.424933	46193.322647	3980.256544	24394.107097
39.037500	-0.001681	0.000595	0.004614	0.002291	6575.020514	46162.057969	3998.580326	24360.633043
39.535500	-0.000553	0.000381	0.000435	0.002071	6586.805368	46162.567208	3987.322538	24371.555858
40.038500	-0.000842	0.000019	0.001209	0.001467	6589.563645	46186.768120	3991.227861	24401.593717
40.536000	-0.000715	0.000134	0.001396	0.001877	6587.078202	46157.254108	3990.594187	24381.179617
41.036000	-0.001048	0.000291	0.001304	0.001839	6584.507974	46176.803998	3990.444152	24383.109861
41.536500	0.000376	0.000221	0.000768	0.001786	6597.453137	46175.017260	3989.073953	24385.712949
42.037000	-0.000640	0.000133	0.003211	0.002045	6586.272202	46140.427309	3995.279672	24372.841989
42.537500	-0.000078	0.000427	0.001413	0.001750	6593.782237	46199.297861	3991.005390	24387.520884
43.037500	-0.000444	0.000721	-0.002632	0.001682	6591.170506	46235.415436	3979.768860	24390.920447
43.535000	-0.002268	-0.000477	0.001711	0.001390	6577.754283	46144.885849	3992.873032	24405.428451
44.035000	0.000539	0.000304	0.001881	-0.001465	6627.556521	46509.234365	4001.504033	24548.065826
44.538500	0.001335	0.000518	0.002223	0.000257	6619.368305	46357.715186	3997.561150	24461.921646
45.036000	0.000414	0.000637	0.002067	0.000509	6609.023114	46344.495224	3996.398326	24449.373032
45.536500	-0.000421	0.000518	0.002169	0.001255	6595.116562	46257.774843	3994.562684	24412.158571
46.036000	0.000577	-0.000024	-0.000046	0.000772	6608.134157	46251.912094	3989.640148	24436.215615
46.537000	0.000461	0.000425	0.000889	0.000373	6610.635756	46336.832992	3993.428933	24456.131458
47.034000	-0.001707	0.000282	0.001775	-0.000060	6595.369138	46365.848569	3997.186923	24477.751005
47.537000	0.000823	0.000788	0.000477	0.003720	6584.411183	46038.771897	3982.781752	24289.703286
48.035000	-0.003253	-0.000618	-0.002476	0.001969	6564.110436	46073.109967	3979.398833	24376.607364
48.535000	-0.000871	0.000674	0.002205	0.000474	6598.022964	46351.623168	3996.889090	24451.076560
49.038500	0.001186	-0.000544	-0.000059	-0.000280	6622.803428	46305.215193	3992.590605	24488.772788
49.535500	-0.000379	-0.000045	0.002740	0.001127	6596.610673	46214.400984	3996.553697	24418.559159
50.035500	-0.000463	0.000177	0.004443	-0.000710	6612.042415	46420.594403	4006.689389	24510.278542
50.536000	-0.000311	-0.000300	-0.001004	0.000669	6601.234464	46234.581549	3987.217655	24441.362653
51.036500	0.002882	-0.005374	0.005460	0.033118	6352.463551	42640.736456	3915.835990	22881.818244
51.536000	0.032320	-0.014226	0.048386	0.392499	4452.536876	19873.158180	3316.788853	11566.542158
52.040000	0.001300	-0.018035	-0.026701	-0.019337	6796.112911	46462.215491	3971.217645	25462.603726
52.537500	-0.018021	-0.118524	-0.046478	-0.277275	9735.178089	65535.000000	4857.321708	43861.149456
53.035000	-0.002680	-0.102199	-0.028962	-0.260950	9719.422426	65535.000000	4863.086858	42345.495455
53.537500	-0.007982	-0.104415	-0.027052	-0.263166	9670.310820	65535.000000	4883.177083	42547.911789
54.035000	-0.009394	-0.089441	-0.027181	-0.248192	9415.290676	65535.000000	4810.551087	41200.121224
54.536000	-0.008873	-0.069526	-0.026849	-0.225541	9085.760116	65141.046212	4707.736064	39247.526911
55.039000	-0.005831	-0.051779	-0.018248	-0.200918	8780.198633	64162.108930	4637.124062	37237.423459
55.536000	-0.007978	-0.062537	-0.021042	-0.216354	8966.557926	64826.401904	4692.623373	38484.173523
56.039000	-0.001926	-0.046466	-0.013354	-0.193165	8727.304069	63818.437143	4624.797437	36627.744031
56.536500	0.006102	-0.021664	-0.005933	-0.149170	8254.809313	61181.137991	4474.031220	33366.713932
57.037000	0.012436	-0.008139	0.003622	-0.108202	7835.348156	57607.080424	4354.300553	30613.168337
57.534000	0.023901	0.001086	0.016150	-0.069410	7527.203995	54000.924769	4260.631635	28234.733223
58.037500	0.034074	0.009904	0.026383	-0.026735	7185.079863	50162.111400	4152.487453	25852.332252
58.535000	0.054070	0.021203	0.048859	0.021864	6904.476368	46265.421273	4071.089578	23409.557979
59.035500	0.071806	0.029949	0.066512	0.060239	6713.166496	43399.947428	4009.913252	21664.799779
59.536000	0.087364	0.040637	0.086291	0.098252	6515.095325	40925.089243	3958.446233	20082.005150
60.036000	0.101615	0.049446	0.104120	0.136319	6315.917601	38442.220925	3903.794649	18629.884860
60.536500	0.125200	0.061355	0.127121	0.182998	6132.941156	35701.084497	3843.004806	17014.542515
61.036500	0.143902	0.070430	0.148728	0.216023	6024.241079	33936.611988	3814.852702	15972.127238
61.537000	0.156958	0.079952	0.169758	0.253280	5848.546501	32011.279638	3776.099617	14887.505826
62.038500	0.179885	0.094984	0.190995	0.289823	5753.907132	30600.387392	3740.849294	13910.314612
62.534500	0.203547	0.107179	0.216950	0.324492	5679.545830	29199.099902	3721.326917	13056.235709
63.035000	0.219144	0.115968	0.233600	0.357926	5562.973455	27743.612218	3684.813757	12294.713871
63.543500	0.234260	0.126109	0.253302	0.382598	5502.464406	26923.326601	3674.269049	11769.183314
64.036000	0.243148	0.132967	0.266415	0.417997	5341.394088	25389.925900	3628.442466	11065.447027
64.536000	0.260755	0.142760	0.281564	0.425378	5402.358979	25515.639218	3644.149376	10925.798975
65.036000	0.273398	0.149727	0.290275	0.443974	5366.690622	24915.855057	3624.211149	10584.306181
65.536500	0.282868	0.156529	0.306177	0.455064	5357.074848	24698.740234	3633.861102	10387.513962
66.037000	0.285179	0.160631	0.305239	0.472306	5270.062216	24046.508668	3597.957500	10091.346687
66.537000	0.287879	0.163057	0.309084	0.468917	5305.183375	24332.708692	3612.063788	10148.631784
67.040000	0.291844	0.166119	0.313079	0.472219	5309.037135	24320.812995	3613.427445	10092.808606
67.535000	0.295703	0.167606	0.319924	0.472468	5330.132914	24382.237411	3626.516744	10088.625414
68.035000	0.303099	0.171766	0.328895	0.478097	5340.516594	24309.373930	3633.224726	9994.483847
68.535500	0.298344	0.169650	0.324307	0.478700	5309.152454	24175.212926	3622.826835	9984.472714
69.036000	0.305596	0.172785	0.324572	0.484056	5320.205175	24066.243057	3612.750652	9896.152260
69.536000	0.304894	0.173215	0.328994	0.488272	5291.630241	23881.806570	3613.154642	9827.387765
70.036500	0.308026	0.175472	0.334383	0.491367	5291.844031	23841.196891	3617.684307	9777.337629
70.536500	0.308897	0.175769	0.331890	0.491970	5293.390961	23826.422334	3611.577533	9767.630611
71.037000	0.311062	0.177362	0.337492	0.493990	5294.232535	23805.751482	3618.646833	9735.193619
71.540000	0.311270	0.180274	0.336850	0.498055	5272.027487	23750.130672	3609.370212	9670.393749
72.034500	0.309417	0.179665	0.340387	0.505932	5216.868929	23345.003543	3600.906752	9546.524762
72.535000	0.314873	0.179968	0.341489	0.503066	5263.966004	23495.351169	3608.641948	9591.332717
73.035000	0.318997	0.181835	0.343017	0.505869	5271.522385	23450.817988	3606.147398	9547.497720
73.536000	0.317644	0.182660	0.340531	0.506347	5261.052042	23467.331070	3600.379322	9540.050448
74.036000	0.315413	0.183207	0.342087	0.510979	5222.191899	23273.974334	3594.435579	9468.320756
74.536000	0.320270	0.185109	0.344612	0.505925	5278.507504	23604.297526	3609.158861	9546.624601
75.037000	0.322245	0.186406	0.346596	0.507208	5282.490369	23604.951584	3610.533260	9526.661771
75.536500	0.320675	0.186097	0.347061	0.506479	5277.654270	23625.070478	3612.880478	9537.998438
76.040000	0.320139	0.185762	0.351610	0.511363	5246.709361	23376.499192	3612.220743	9462.408107
76.534500	0.323216	0.187794	0.354983	0.507650	5285.534868	23650.291607	3626.271741	9519.799809
77.035000	0.324410	0.188032	0.356068	0.507556	5292.969210	23666.241435	3628.630595	9521.251952
77.535500	0.327405	0.189669	0.353743	0.508770	5303.286584	23686.559879	3621.565806	9502.429451
78.035000	0.324158	0.188174	0.345669	0.513070	5259.862632	23409.909845	3597.312482	9436.190644
78.535500	0.328580	0.190738	0.357926	0.511495	5294.303683	23607.148023	3624.469080	9460.378688
79.036000	0.327538	0.191589	0.356906	0.513091	5279.097590	23571.508118	3619.267647	9435.874164
79.536000	0.331102	0.190092	0.351156	0.512603	5302.494369	23523.333401	3608.896506	9443.351458
80.036500	0.326148	0.193596	0.355982	0.520737	5227.690664	23303.756927	3602.441187	9319.699411
80.539500	0.325519	0.191045	0.359912	0.512930	5268.436777	23553.207383	3625.570297	9438.340958
81.034500	0.328111	0.191950	0.359582	0.514402	5274.853453	23526.115507	3621.976785	9415.797723
81.535000	0.326720	0.192607	0.353999	0.514187	5268.116956	23567.748991	3611.365425	9419.086587
82.034500	0.323367	0.191846	0.353286	0.518881	5222.484940	23308.720074	3600.808702	9347.707455
82.535000	0.325487	0.193809	0.354993	0.514277	5260.552325	23620.942299	3613.144038	9417.708262
83.035500	0.325136	0.192425	0.354703	0.513276	5264.268433	23602.631456	3614.546323	9433.041503
83.536000	0.327059	0.194755	0.356223	0.515193	5264.302476	23622.370221	3613.761186	9403.720893
84.036000	0.326205	0.195109	0.359599	0.521544	5223.469404	23337.062495	3607.922482	9307.553605
84.536000	0.326959	0.192892	0.353087	0.513562	5273.064076	23611.285431	3610.801708	9428.651957
85.039500	0.330012	0.193785	0.351866	0.514624	5284.508457	23603.179660	3606.330501	9412.407065
85.537000	0.330756	0.193295	0.361433	0.513110	5297.553721	23652.292231	3628.251927	9435.581451
86.037000	0.329151	0.192879	0.361844	0.518704	5256.210013	23365.924720	3617.930361	9350.386225
86.534500	0.333012	0.195119	0.366492	0.514412	5303.083812	23677.351549	3635.812972	9415.657848
87.035000	0.333213	0.195050	0.360025	0.514957	5301.089489	23647.869379	3621.754985	9407.331500
87.535000	0.334841	0.196105	0.362934	0.515871	5305.233524	23654.616461	3625.731383	9393.394181
88.036000	0.332299	0.194327	0.353968	0.518977	5272.634964	23421.593010	3601.946963	9346.251883
88.535500	0.334135	0.195730	0.362574	0.515145	5305.353142	23671.476769	3626.463554	9404.463913
89.036500	0.334389	0.194504	0.364049	0.514535	5310.369039	23641.885815	3630.641594	9413.767824
89.539000	0.334204	0.196404	0.359321	0.515971	5300.957569	23664.177308	3618.346831	9391.873276
90.037000	0.331522	0.194545	0.358157	0.519987	5262.413739	23384.044620	3608.147053	9331.003771
90.537000	0.335628	0.195510	0.359312	0.515358	5312.790547	23650.650625	3619.542413	9401.203866
91.034500	0.337272	0.196694	0.360289	0.517092	5312.270869	23624.335158	3618.041562	9374.822011
91.535000	0.334785	0.196924	0.358314	0.517429	5295.877787	23619.223091	3613.477107	9369.711702
92.035000	0.329993	0.195861	0.363242	0.520784	5249.170495	23408.662759	3616.581215	9318.989271
92.535500	0.336936	0.196283	0.365186	0.515973	5316.835370	23658.300478	3630.037304	9391.840037
93.036000	0.335465	0.196040	0.355752	0.515359	5311.839681	23676.069453	3612.508196	9401.197038
93.536500	0.335396	0.196792	0.357010	0.516106	5307.093258	23676.355613	3613.516028	9389.820724
94.038500	0.334768	0.196820	0.361196	0.515318	5308.021693	23715.543449	3623.366211	9401.816518
94.536500	0.335195	0.197247	0.355387	0.516377	5304.351929	23685.167920	3609.792913	9385.689903
95.037000	0.333879	0.196532	0.359734	0.515065	5304.323420	23713.884172	3620.961293	9405.679411
95.537000	0.334510	0.198030	0.357030	0.515140	5307.555277	23782.454458	3615.459032	9404.535233
96.037500	0.328547	0.195581	0.356717	0.518423	5254.365201	23507.535149	3608.388683	9354.636437
96.535000	0.335257	0.198296	0.358566	0.515752	5308.345614	23765.805053	3617.284604	9395.211113
97.035500	0.335537	0.196463	0.359395	0.513900	5320.768332	23766.649157	3622.604364	9423.475323
97.535500	0.336563	0.197903	0.360922	0.514929	5320.753411	23786.549019	3623.596119	9407.760117
98.036000	0.336963	0.199154	0.358457	0.518853	5300.243419	23657.856517	3610.958216	9348.136102
98.539000	0.335893	0.198612	0.361146	0.514905	5316.980285	23821.925634	3624.089809	9408.118229
99.036500	0.337011	0.198542	0.366953	0.515290	5321.262664	23799.924127	3634.968860	9402.245647
99.536500	0.333385	0.197755	0.363077	0.513747	5309.115102	23836.519923	3630.273219	9425.826454
100.037000	0.334573	0.198034	0.361398	0.519459	5282.932772	23575.187302	3615.555945	9338.970386
100.537000	0.336702	0.197891	0.361504	0.513533	5329.744366	23853.482971	3627.548090	9429.106687
101.035000	0.336060	0.198670	0.357977	0.514410	5320.847978	23848.749643	3618.777038	9415.689162
101.535000	0.335236	0.197650	0.359749	0.512947	5324.586271	23870.184764	3625.210408	9438.074955
102.035000	0.331476	0.198051	0.363063	0.517477	5276.522668	23670.965846	3622.785505	9368.978611
102.535500	0.336792	0.199662	0.356515	0.513686	5329.370689	23931.949264	3617.313678	9426.749026
103.039000	0.333295	0.196582	0.356874	0.512024	5318.632948	23863.131399	3621.322679	9452.247352
103.536000	0.337603	0.198282	0.363655	0.513046	5337.892066	23896.012104	3632.843200	9436.555853
104.037000	0.336756	0.199160	0.350816	0.517144	5308.965394	23740.307360	3599.388773	9374.032364
104.537000	0.336357	0.197188	0.356782	0.511261	5341.064978	23929.580503	3622.655231	9463.977052
105.037000	0.334244	0.198859	0.358094	0.514087	5312.138355	23873.554423	3619.649552	9420.627197
105.534500	0.337181	0.198055	0.359912	0.512337	5339.581786	23919.450212	3626.754311	9447.434452
106.037000	0.335183	0.198704	0.361005	0.513610	5320.400585	23889.169916	3626.396610	9427.925901
106.535500	0.335238	0.198281	0.361253	0.512655	5326.307563	23914.981106	3628.801597	9442.551523
107.035500	0.333756	0.196257	0.353094	0.512105	5320.854303	23843.484060	3613.682674	9451.004091
107.538500	0.334659	0.197131	0.358230	0.512107	5326.125987	23885.781086	3623.856529	9450.979032
108.036000	0.336147	0.197597	0.360336	0.512420	5333.015007	23893.157817	3627.437492	9446.162764
108.536500	0.337584	0.197631	0.361154	0.512159	5343.007768	23907.503648	3629.600178	9450.169985
109.036500	0.334361	0.199166	0.366594	0.515125	5306.778774	23838.108282	3634.578314	9404.760329
109.533500	0.337875	0.198587	0.357896	0.513392	5337.458408	23894.041344	3620.633939	9431.258353
110.037500	0.333780	0.197652	0.355562	0.513107	5315.145156	23862.521672	3616.574897	9435.627987
110.537500	0.337535	0.198380	0.363106	0.514365	5329.746737	23836.839609	3629.090254	9416.365284
