sample name	sample
index	185
start time	 02-18-2021  11:30:05 AM


Wavelength (nm)	Absorbance
494.344910	-0.475045
494.563924	-0.475045
494.782919	-0.475045
495.001897	0.006434
495.220856	-0.214090
495.439797	-0.143572
495.658719	-0.084105
495.877624	-0.032745
496.096510	-0.018628
496.315378	0.014446
496.534227	-0.019668
496.753059	0.045510
496.971872	0.078251
497.190667	0.138499
497.409444	0.136930
497.628203	0.140253
497.846943	0.140895
498.065665	0.142351
498.284369	0.143881
498.503055	0.144960
498.721723	0.145374
498.940372	0.145716
499.159003	0.146189
499.377616	0.146924
499.596210	0.145817
499.814787	0.145544
500.033345	0.144894
500.251885	0.144633
500.470406	0.144705
500.688910	0.143541
500.907395	0.143176
501.125862	0.143572
501.344311	0.144308
501.562742	0.145070
501.781154	0.145927
501.999548	0.146347
502.217924	0.146507
502.436282	0.146714
502.654621	0.147289
502.872942	0.147532
503.091245	0.147267
503.309530	0.147363
503.527797	0.147795
503.746045	0.146986
503.964275	0.146652
504.182487	0.146580
504.400681	0.146271
504.618856	0.145938
504.837013	0.147234
505.055152	0.146854
505.273273	0.146986
505.491376	0.146605
505.709460	0.148041
505.927526	0.148707
506.145574	0.148819
506.363604	0.149518
506.581615	0.150012
506.799608	0.148798
507.017583	0.148807
507.235540	0.147680
507.453478	0.147357
507.671399	0.146609
507.889301	0.146362
508.107185	0.146610
508.325050	0.146764
508.542898	0.146572
508.760727	0.146670
508.978538	0.146996
509.196330	0.147957
509.414105	0.148382
509.631861	0.149435
509.849599	0.149789
510.067319	0.149489
510.285021	0.148681
510.502704	0.149590
510.720369	0.150117
510.938016	0.150489
511.155645	0.150590
511.373255	0.150512
511.590848	0.150362
511.808422	0.151412
512.025977	0.153154
512.243515	0.154211
512.461034	0.154675
512.678536	0.154543
512.896018	0.155227
513.113483	0.154972
513.330930	0.156189
513.548358	0.157190
513.765768	0.157036
513.983160	0.157094
514.200533	0.157000
514.417889	0.156491
514.635226	0.157186
514.852545	0.157733
515.069845	0.158233
515.287128	0.157894
515.504392	0.157373
515.721638	0.157144
515.938866	0.156368
516.156075	0.156395
516.373267	0.157222
516.590440	0.156966
516.807594	0.157107
517.024731	0.157558
517.241850	0.157665
517.458950	0.158071
517.676032	0.158160
517.893095	0.158040
518.110141	0.157925
518.327168	0.158452
518.544177	0.158621
518.761168	0.158389
518.978141	0.158181
519.195095	0.158473
519.412031	0.158055
519.628949	0.157789
519.845849	0.158215
520.062731	0.158212
520.279594	0.158335
520.496439	0.158709
520.713266	0.159505
520.930074	0.159694
521.146865	0.159679
521.363637	0.160088
521.580391	0.161280
521.797127	0.161914
522.013844	0.162197
522.230543	0.161824
522.447224	0.162447
522.663887	0.162127
522.880532	0.162085
523.097158	0.162652
523.313766	0.162397
523.530356	0.162099
523.746928	0.162484
523.963481	0.163651
524.180017	0.163887
524.396534	0.163752
524.613032	0.164561
524.829513	0.166167
525.045975	0.166963
525.262420	0.168127
525.478845	0.168723
525.695253	0.168562
525.911643	0.168255
526.128014	0.168846
526.344367	0.168763
526.560702	0.168734
526.777018	0.168543
526.993316	0.168170
527.209597	0.168241
527.425858	0.168272
527.642102	0.168558
527.858328	0.168708
528.074535	0.169343
528.290724	0.169667
528.506894	0.169891
528.723047	0.170156
528.939181	0.170695
529.155297	0.171069
529.371395	0.171723
529.587475	0.171805
529.803536	0.172944
530.019579	0.172366
530.235604	0.172403
530.451611	0.172996
530.667600	0.173422
530.883570	0.174277
531.099522	0.174655
531.315456	0.174616
531.531372	0.175372
531.747269	0.175395
531.963148	0.176417
532.179009	0.177099
532.394852	0.177707
532.610676	0.177588
532.826482	0.177373
533.042271	0.177710
533.258040	0.178415
533.473792	0.178614
533.689525	0.178867
533.905240	0.178727
534.120937	0.179359
534.336616	0.178922
534.552277	0.179700
534.767919	0.179504
534.983543	0.179735
535.199149	0.180232
535.414736	0.180852
535.630306	0.181101
535.845857	0.182009
536.061390	0.181407
536.276904	0.181797
536.492401	0.181791
536.707879	0.183181
536.923339	0.183001
537.138781	0.183154
537.354204	0.183350
537.569610	0.183299
537.784997	0.182838
538.000366	0.183766
538.215716	0.184173
538.431049	0.185014
538.646363	0.185047
538.861659	0.185673
539.076937	0.185339
539.292196	0.185533
539.507438	0.186712
539.722661	0.187104
539.937866	0.187117
540.153052	0.187332
540.368221	0.187149
540.583371	0.187338
540.798503	0.187650
541.013617	0.188570
541.228712	0.188359
541.443789	0.187867
541.658848	0.188919
541.873889	0.189279
542.088912	0.189488
542.303916	0.190053
542.518902	0.190338
542.733870	0.190283
542.948820	0.190594
543.163752	0.190686
543.378665	0.191629
543.593560	0.191493
543.808437	0.192138
544.023295	0.192258
544.238136	0.192223
544.452958	0.192223
544.667762	0.192353
544.882548	0.192230
545.097315	0.193352
545.312064	0.193161
545.526795	0.193571
545.741508	0.193824
545.956203	0.194392
546.170879	0.194659
546.385537	0.195008
546.600177	0.195752
546.814799	0.196264
547.029402	0.196251
547.243988	0.196313
547.458555	0.195812
547.673103	0.195794
547.887634	0.196006
548.102146	0.196006
548.316640	0.196308
548.531116	0.196884
548.745574	0.196725
548.960013	0.196970
549.174435	0.197611
549.388838	0.198647
549.603222	0.199087
549.817589	0.199718
550.031937	0.200301
550.246267	0.200765
550.460579	0.200407
550.674873	0.200934
550.889148	0.201161
551.103405	0.201213
551.317644	0.201034
551.531865	0.201547
551.746068	0.201405
551.960252	0.201579
552.174418	0.201760
552.388566	0.201752
552.602696	0.201565
552.816807	0.202225
553.030900	0.202532
553.244975	0.202759
553.459032	0.202509
553.673070	0.202672
553.887091	0.202877
554.101093	0.202956
554.315077	0.203465
554.529042	0.204256
554.742990	0.203880
554.956919	0.204224
555.170830	0.204132
555.384722	0.204490
555.598597	0.205088
555.812453	0.205376
556.026291	0.205576
556.240111	0.205851
556.453913	0.206401
556.667696	0.206863
556.881461	0.206929
557.095208	0.207374
557.308937	0.207417
557.522647	0.207457
557.736339	0.207708
557.950013	0.207643
558.163669	0.208343
558.377307	0.208016
558.590926	0.208072
558.804527	0.208247
559.018110	0.208341
559.231675	0.208702
559.445221	0.208706
559.658749	0.208700
559.872259	0.208971
560.085751	0.208861
560.299225	0.209671
560.512680	0.209835
560.726117	0.210117
560.939536	0.210620
561.152937	0.211367
561.366319	0.211508
561.579683	0.211864
561.793029	0.212024
562.006357	0.212194
562.219667	0.211499
562.432958	0.211889
562.646231	0.212302
562.859486	0.212576
563.072723	0.212384
563.285941	0.213073
563.499141	0.212880
563.712323	0.213073
563.925487	0.213663
564.138632	0.214249
564.351760	0.214539
564.564869	0.214361
564.777960	0.214570
564.991032	0.214565
565.204087	0.214637
565.417123	0.215149
565.630141	0.215379
565.843140	0.215358
566.056122	0.215801
566.269085	0.215818
566.482030	0.216170
566.694957	0.216002
566.907866	0.216353
567.120756	0.216309
567.333628	0.216761
567.546482	0.216995
567.759318	0.216845
567.972135	0.216777
568.184935	0.216834
568.397716	0.217177
568.610478	0.217913
568.823223	0.218012
569.035949	0.218134
569.248657	0.218025
569.461347	0.218505
569.674019	0.218996
569.886672	0.218969
570.099308	0.219072
570.311925	0.219357
570.524523	0.219372
570.737104	0.219687
570.949666	0.219891
571.162210	0.220162
571.374736	0.220320
571.587244	0.220201
571.799733	0.220693
572.012205	0.221249
572.224658	0.220922
572.437092	0.220783
572.649509	0.220781
572.861907	0.220569
573.074287	0.220834
573.286649	0.220564
573.498993	0.220643
573.711318	0.220796
573.923625	0.220711
574.135914	0.220466
574.348185	0.220641
574.560438	0.220668
574.772672	0.220975
574.984888	0.221105
575.197086	0.221502
575.409266	0.221871
575.621427	0.221767
575.833570	0.221798
576.045695	0.222482
576.257802	0.222935
576.469890	0.223178
576.681961	0.223665
576.894013	0.224020
577.106046	0.224236
577.318062	0.224701
577.530059	0.224882
577.742039	0.225554
577.954000	0.225793
578.165942	0.226020
578.377867	0.226568
578.589773	0.226752
578.801661	0.226823
579.013531	0.227064
579.225382	0.227068
579.437216	0.227564
579.649031	0.227665
579.860828	0.228006
580.072606	0.227909
580.284367	0.227734
580.496109	0.227948
580.707833	0.228185
580.919539	0.228530
581.131227	0.228516
581.342896	0.228396
581.554547	0.228393
581.766180	0.228405
581.977795	0.228653
582.189391	0.229264
582.400969	0.229193
582.612529	0.229154
582.824071	0.229509
583.035595	0.229810
583.247100	0.230260
583.458587	0.230458
583.670056	0.230359
583.881506	0.230779
584.092939	0.230665
584.304353	0.231213
584.515749	0.231805
584.727127	0.231687
584.938486	0.231730
585.149828	0.231839
585.361151	0.232080
585.572456	0.232870
585.783742	0.232651
585.995011	0.232999
586.206261	0.232966
586.417493	0.232751
586.628706	0.232656
586.839902	0.232838
587.051079	0.233368
587.262238	0.233781
587.473379	0.233886
587.684502	0.234606
587.895606	0.234511
588.106692	0.234921
588.317760	0.235066
588.528810	0.235913
588.739841	0.236253
588.950855	0.236002
589.161850	0.236382
589.372827	0.236768
589.583785	0.236792
589.794726	0.237246
590.005648	0.237457
590.216552	0.237895
590.427437	0.238065
590.638305	0.238600
590.849154	0.238865
591.059985	0.239086
591.270798	0.238865
591.481592	0.238889
591.692369	0.238729
591.903127	0.239062
592.113867	0.238932
592.324588	0.238683
592.535292	0.238541
592.745977	0.238828
592.956644	0.238823
593.167293	0.239028
593.377923	0.239568
593.588536	0.239934
593.799130	0.239846
594.009706	0.240578
594.220263	0.240965
594.430803	0.241469
594.641324	0.241795
594.851827	0.241912
595.062312	0.242353
595.272778	0.242424
595.483227	0.243104
595.693657	0.243558
595.904069	0.243751
596.114462	0.244078
596.324838	0.244304
596.535195	0.244308
596.745534	0.244703
596.955855	0.244983
597.166157	0.245178
597.376441	0.245094
597.586707	0.245133
597.796955	0.245386
598.007185	0.245677
598.217396	0.245597
598.427589	0.245774
598.637764	0.245830
598.847921	0.245950
599.058060	0.246239
599.268180	0.246194
599.478282	0.246460
599.688366	0.246526
599.898431	0.246561
600.108479	0.246849
600.318508	0.247569
600.528519	0.247876
600.738511	0.247835
600.948486	0.248289
601.158442	0.248411
601.368380	0.248766
601.578300	0.248704
601.788202	0.248832
601.998085	0.249128
602.207950	0.248802
602.417797	0.248977
602.627626	0.249379
602.837436	0.249517
603.047228	0.250011
603.257002	0.250203
603.466758	0.250713
603.676496	0.251156
603.886215	0.251298
604.095916	0.251667
604.305599	0.251697
604.515264	0.252055
604.724910	0.252329
604.934538	0.252667
605.144148	0.252645
605.353740	0.252884
605.563314	0.252835
605.772869	0.252960
605.982406	0.253017
606.191925	0.253149
606.401425	0.253170
606.610908	0.253170
606.820372	0.253113
607.029818	0.253274
607.239246	0.253235
607.448655	0.253568
607.658047	0.253717
607.867420	0.254216
608.076775	0.254495
608.286111	0.254396
608.495430	0.254389
608.704730	0.254530
608.914012	0.254796
609.123275	0.255025
609.332521	0.255152
609.541748	0.255346
609.750957	0.255145
609.960148	0.255265
610.169321	0.255724
610.378475	0.255794
610.587611	0.256064
610.796729	0.256145
611.005829	0.256162
611.214910	0.256148
611.423974	0.256324
611.633019	0.256396
611.842045	0.256561
612.051054	0.256673
612.260044	0.256924
612.469017	0.256948
612.677970	0.257101
612.886906	0.257358
613.095824	0.257829
613.304723	0.258317
613.513604	0.258593
613.722467	0.258903
613.931311	0.259202
614.140138	0.259351
614.348946	0.259871
614.557736	0.260030
614.766507	0.260203
614.975261	0.260525
615.183996	0.260508
615.392713	0.260956
615.601412	0.261009
615.810092	0.261337
616.018754	0.261565
616.227399	0.261615
616.436024	0.262106
616.644632	0.262144
616.853222	0.262200
617.061793	0.262353
617.270346	0.262406
617.478880	0.262346
617.687397	0.262407
617.895895	0.262594
618.104375	0.262900
618.312837	0.262701
618.521281	0.262700
618.729706	0.262422
618.938113	0.262272
619.146502	0.262402
619.354873	0.262999
619.563226	0.262963
619.771560	0.262939
619.979876	0.262982
620.188174	0.263103
620.396453	0.263351
620.604715	0.263729
620.812958	0.263900
621.021183	0.264088
621.229390	0.263763
621.437578	0.263854
621.645748	0.263961
621.853900	0.264269
622.062034	0.264581
622.270150	0.265001
622.478247	0.265170
622.686326	0.265510
622.894387	0.265852
623.102430	0.266110
623.310454	0.266341
623.518461	0.266758
623.726449	0.266702
623.934418	0.266807
624.142370	0.266718
624.350303	0.266810
624.558218	0.267037
624.766115	0.267065
624.973994	0.267538
625.181855	0.267830
625.389697	0.267968
625.597521	0.268174
625.805327	0.268572
626.013114	0.269078
626.220883	0.269788
626.428634	0.270017
626.636367	0.270290
626.844082	0.270322
627.051778	0.270486
627.259457	0.270840
627.467117	0.270981
627.674758	0.270938
627.882382	0.271085
628.089987	0.270713
628.297574	0.270814
628.505143	0.271097
628.712694	0.271288
628.920226	0.271236
629.127740	0.271299
629.335236	0.271481
629.542714	0.271692
629.750174	0.271636
629.957615	0.271938
630.165038	0.272040
630.372443	0.271799
630.579829	0.272243
630.787198	0.272650
630.994548	0.272712
631.201880	0.273099
631.409194	0.273445
631.616489	0.273645
631.823766	0.273846
632.031025	0.274095
632.238266	0.274539
632.445489	0.274374
632.652693	0.273949
632.859879	0.274127
633.067047	0.273667
633.274197	0.273584
633.481329	0.273930
633.688442	0.274010
633.895537	0.274196
634.102614	0.274282
634.309672	0.274396
634.516713	0.275185
634.723735	0.275523
634.930739	0.276367
635.137724	0.276835
635.344692	0.276985
635.551641	0.277344
635.758572	0.277477
635.965485	0.277791
636.172379	0.278100
636.379256	0.277946
636.586114	0.278201
636.792954	0.278446
636.999775	0.278634
637.206579	0.278657
637.413364	0.278611
637.620131	0.278706
637.826880	0.278525
638.033610	0.278675
638.240323	0.278915
638.447017	0.279004
638.653692	0.278800
638.860350	0.278653
639.066990	0.278932
639.273611	0.279076
639.480214	0.279391
639.686798	0.279748
639.893365	0.280049
640.099913	0.280465
640.306443	0.280660
640.512955	0.280748
640.719449	0.281220
640.925924	0.281476
641.132381	0.281934
641.338820	0.282118
641.545241	0.282168
641.751644	0.282314
641.958028	0.282476
642.164394	0.282468
642.370742	0.282869
642.577071	0.283119
642.783383	0.283320
642.989676	0.283555
643.195951	0.283506
643.402207	0.283845
643.608446	0.284274
643.814666	0.284722
644.020868	0.284962
644.227052	0.285167
644.433218	0.285369
644.639365	0.285582
644.845494	0.285550
645.051605	0.286042
645.257698	0.286116
645.463772	0.286207
645.669828	0.286120
645.875866	0.286370
646.081886	0.286543
646.287888	0.286443
646.493871	0.286559
646.699836	0.287003
646.905783	0.286923
647.111712	0.287102
647.317622	0.287198
647.523514	0.287434
647.729388	0.287548
647.935244	0.287777
648.141082	0.287926
648.346901	0.288129
648.552702	0.288091
648.758485	0.288493
648.964250	0.288707
649.169996	0.288888
649.375724	0.289018
649.581434	0.289098
649.787126	0.289292
649.992800	0.289533
650.198455	0.289859
650.404092	0.290160
650.609711	0.290336
650.815311	0.290689
651.020894	0.290814
651.226458	0.291296
651.432004	0.291906
651.637532	0.292019
651.843041	0.292398
652.048532	0.292686
652.254006	0.292797
652.459460	0.292996
652.664897	0.293314
652.870315	0.293551
653.075716	0.293721
653.281097	0.293737
653.486461	0.293739
653.691807	0.293752
653.897134	0.293762
654.102443	0.294229
654.307734	0.294657
654.513006	0.295145
654.718261	0.295437
654.923497	0.295338
655.128715	0.295714
655.333915	0.296330
655.539096	0.296673
655.744259	0.296775
655.949404	0.296846
656.154531	0.296812
656.359640	0.296774
656.564730	0.296987
656.769802	0.297389
656.974856	0.297403
657.179892	0.297583
657.384909	0.297812
657.589908	0.298094
657.794889	0.298487
657.999852	0.298918
658.204797	0.299012
658.409723	0.299450
658.614631	0.299877
658.819521	0.300011
659.024393	0.300107
659.229246	0.300531
659.434081	0.300771
659.638898	0.301006
659.843697	0.301276
660.048478	0.301556
660.253240	0.301466
660.457984	0.301464
660.662710	0.301936
660.867417	0.302087
661.072107	0.302150
661.276778	0.302521
661.481431	0.302500
661.686066	0.302551
661.890682	0.302791
662.095281	0.303140
662.299861	0.303352
662.504422	0.303356
662.708966	0.303514
662.913491	0.303711
663.117999	0.303805
663.322488	0.303982
663.526958	0.304404
663.731411	0.304719
663.935845	0.304752
664.140261	0.304886
664.344659	0.305165
664.549038	0.305471
664.753400	0.305824
664.957743	0.305955
665.162068	0.306348
665.366375	0.306408
665.570663	0.306578
665.774933	0.307057
665.979185	0.307186
666.183419	0.307266
666.387635	0.307473
666.591832	0.307428
666.796011	0.307622
667.000172	0.307647
667.204315	0.307833
667.408439	0.308030
667.612545	0.308116
667.816634	0.308749
668.020703	0.309067
668.224755	0.309521
668.428788	0.309719
668.632803	0.310202
668.836800	0.310381
669.040779	0.310496
669.244739	0.310683
669.448681	0.310967
669.652605	0.311056
669.856511	0.311275
670.060399	0.311405
670.264268	0.311860
670.468119	0.311874
670.671952	0.312183
670.875767	0.312449
671.079563	0.312755
671.283341	0.312932
671.487101	0.313377
671.690843	0.313990
671.894567	0.314266
672.098272	0.314587
672.301959	0.314862
672.505628	0.315194
672.709278	0.315485
672.912911	0.315830
673.116525	0.316050
673.320121	0.316109
673.523699	0.316051
673.727258	0.316039
673.930799	0.316219
674.134322	0.316474
674.337827	0.316688
674.541314	0.316902
674.744782	0.317017
674.948232	0.317397
675.151664	0.317464
675.355078	0.317618
675.558474	0.318169
675.761851	0.318260
675.965210	0.318442
676.168551	0.318952
676.371873	0.319171
676.575178	0.319415
676.778464	0.319710
676.981732	0.319678
677.184981	0.319846
677.388213	0.320099
677.591426	0.320360
677.794621	0.320881
677.997798	0.320899
678.200956	0.321194
678.404097	0.321567
678.607219	0.321722
678.810323	0.322396
679.013408	0.323200
679.216476	0.323410
679.419525	0.323753
679.622556	0.323708
679.825569	0.323987
680.028563	0.324513
680.231540	0.324690
680.434498	0.324944
680.637438	0.325174
680.840359	0.325066
681.043263	0.325102
681.246148	0.325170
681.449015	0.325368
681.651864	0.325488
681.854694	0.325426
682.057506	0.325648
682.260301	0.325700
682.463076	0.326018
682.665834	0.326340
682.868573	0.326659
683.071295	0.327216
683.273998	0.327513
683.476682	0.327800
683.679349	0.327961
683.881997	0.328251
684.084627	0.328515
684.287239	0.328514
684.489833	0.328754
684.692408	0.329019
684.894965	0.329093
685.097504	0.329562
685.300025	0.329764
685.502527	0.329813
685.705012	0.329879
685.907478	0.330186
686.109925	0.330155
686.312355	0.330437
686.514766	0.330402
686.717159	0.330469
686.919534	0.330433
687.121891	0.330765
687.324230	0.331373
687.526550	0.331592
687.728852	0.331726
687.931136	0.332458
688.133401	0.332150
688.335649	0.332576
688.537878	0.332910
688.740089	0.333127
688.942281	0.333196
689.144456	0.333311
689.346612	0.333422
689.548750	0.333572
689.750870	0.333597
689.952971	0.334040
690.155055	0.334153
690.357120	0.334198
690.559167	0.334407
690.761195	0.334609
690.963206	0.334844
691.165198	0.334894
691.367172	0.335289
691.569128	0.335390
691.771065	0.335480
691.972984	0.335637
692.174885	0.336079
692.376768	0.336337
692.578633	0.336416
692.780479	0.336481
692.982308	0.336816
693.184118	0.336740
693.385909	0.336906
693.587683	0.337569
693.789438	0.337890
693.991175	0.338034
694.192894	0.338345
694.394595	0.338782
694.596277	0.338956
694.797941	0.339300
694.999587	0.339723
695.201215	0.339855
695.402824	0.339542
695.604416	0.339723
695.805989	0.340021
696.007543	0.340022
696.209080	0.340174
696.410598	0.340527
696.612099	0.340649
696.813580	0.340884
697.015044	0.341480
697.216490	0.342006
697.417917	0.342247
697.619326	0.342380
697.820717	0.342594
698.022089	0.342645
698.223444	0.342847
698.424780	0.342985
698.626098	0.342965
698.827397	0.342749
699.028679	0.342969
699.229942	0.343011
699.431187	0.343054
699.632414	0.343261
699.833622	0.343132
700.034813	0.343072
700.235985	0.343313
700.437139	0.343614
700.638274	0.343837
700.839392	0.343655
701.040491	0.343761
701.241572	0.344061
701.442635	0.343866
701.643679	0.344406
701.844706	0.344489
702.045714	0.344330
702.246704	0.344231
702.447675	0.344231
702.648629	0.344293
702.849564	0.344408
703.050481	0.344167
703.251380	0.344330
703.452260	0.344222
703.653122	0.344444
703.853966	0.344679
704.054792	0.344757
704.255600	0.344931
704.456389	0.345146
704.657160	0.345365
704.857913	0.345378
705.058648	0.345740
705.259365	0.345732
705.460063	0.345779
705.660743	0.345955
705.861405	0.345851
706.062048	0.345940
706.262674	0.345634
706.463281	0.345751
706.663870	0.345842
706.864441	0.345737
707.064993	0.345931
707.265527	0.345773
707.466043	0.345633
707.666541	0.345718
707.867021	0.345845
708.067482	0.345979
708.267925	0.345895
708.468350	0.346129
708.668757	0.346174
708.869145	0.345919
709.069516	0.345996
709.269868	0.346033
709.470201	0.346358
709.670517	0.346129
709.870814	0.346585
710.071093	0.346642
710.271354	0.346641
710.471597	0.346669
710.671821	0.347054
710.872028	0.347182
711.072216	0.347330
711.272385	0.347274
711.472537	0.347707
711.672670	0.347589
711.872785	0.347488
712.072882	0.347479
712.272961	0.347322
712.473021	0.347307
712.673063	0.347279
712.873087	0.347080
713.073093	0.347123
713.273081	0.346854
713.473050	0.346758
713.673001	0.346724
713.872934	0.346446
714.072849	0.346674
714.272745	0.346646
714.472623	0.346515
714.672483	0.346586
714.872325	0.346575
715.072148	0.346596
715.271954	0.346499
715.471741	0.346416
715.671509	0.346449
715.871260	0.346214
716.070992	0.346230
716.270707	0.346354
716.470403	0.346372
716.670080	0.346264
716.869740	0.346287
717.069381	0.346401
717.269004	0.346658
717.468609	0.346826
717.668195	0.346843
717.867764	0.346843
718.067314	0.346794
718.266846	0.346807
718.466360	0.346679
718.665855	0.346563
718.865332	0.346265
719.064791	0.346102
719.264232	0.346023
719.463655	0.346139
719.663059	0.346180
719.862445	0.346255
720.061813	0.346452
720.261163	0.346237
720.460494	0.346304
720.659807	0.346336
720.859102	0.346260
721.058379	0.346505
721.257638	0.346389
721.456878	0.346089
721.656100	0.345728
721.855304	0.345350
722.054490	0.345551
722.253657	0.345192
722.452806	0.344969
722.651937	0.345011
722.851050	0.344688
723.050145	0.344550
723.249221	0.344157
723.448279	0.344240
723.647319	0.344061
723.846340	0.343950
724.045344	0.343953
724.244329	0.344260
724.443296	0.344024
724.642245	0.343761
724.841175	0.343722
725.040088	0.343893
725.238982	0.344027
725.437857	0.344017
725.636715	0.343899
725.835554	0.343738
726.034376	0.343444
726.233179	0.343394
726.431963	0.343325
726.630730	0.343175
726.829478	0.342902
727.028208	0.342651
727.226920	0.342541
727.425614	0.342543
727.624289	0.342726
727.822946	0.343123
728.021585	0.342873
728.220206	0.342784
728.418808	0.342563
728.617392	0.342801
728.815958	0.342749
729.014506	0.342729
729.213036	0.342438
729.411547	0.342007
729.610040	0.341454
729.808515	0.341489
730.006972	0.341393
730.205410	0.341440
730.403831	0.341390
730.602233	0.341349
730.800616	0.340971
730.998982	0.340923
731.197329	0.340765
731.395658	0.340550
731.593969	0.340381
731.792262	0.340305
731.990536	0.340322
732.188793	0.340047
732.387031	0.339689
732.585250	0.339465
732.783452	0.339401
732.981635	0.339463
733.179800	0.339322
733.377947	0.339148
733.576076	0.338684
733.774186	0.338333
733.972278	0.338201
734.170352	0.338003
734.368408	0.337726
734.566446	0.337462
734.764465	0.336882
734.962466	0.336768
735.160449	0.336700
735.358413	0.336624
735.556360	0.336278
735.754288	0.335796
735.952198	0.335711
736.150090	0.335819
736.347963	0.335471
736.545818	0.335551
736.743655	0.335319
736.941474	0.334796
737.139275	0.334962
737.337057	0.335072
737.534821	0.335131
737.732567	0.334758
737.930295	0.334395
738.128005	0.334342
738.325696	0.334123
738.523369	0.333929
738.721024	0.333752
738.918660	0.333345
739.116279	0.332951
739.313879	0.332926
739.511461	0.332878
739.709024	0.332839
739.906570	0.332864
740.104097	0.332801
740.301606	0.332558
740.499097	0.332702
740.696569	0.332287
740.894024	0.332083
741.091460	0.331721
741.288878	0.331372
741.486277	0.331525
741.683659	0.331254
741.881022	0.331007
742.078367	0.330934
742.275694	0.330731
742.473002	0.330708
742.670293	0.330456
742.867565	0.330023
743.064819	0.329615
743.262054	0.328925
743.459272	0.328585
743.656471	0.328621
743.853652	0.328605
744.050815	0.328235
744.247959	0.327839
744.445085	0.327914
744.642194	0.328263
744.839283	0.328356
745.036355	0.328641
745.233408	0.328531
745.430444	0.328091
745.627461	0.327577
745.824459	0.327250
746.021440	0.327274
746.218402	0.326848
746.415346	0.326047
746.612272	0.325625
746.809180	0.325251
747.006069	0.325034
747.202940	0.324964
747.399793	0.324909
747.596628	0.324836
747.793444	0.324819
747.990243	0.324707
748.187023	0.324887
748.383784	0.325058
748.580528	0.324757
748.777253	0.324621
748.973960	0.324373
749.170649	0.324134
749.367320	0.323911
749.563973	0.323425
749.760607	0.323330
749.957223	0.323072
750.153821	0.322530
750.350400	0.322501
750.546962	0.322249
750.743505	0.322102
750.940030	0.322143
751.136536	0.322108
751.333025	0.322214
751.529495	0.321729
751.725947	0.321581
751.922381	0.321849
752.118796	0.321487
752.315194	0.321463
752.511573	0.321219
752.707934	0.320693
752.904276	0.320513
753.100601	0.320174
753.296907	0.320121
753.493195	0.319893
753.689465	0.319725
753.885716	0.319545
754.081949	0.319088
754.278164	0.319029
754.474361	0.319072
754.670540	0.318856
754.866700	0.318618
755.062843	0.318587
755.258967	0.318250
755.455072	0.317951
755.651160	0.318152
755.847229	0.318089
756.043280	0.317718
756.239313	0.317429
756.435328	0.317177
756.631324	0.317223
756.827302	0.316980
757.023262	0.316784
757.219204	0.316351
757.415127	0.315754
757.611033	0.315426
757.806920	0.315507
758.002788	0.315345
758.198639	0.315335
758.394471	0.315034
758.590286	0.314771
758.786081	0.314745
758.981859	0.314556
759.177619	0.314304
759.373360	0.314096
759.569083	0.313849
759.764788	0.313872
759.960474	0.313628
760.156143	0.313485
760.351793	0.313640
760.547425	0.313554
760.743038	0.313761
760.938634	0.313585
761.134211	0.313824
761.329770	0.313330
761.525311	0.312710
761.720833	0.312315
761.916338	0.311896
762.111824	0.311396
762.307292	0.311048
762.502741	0.310392
762.698173	0.310368
762.893586	0.310027
763.088981	0.309970
763.284358	0.310245
763.479716	0.310089
763.675057	0.310151
763.870379	0.309952
764.065683	0.309941
764.260968	0.309767
764.456236	0.309589
764.651485	0.309122
764.846716	0.309099
765.041929	0.308551
765.237123	0.308595
765.432299	0.308488
765.627457	0.308586
765.822597	0.308214
766.017719	0.308538
766.212822	0.308397
766.407907	0.308596
766.602974	0.308642
766.798023	0.308951
766.993054	0.308692
767.188066	0.308308
767.383060	0.308247
767.578036	0.308320
767.772993	0.307946
767.967933	0.307890
768.162854	0.307734
768.357757	0.307547
768.552642	0.307081
768.747508	0.307122
768.942356	0.307148
769.137186	0.307040
769.331998	0.306986
769.526792	0.307196
769.721567	0.306922
769.916324	0.306817
770.111063	0.306470
770.305784	0.306505
770.500486	0.306305
770.695171	0.306092
770.889837	0.305969
771.084484	0.306001
771.279114	0.305503
771.473725	0.305480
771.668318	0.305233
771.862893	0.305225
772.057450	0.305039
772.251988	0.304819
772.446509	0.305034
772.641011	0.305038
772.835494	0.304694
773.029960	0.304606
773.224407	0.304696
773.418836	0.304713
773.613247	0.304497
773.807640	0.304622
774.002014	0.304708
774.196370	0.304396
774.390708	0.304077
774.585028	0.303706
774.779330	0.303948
774.973613	0.303681
775.167878	0.303568
775.362125	0.303439
775.556354	0.303202
775.750564	0.303076
775.944756	0.303170
776.138930	0.302977
776.333086	0.303393
776.527223	0.303221
776.721343	0.303438
776.915444	0.303494
777.109526	0.303678
777.303591	0.303723
777.497637	0.304012
777.691666	0.304017
777.885676	0.304170
778.079667	0.304286
778.273641	0.304117
778.467596	0.303878
778.661533	0.303675
778.855452	0.303590
779.049352	0.303420
779.243235	0.303032
779.437099	0.303007
779.630945	0.302984
779.824773	0.302662
780.018582	0.302731
780.212373	0.302560
780.406146	0.302764
780.599901	0.302813
780.793638	0.303061
780.987356	0.303231
781.181056	0.303150
781.374738	0.303121
781.568402	0.303090
781.762047	0.303054
781.955674	0.302932
782.149283	0.302894
782.342874	0.302635
782.536447	0.302590
782.730001	0.302518
782.923537	0.302593
783.117055	0.302660
783.310555	0.302655
783.504036	0.302664
783.697499	0.302641
783.890944	0.302831
784.084371	0.302901
784.277780	0.302740
784.471170	0.302524
784.664542	0.302424
784.857896	0.302313
785.051231	0.302201
785.244549	0.302390
785.437848	0.302593
785.631129	0.302274
785.824392	0.302314
786.017636	0.302584
786.210863	0.302663
786.404071	0.302811
786.597260	0.302616
786.790432	0.302591
786.983585	0.302429
787.176721	0.302678
787.369838	0.302828
787.562936	0.302725
787.756017	0.302481
787.949079	0.302518
788.142123	0.302102
788.335149	0.302238
788.528156	0.302464
788.721146	0.302624
788.914117	0.302363
789.107070	0.302503
789.300005	0.302705
789.492921	0.302774
789.685819	0.302850
789.878699	0.303363
790.071561	0.303532
790.264405	0.303604
790.457230	0.303726
790.650037	0.303800
790.842826	0.303459
791.035597	0.303666
791.228349	0.304046
791.421084	0.304647
791.613800	0.304683
791.806497	0.304964
791.999177	0.304935
792.191838	0.304732
792.384481	0.304993
792.577106	0.305386
792.769713	0.305304
792.962301	0.305235
793.154871	0.304703
793.347423	0.304511
793.539957	0.304518
793.732473	0.304495
793.924970	0.304688
794.117449	0.304683
794.309910	0.304657
794.502353	0.304840
794.694777	0.304862
794.887183	0.305328
795.079571	0.305711
795.271941	0.305654
795.464293	0.305886
795.656626	0.305989
795.848941	0.306158
796.041238	0.306433
796.233516	0.306379
796.425777	0.306788
796.618019	0.306729
796.810243	0.306684
797.002449	0.306760
797.194636	0.307024
797.386805	0.307327
797.578956	0.307618
797.771089	0.307619
797.963204	0.308009
798.155300	0.308090
798.347378	0.308339
798.539438	0.308538
798.731480	0.308939
798.923503	0.309197
799.115509	0.309204
799.307496	0.309280
799.499465	0.309610
799.691415	0.309931
799.883348	0.309915
800.075262	0.309905
800.267158	0.310129
800.459035	0.310163
800.650895	0.310298
800.842736	0.310514
801.034559	0.310475
801.226364	0.310579
801.418150	0.310484
801.609919	0.310573
801.801669	0.310833
801.993401	0.311093
802.185114	0.311294
802.376810	0.311303
802.568487	0.311371
802.760146	0.311838
802.951787	0.311772
803.143409	0.311983
803.335014	0.312367
803.526600	0.312413
803.718168	0.312840
803.909717	0.313022
804.101249	0.313288
804.292762	0.313707
804.484257	0.313813
804.675734	0.314594
804.867192	0.314713
805.058632	0.314731
805.250054	0.315341
805.441458	0.315115
805.632844	0.315605
805.824211	0.316084
806.015561	0.316186
806.206891	0.316512
806.398204	0.316406
806.589499	0.316639
806.780775	0.317042
806.972033	0.317118
807.163273	0.317435
807.354495	0.317365
807.545698	0.317187
807.736883	0.317602
807.928050	0.317451
808.119199	0.317713
808.310329	0.317927
808.501441	0.317856
808.692535	0.318263
808.883611	0.318642
809.074669	0.319179
809.265708	0.319628
809.456729	0.319998
809.647732	0.320797
809.838717	0.321071
810.029683	0.321628
810.220632	0.321997
810.411562	0.322033
810.602474	0.322328
810.793367	0.322653
810.984242	0.322928
811.175100	0.323164
811.365938	0.323352
811.556759	0.323713
811.747562	0.324033
811.938346	0.324544
812.129112	0.324988
812.319860	0.325400
812.510589	0.325404
812.701300	0.325687
812.891994	0.325887
813.082668	0.326159
813.273325	0.326491
813.463964	0.326892
813.654584	0.327133
813.845186	0.327472
814.035769	0.327739
814.226335	0.328058
814.416882	0.328174
814.607411	0.328355
814.797922	0.328406
814.988415	0.328961
815.178889	0.329027
815.369345	0.329309
815.559783	0.329755
815.750203	0.329991
815.940605	0.330492
816.130988	0.330914
816.321353	0.331195
816.511700	0.331976
816.702028	0.331989
816.892339	0.332357
817.082631	0.332570
817.272905	0.332291
817.463161	0.332250
817.653398	0.332376
817.843617	0.332802
818.033819	0.332962
818.224001	0.332916
818.414166	0.332925
818.604312	0.333229
818.794440	0.333391
818.984550	0.333781
819.174642	0.334287
819.364716	0.334427
819.554771	0.334636
819.744808	0.335184
819.934827	0.335581
820.124827	0.336357
820.314810	0.337032
820.504774	0.337574
820.694720	0.338103
820.884647	0.338574
821.074557	0.339029
821.264448	0.339559
821.454321	0.339917
821.644176	0.340108
821.834012	0.340058
822.023831	0.340066
822.213631	0.340550
822.403413	0.340659
822.593176	0.341275
822.782922	0.341844
822.972649	0.342294
823.162358	0.342874
823.352049	0.343523
823.541721	0.344188
823.731376	0.344501
823.921012	0.344696
824.110629	0.345780
824.300229	0.345859
824.489811	0.346072
824.679374	0.346160
824.868919	0.346277
825.058445	0.346477
825.247954	0.346584
825.437444	0.346863
825.626916	0.347218
825.816370	0.347513
826.005806	0.347872
826.195223	0.348601
826.384622	0.349220
826.574003	0.349826
826.763366	0.350499
826.952711	0.351319
827.142037	0.351879
827.331345	0.352484
827.520635	0.352369
827.709906	0.353004
827.899160	0.353105
828.088395	0.353230
828.277612	0.353553
828.466810	0.353915
828.655991	0.354170
828.845153	0.354473
829.034297	0.354888
829.223423	0.355519
829.412531	0.355948
829.601620	0.356150
829.790691	0.356731
829.979744	0.357086
830.168779	0.357472
830.357795	0.357865
830.546793	0.358433
830.735773	0.358898
830.924735	0.359424
831.113679	0.359865
831.302604	0.360556
831.491511	0.361082
831.680400	0.361459
831.869271	0.361929
832.058123	0.362162
832.246957	0.362056
832.435773	0.362541
832.624571	0.362657
832.813351	0.362899
833.002112	0.363510
833.190855	0.363912
833.379580	0.364175
833.568287	0.364504
833.756975	0.365187
833.945645	0.365860
834.134297	0.365906
834.322931	0.366525
834.511547	0.367054
834.700144	0.367239
834.888723	0.367404
835.077284	0.368367
835.265826	0.368866
835.454351	0.369176
835.642857	0.369689
835.831345	0.370282
836.019815	0.370677
836.208266	0.370657
836.396699	0.370768
836.585114	0.371621
836.773511	0.371822
836.961890	0.372144
837.150250	0.372569
837.338592	0.373554
837.526916	0.373864
837.715222	0.374119
837.903510	0.374852
838.091779	0.375463
838.280030	0.375693
838.468263	0.376074
838.656477	0.376370
838.844674	0.376659
839.032852	0.376522
839.221012	0.377010
839.409153	0.377915
839.597277	0.378230
839.785382	0.379067
839.973469	0.379729
840.161538	0.380003
840.349589	0.380633
840.537621	0.381358
840.725635	0.381964
840.913631	0.382494
841.101609	0.382758
841.289568	0.383339
841.477509	0.383609
841.665432	0.383854
841.853337	0.384346
842.041224	0.384640
842.229092	0.385063
842.416942	0.385593
842.604774	0.385910
842.792588	0.386278
842.980383	0.386723
843.168160	0.387044
843.355919	0.387336
843.543660	0.387560
843.731382	0.387991
843.919087	0.388573
844.106773	0.388766
844.294441	0.389630
844.482090	0.390045
844.669722	0.390632
844.857335	0.391052
845.044930	0.391675
845.232507	0.392561
845.420065	0.392772
845.607605	0.392960
845.795127	0.393611
845.982631	0.393693
846.170117	0.393753
846.357584	0.393794
846.545033	0.394408
846.732464	0.394722
846.919877	0.395147
847.107272	0.395441
847.294648	0.395798
847.482006	0.396338
847.669346	0.396730
847.856667	0.397725
848.043971	0.398441
848.231256	0.398969
848.418523	0.399652
848.605771	0.399654
848.793002	0.400363
848.980214	0.401089
849.167408	0.401679
849.354584	0.402577
849.541742	0.402569
849.728881	0.402967
849.916002	0.403277
850.103105	0.403262
850.290190	0.403714
850.477256	0.404461
850.664304	0.404567
850.851334	0.404666
851.038346	0.405141
851.225340	0.405743
851.412315	0.405890
851.599272	0.406336
851.786211	0.407042
851.973132	0.408205
852.160034	0.408960
852.346918	0.409518
852.533784	0.410195
852.720632	0.410354
852.907462	0.411051
853.094273	0.411731
853.281066	0.412367
853.467841	0.412590
853.654598	0.412995
853.841336	0.413185
854.028056	0.413711
854.214758	0.414185
854.401442	0.414637
854.588107	0.415306
854.774755	0.416025
854.961384	0.416296
855.147995	0.417487
855.334587	0.417498
855.521162	0.417859
855.707718	0.418499
855.894256	0.419057
856.080775	0.419352
856.267277	0.419834
856.453760	0.420335
856.640225	0.420920
856.826672	0.420908
857.013101	0.421654
857.199511	0.421830
857.385903	0.422263
857.572277	0.422526
857.758633	0.423200
857.944970	0.422997
858.131290	0.423347
858.317591	0.423642
858.503873	0.424317
858.690138	0.424400
858.876384	0.424836
859.062612	0.425018
859.248822	0.424990
859.435014	0.425270
859.621188	0.425804
859.807343	0.425553
859.993480	0.426124
860.179599	0.426637
860.365699	0.426938
860.551781	0.427945
860.737846	0.428408
860.923891	0.429437
861.109919	0.429826
861.295929	0.430347
861.481920	0.431043
861.667893	0.431196
861.853848	0.430990
862.039784	0.431830
862.225702	0.432015
862.411603	0.432682
862.597484	0.432607
862.783348	0.432903
862.969193	0.433351
863.155021	0.433923
863.340830	0.434430
863.526620	0.435401
863.712393	0.435579
863.898147	0.435762
864.083883	0.435844
864.269601	0.436415
864.455301	0.436905
864.640982	0.437472
864.826645	0.438074
865.012290	0.438500
865.197917	0.438769
865.383526	0.439252
865.569116	0.439967
865.754688	0.440540
865.940242	0.441121
866.125777	0.441513
866.311295	0.441541
866.496794	0.442115
866.682275	0.442207
866.867737	0.442665
867.053182	0.442601
867.238608	0.442681
867.424016	0.442838
867.609406	0.442873
867.794778	0.443221
867.980131	0.443536
868.165466	0.443581
868.350783	0.444578
868.536082	0.444248
868.721362	0.444796
868.906625	0.445076
869.091869	0.445387
869.277094	0.445873
869.462302	0.446512
869.647491	0.446799
869.832662	0.447194
870.017815	0.447108
870.202950	0.447772
870.388066	0.448210
870.573165	0.448684
870.758245	0.448707
870.943306	0.448616
871.128350	0.448682
871.313375	0.449457
871.498382	0.449605
871.683371	0.450205
871.868342	0.450426
872.053294	0.450821
872.238229	0.450972
872.423144	0.451759
872.608042	0.451968
872.792922	0.451943
872.977783	0.451885
873.162626	0.452634
873.347451	0.452733
873.532258	0.453251
873.717046	0.453166
873.901816	0.453305
874.086568	0.453339
874.271302	0.454033
874.456017	0.454723
874.640715	0.455124
874.825394	0.454962
875.010055	0.455275
875.194697	0.454908
875.379322	0.455585
875.563928	0.455808
875.748516	0.455848
875.933085	0.456288
876.117637	0.456382
876.302170	0.456920
876.486685	0.457449
876.671182	0.457613
876.855661	0.458324
877.040121	0.458201
877.224563	0.458675
877.408987	0.458741
877.593393	0.458484
877.777780	0.458944
877.962150	0.458437
878.146501	0.458064
878.330833	0.457804
878.515148	0.457612
878.699444	0.457712
878.883722	0.457856
879.067982	0.458349
879.252224	0.458487
879.436447	0.458542
879.620653	0.459321
879.804840	0.459780
879.989008	0.460121
880.173159	0.460165
880.357291	0.460544
880.541405	0.460748
880.725501	0.460877
880.909579	0.461210
881.093638	0.460455
881.277680	0.460362
881.461703	0.460456
881.645707	0.460196
881.829694	0.460515
882.013662	0.460257
882.197612	0.460363
882.381544	0.460571
882.565458	0.461028
882.749353	0.461581
882.933230	0.461307
883.117089	0.461519
883.300930	0.461913
883.484753	0.462253
883.668557	0.462978
883.852343	0.462588
884.036111	0.462602
884.219861	0.463144
884.403592	0.463645
884.587305	0.463872
884.771000	0.464033
884.954677	0.464173
885.138335	0.464169
885.321976	0.464218
885.505598	0.464626
885.689201	0.465192
885.872787	0.464327
886.056354	0.464504
886.239904	0.464585
886.423434	0.464368
886.606947	0.464049
886.790442	0.464477
886.973918	0.464084
887.157376	0.464682
887.340816	0.464678
887.524237	0.464773
887.707641	0.464892
887.891026	0.465268
888.074393	0.465524
888.257741	0.465985
888.441072	0.465571
888.624384	0.465985
888.807678	0.465313
888.990954	0.464865
889.174211	0.465216
889.357451	0.464898
889.540672	0.464867
889.723875	0.464358
889.907059	0.464637
890.090226	0.464910
890.273374	0.464680
890.456504	0.464881
890.639616	0.464641
890.822709	0.464295
891.005785	0.464021
891.188842	0.464012
891.371881	0.464125
891.554901	0.463616
891.737904	0.462763
891.920888	0.462366
892.103854	0.462083
892.286802	0.462262
892.469731	0.462247
892.652643	0.462394
892.835536	0.461970
893.018410	0.461327
893.201267	0.461746
893.384106	0.462238
893.566926	0.462461
893.749728	0.462257
893.932511	0.461861
894.115277	0.461900
894.298024	0.461645
894.480753	0.461678
894.663464	0.461757
894.846157	0.460672
895.028831	0.460007
895.211487	0.459673
895.394125	0.460424
895.576745	0.460261
895.759346	0.460035
895.941930	0.460004
896.124495	0.460284
896.307041	0.460422
896.489570	0.460978
896.672080	0.461309
896.854573	0.460935
897.037046	0.460129
897.219502	0.460248
897.401940	0.460288
897.584359	0.459659
897.766760	0.458824
897.949143	0.459076
898.131507	0.458409
898.313854	0.458154
898.496182	0.458681
898.678492	0.458511
898.860783	0.458265
899.043057	0.457604
899.225312	0.458086
899.407549	0.457878
899.589768	0.456934
899.771968	0.457095
899.954151	0.456951
900.136315	0.456608
900.318461	0.455769
900.500588	0.455243
900.682698	0.455486
900.864789	0.454936
901.046862	0.455085
901.228917	0.454788
901.410953	0.454257
901.592971	0.453644
901.774972	0.452454
901.956953	0.452315
902.138917	0.452195
902.320862	0.451224
902.502790	0.450539
902.684699	0.450212
902.866589	0.449811
903.048462	0.449483
903.230316	0.449452
903.412152	0.449230
903.593970	0.449191
903.775770	0.448270
903.957551	0.448544
904.139314	0.448008
904.321059	0.447547
904.502786	0.447558
904.684494	0.447228
904.866185	0.446616
905.047857	0.446206
905.229510	0.445207
905.411146	0.445381
905.592763	0.444107
905.774363	0.443890
905.955943	0.443667
906.137506	0.443171
906.319051	0.442721
906.500577	0.442933
906.682085	0.443093
906.863575	0.443144
907.045046	0.442447
907.226500	0.442349
907.407935	0.442013
907.589352	0.441236
907.770750	0.440705
907.952131	0.440079
908.133493	0.438792
908.314837	0.437740
908.496163	0.437226
908.677470	0.436899
908.858760	0.437143
909.040031	0.436149
909.221284	0.435248
909.402518	0.435421
909.583735	0.435000
909.764933	0.434504
909.946113	0.434607
910.127275	0.433668
910.308418	0.432223
910.489544	0.430863
910.670651	0.430924
910.851740	0.430362
911.032810	0.429292
911.213863	0.428139
911.394897	0.427827
911.575913	0.426625
911.756911	0.426778
911.937890	0.426647
912.118851	0.426432
912.299794	0.425446
912.480719	0.424574
912.661626	0.423961
912.842514	0.423948
913.023384	0.423108
913.204236	0.423182
913.385070	0.422337
913.565886	0.422110
913.746683	0.421385
913.927462	0.420817
914.108223	0.421159
914.288965	0.420501
914.469690	0.419593
914.650396	0.419191
914.831084	0.418559
915.011754	0.417976
915.192405	0.416752
915.373038	0.415577
915.553653	0.414807
915.734250	0.414017
915.914829	0.413155
916.095389	0.412965
916.275931	0.412157
916.456455	0.411297
916.636961	0.411141
916.817448	0.411045
916.997917	0.410658
917.178368	0.410264
917.358801	0.409335
917.539216	0.408785
917.719612	0.407211
917.899990	0.406701
918.080350	0.406062
918.260692	0.404138
918.441015	0.404118
918.621320	0.403532
918.801607	0.402998
918.981876	0.402095
919.162127	0.401101
919.342359	0.400907
919.522573	0.399600
919.702769	0.398709
919.882947	0.398335
920.063106	0.397025
920.243247	0.396140
920.423370	0.395421
920.603475	0.394250
920.783562	0.394166
920.963630	0.394022
921.143680	0.393430
921.323712	0.392765
921.503725	0.392348
921.683721	0.391839
921.863698	0.391135
922.043657	0.390135
922.223598	0.389734
922.403520	0.388608
922.583424	0.387756
922.763311	0.388094
922.943178	0.386788
923.123028	0.385846
923.302859	0.385167
923.482673	0.384262
923.662467	0.383177
923.842244	0.382537
924.022003	0.381546
924.201743	0.380263
924.381465	0.378468
924.561169	0.377866
924.740854	0.376619
924.920522	0.375685
925.100171	0.374621
925.279802	0.374088
925.459414	0.372606
925.639009	0.372342
925.818585	0.371278
925.998143	0.370389
926.177683	0.369935
926.357205	0.369036
926.536708	0.368422
926.716193	0.368261
926.895660	0.367533
927.075109	0.366959
927.254539	0.365312
927.433951	0.364791
927.613345	0.364171
927.792721	0.363004
927.972079	0.362359
928.151418	0.360290
928.330739	0.358813
928.510042	0.357748
928.689327	0.356778
928.868593	0.355804
929.047841	0.354584
929.227071	0.353337
929.406283	0.352586
929.585476	0.351014
929.764652	0.350631
929.943809	0.349919
930.122948	0.348210
930.302068	0.347435
930.481171	0.347009
930.660255	0.345463
930.839321	0.344256
931.018369	0.342828
931.197398	0.342716
931.376409	0.341297
931.555402	0.340360
931.734377	0.340696
931.913334	0.339733
932.092272	0.337842
932.271192	0.337238
932.450094	0.336048
932.628978	0.335218
932.807844	0.333493
932.986691	0.332739
933.165520	0.330614
933.344331	0.328256
933.523123	0.326758
933.701898	0.326013
933.880654	0.324895
934.059392	0.324264
934.238111	0.323631
934.416813	0.322879
934.595496	0.321846
934.774161	0.322327
934.952808	0.322677
935.131437	0.321862
935.310047	0.320915
935.488639	0.319370
935.667213	0.317801
935.845769	0.315888
936.024306	0.315192
936.202825	0.315308
936.381326	0.313689
936.559809	0.311832
936.738274	0.310165
936.916720	0.308432
937.095148	0.307819
937.273558	0.307070
937.451950	0.306312
937.630323	0.305150
937.808678	0.303473
937.987015	0.302506
938.165334	0.301480
938.343635	0.301305
938.521917	0.300987
938.700181	0.300840
938.878427	0.300957
939.056655	0.299572
939.234864	0.298306
939.413055	0.296886
939.591228	0.295296
939.769383	0.294055
939.947519	0.293092
940.125638	0.291940
940.303738	0.289633
940.481820	0.287101
940.659883	0.286329
940.837929	0.284609
941.015956	0.282107
941.193965	0.281336
941.371955	0.279407
941.549928	0.277523
941.727882	0.276415
941.905818	0.275654
942.083736	0.274774
942.261636	0.274007
942.439517	0.273586
942.617380	0.273327
942.795225	0.272082
942.973052	0.271919
943.150860	0.270689
943.328651	0.270789
943.506423	0.271060
943.684176	0.269592
943.861912	0.268496
944.039629	0.266756
944.217328	0.266717
944.395009	0.265185
944.572672	0.264242
944.750317	0.264306
944.927943	0.262139
945.105551	0.259401
945.283141	0.259632
945.460712	0.257748
945.638265	0.257001
945.815801	0.253965
945.993317	0.253264
946.170816	0.252378
946.348297	0.249057
946.525759	0.247066
946.703203	0.245348
946.880629	0.244137
947.058036	0.241810
947.235425	0.240430
947.412797	0.238913
947.590149	0.236211
947.767484	0.234007
947.944800	0.233981
948.122099	0.233008
948.299379	0.232208
948.476640	0.230021
948.653884	0.230087
948.831109	0.228231
949.008316	0.227423
949.185505	0.226575
949.362676	0.224654
949.539828	0.222737
949.716962	0.220556
949.894078	0.219963
950.071176	0.220318
950.248256	0.219466
950.425317	0.218664
950.602360	0.217904
950.779385	0.216818
950.956391	0.216580
951.133380	0.216871
951.310350	0.215208
951.487302	0.213485
951.664235	0.208956
951.841151	0.206242
952.018048	0.205703
952.194927	0.205039
952.371788	0.206419
952.548631	0.205599
952.725455	0.203169
952.902261	0.204177
953.079049	0.203518
953.255819	0.205178
953.432570	0.204901
953.609303	0.204315
953.786018	0.202726
953.962715	0.199110
954.139394	0.197370
954.316054	0.196063
954.492696	0.193874
954.669320	0.192137
954.845926	0.190348
955.022513	0.186703
955.199083	0.186518
955.375634	0.183644
955.552166	0.183701
955.728681	0.182406
955.905177	0.181168
956.081655	0.180098
956.258115	0.178928
956.434557	0.177522
956.610980	0.180378
956.787385	0.176356
956.963772	0.176535
957.140141	0.175395
957.316492	0.175016
957.492824	0.175278
957.669138	0.174146
957.845434	0.174867
958.021712	0.172883
958.197971	0.169412
958.374212	0.167355
958.550435	0.165620
958.726640	0.164822
958.902826	0.163692
959.078995	0.162812
959.255145	0.163134
959.431277	0.160283
959.607390	0.159128
959.783486	0.158143
959.959563	0.161978
960.135622	0.162456
960.311662	0.160054
960.487685	0.159567
960.663689	0.157750
960.839675	0.155387
961.015643	0.157515
961.191593	0.160100
961.367524	0.160933
961.543437	0.156868
961.719332	0.156755
961.895209	0.155618
962.071067	0.155032
962.246907	0.157347
962.422730	0.158640
962.598533	0.155705
962.774319	0.153292
962.950086	0.153484
963.125835	0.152041
963.301566	0.150219
963.477279	0.150761
963.652973	0.151659
963.828650	0.147862
964.004308	0.147627
964.179947	0.146253
964.355569	0.144989
964.531172	0.143934
964.706757	0.146209
964.882324	0.148276
965.057873	0.149773
965.233403	0.147225
965.408916	0.147796
965.584410	0.146175
965.759885	0.144390
965.935343	0.143707
966.110782	0.143121
966.286203	0.143539
966.461606	0.139964
966.636991	0.137594
966.812357	0.138570
966.987705	0.137025
967.163035	0.138194
967.338347	0.140258
967.513641	0.139706
967.688916	0.140934
967.864173	0.139147
968.039412	0.141398
968.214632	0.142655
968.389835	0.139721
968.565019	0.140169
968.740185	0.137828
968.915333	0.137867
969.090462	0.138562
969.265573	0.138109
969.440667	0.137807
969.615741	0.139457
969.790798	0.138735
969.965836	0.141854
970.140856	0.145037
970.315858	0.147098
970.490842	0.147259
970.665808	0.148871
970.840755	0.146322
971.015684	0.146403
971.190595	0.142990
971.365487	0.141379
971.540362	0.140592
971.715218	0.137696
971.890056	0.137448
972.064875	0.135891
972.239677	0.134090
972.414460	0.136251
972.589225	0.135219
972.763972	0.135022
972.938700	0.137664
973.113411	0.138326
973.288103	0.141156
973.462777	0.141830
973.637432	0.143204
973.812070	0.143885
973.986689	0.142054
974.161290	0.141480
974.335873	0.141175
974.510437	0.143524
974.684984	0.143691
974.859512	0.140738
975.034022	0.139665
975.208513	0.140698
975.382987	0.140674
975.557442	0.142481
975.731879	0.143649
975.906298	0.146540
976.080698	0.143908
976.255080	0.141809
976.429445	0.141232
976.603790	0.142250
976.778118	0.141961
976.952427	0.143187
977.126719	0.142653
977.300992	0.145205
977.475246	0.142817
977.649483	0.142514
977.823701	0.143967
977.997901	0.144720
978.172083	0.143685
978.346247	0.142742
978.520392	0.140536
978.694519	0.138535
978.868628	0.136237
979.042719	0.135954
979.216791	0.135217
979.390845	0.134636
979.564882	0.134193
979.738899	0.134331
979.912899	0.135298
980.086880	0.134231
980.260843	0.135406
980.434788	0.134152
980.608715	0.137781
980.782623	0.137409
980.956514	0.136308
981.130386	0.136733
981.304240	0.138132
981.478075	0.138355
981.651892	0.140553
981.825692	0.140300
981.999472	0.144133
982.173235	0.140929
982.346980	0.142422
982.520706	0.141074
982.694414	0.139981
982.868104	0.138261
983.041775	0.136645
983.215428	0.135645
983.389064	0.138888
983.562680	0.135147
983.736279	0.136893
983.909860	0.136000
984.083422	0.139021
984.256966	0.139242
984.430491	0.139510
984.603999	0.139167
984.777488	0.138505
984.950959	0.135943
985.124412	0.138355
985.297847	0.137642
985.471263	0.138342
985.644661	0.138788
985.818041	0.139752
985.991403	0.140042
986.164747	0.141323
986.338072	0.141981
986.511379	0.140998
986.684668	0.140850
986.857938	0.140714
987.031191	0.139767
987.204425	0.137735
987.377641	0.137252
987.550839	0.138308
987.724018	0.138823
987.897179	0.139606
988.070322	0.139903
988.243447	0.139854
988.416554	0.138489
988.589642	0.139514
988.762712	0.137983
988.935764	0.139500
989.108798	0.138074
989.281813	0.136767
989.454811	0.135308
989.627790	0.134247
989.800751	0.133636
989.973693	0.135518
990.146617	0.135991
990.319524	0.138006
990.492412	0.135322
990.665281	0.136536
990.838133	0.136198
991.010966	0.136760
991.183781	0.137948
991.356578	0.137941
991.529356	0.136008
991.702117	0.136282
991.874859	0.135146
992.047583	0.138098
992.220288	0.137385
992.392976	0.137226
992.565645	0.137877
992.738296	0.139050
992.910929	0.139123
993.083543	0.142010
993.256139	0.142223
993.428718	0.142665
993.601277	0.140358
993.773819	0.139719
993.946342	0.139884
994.118848	0.139276
994.291335	0.138355
994.463803	0.137727
994.636254	0.136815
994.808686	0.134465
994.981100	0.136737
995.153496	0.136453
995.325874	0.135451
995.498233	0.136074
995.670574	0.136217
995.842897	0.138262
996.015202	0.138984
996.187488	0.138617
996.359757	0.140183
996.532007	0.138026
996.704239	0.137707
996.876452	0.139364
997.048648	0.138081
997.220825	0.136904
997.392984	0.134209
997.565124	0.134481
997.737247	0.133716
997.909351	0.132978
998.081437	0.132973
998.253505	0.134165
998.425554	0.134164
998.597586	0.134947
998.769599	0.136767
998.941594	0.138127
999.113571	0.137898
999.285529	0.137826
999.457469	0.138458
999.629391	0.139684
999.801295	0.142133
999.973181	0.143007
1000.145048	0.142924
1000.316897	0.143647
1000.488728	0.142037
1000.660541	0.141982
1000.832335	0.142184
1001.004111	0.139799
1001.175869	0.138373
1001.347609	0.137162
1001.519331	0.134924
1001.691034	0.137354
1001.862719	0.136805
1002.034386	0.137300
1002.206035	0.136888
1002.377665	0.138034
1002.549277	0.139647
1002.720871	0.142711
1002.892447	0.141147
1003.064004	0.142256
1003.235544	0.141386
1003.407065	0.139865
1003.578568	0.140465
1003.750052	0.141091
1003.921519	0.138512
1004.092967	0.136945
1004.264397	0.135582
1004.435809	0.136770
1004.607202	0.136235
1004.778577	0.134973
1004.949934	0.135636
1005.121273	0.137745
1005.292594	0.137727
1005.463896	0.139699
1005.635180	0.144166
1005.806446	0.143581
1005.977694	0.144288
1006.148923	0.145435
1006.320135	0.145143
1006.491328	0.143746
1006.662503	0.141777
1006.833659	0.140909
1007.004798	0.140800
1007.175918	0.138600
1007.347020	0.136895
1007.518103	0.136531
1007.689169	0.136407
1007.860216	0.137643
1008.031245	0.138560
1008.202256	0.137065
1008.373248	0.138548
1008.544223	0.137395
1008.715179	0.135264
1008.886117	0.136463
1009.057036	0.136591
1009.227938	0.134701
1009.398821	0.133665
1009.569686	0.133258
1009.740533	0.135681
1009.911361	0.135539
1010.082172	0.136361
1010.252964	0.137453
1010.423738	0.138101
1010.594493	0.137518
1010.765231	0.139028
1010.935950	0.139150
1011.106651	0.142407
1011.277334	0.141419
1011.447998	0.142462
1011.618645	0.142900
1011.789273	0.144556
1011.959882	0.143867
1012.130474	0.145030
1012.301048	0.145780
1012.471603	0.145274
1012.642140	0.143096
1012.812658	0.143565
1012.983159	0.141030
1013.153641	0.140054
1013.324105	0.139207
1013.494551	0.138820
1013.664979	0.138294
1013.835388	0.136621
1014.005779	0.136765
1014.176152	0.138010
1014.346507	0.137264
1014.516843	0.136256
1014.687162	0.136857
1014.857462	0.136730
1015.027744	0.138321
1015.198007	0.137931
1015.368252	0.138595
1015.538480	0.137219
1015.708689	0.135002
1015.878879	0.135817
1016.049052	0.137886
1016.219206	0.138141
1016.389342	0.136753
1016.559460	0.134830
1016.729559	0.133933
1016.899641	0.132756
1017.069704	0.136033
1017.239749	0.137533
1017.409775	0.136107
1017.579784	0.136699
1017.749774	0.134784
1017.919746	0.136660
1018.089700	0.138606
1018.259635	0.140474
1018.429553	0.141614
1018.599452	0.141710
1018.769333	0.140727
1018.939195	0.141472
1019.109040	0.138733
1019.278866	0.140447
1019.448674	0.140273
1019.618464	0.139231
1019.788235	0.137465
1019.957989	0.137388
1020.127724	0.135219
1020.297441	0.136326
1020.467139	0.136432
1020.636820	0.137023
1020.806482	0.137206
1020.976126	0.135830
1021.145752	0.134348
1021.315359	0.135365
1021.484948	0.136891
1021.654519	0.136943
1021.824072	0.136974
1021.993607	0.136792
1022.163123	0.138466
1022.332621	0.138239
1022.502101	0.138758
1022.671563	0.142055
1022.841007	0.140467
1023.010432	0.139775
1023.179839	0.141195
1023.349228	0.139909
1023.518598	0.141347
1023.687951	0.140233
1023.857285	0.140786
1024.026601	0.139310
1024.195899	0.138717
1024.365178	0.141410
1024.534439	0.141080
1024.703682	0.139086
1024.872907	0.138556
1025.042114	0.136058
1025.211302	0.138567
1025.380472	0.137204
1025.549624	0.138558
1025.718758	0.137048
1025.887873	0.136526
1026.056970	0.134687
1026.226049	0.134779
1026.395110	0.135897
1026.564153	0.135743
1026.733177	0.134514
1026.902183	0.135235
1027.071171	0.135528
1027.240141	0.134878
1027.409092	0.133960
1027.578026	0.136344
1027.746940	0.135958
1027.915837	0.135804
1028.084716	0.137684
1028.253576	0.137277
1028.422418	0.136387
1028.591242	0.137018
1028.760048	0.138619
1028.928835	0.138218
1029.097604	0.136237
1029.266355	0.138517
1029.435088	0.137922
1029.603803	0.137342
1029.772499	0.136418
1029.941177	0.135626
1030.109837	0.134691
1030.278478	0.132412
1030.447102	0.132984
1030.615707	0.132196
1030.784294	0.131630
1030.952863	0.131102
1031.121413	0.129441
1031.289945	0.129180
1031.458460	0.129152
1031.626955	0.128616
1031.795433	0.128859
1031.963892	0.129498
1032.132334	0.130193
1032.300756	0.128796
1032.469161	0.129854
1032.637548	0.131151
1032.805916	0.129440
1032.974266	0.132010
1033.142598	0.133734
1033.310911	0.134957
1033.479207	0.132816
1033.647484	0.132888
1033.815743	0.134732
1033.983983	0.134709
1034.152206	0.134684
1034.320410	0.136020
1034.488596	0.135035
1034.656764	0.133728
1034.824914	0.131760
1034.993045	0.131648
1035.161158	0.130663
1035.329253	0.130235
1035.497330	0.130774
1035.665388	0.129190
1035.833428	0.129590
1036.001450	0.129684
1036.169454	0.127546
1036.337440	0.129982
1036.505407	0.130335
1036.673356	0.130303
1036.841287	0.128320
1037.009200	0.126270
1037.177094	0.126803
1037.344970	0.127827
1037.512828	0.127469
1037.680668	0.130322
1037.848489	0.129168
1038.016293	0.129952
1038.184078	0.132203
1038.351845	0.132670
1038.519593	0.135859
1038.687324	0.136959
1038.855036	0.137791
1039.022730	0.139223
1039.190406	0.140795
1039.358063	0.142242
1039.525702	0.142495
1039.693323	0.143297
1039.860926	0.143622
1040.028511	0.141483
1040.196077	0.140249
1040.363625	0.138279
1040.531155	0.138362
1040.698667	0.135848
1040.866161	0.135027
1041.033636	0.133361
1041.201093	0.131472
1041.368532	0.131843
1041.535952	0.131656
1041.703355	0.134213
1041.870739	0.133778
1042.038105	0.132597
1042.205452	0.132991
1042.372782	0.132737
1042.540093	0.132531
1042.707386	0.132679
1042.874661	0.131313
1043.041918	0.130487
1043.209156	0.127392
1043.376376	0.127953
1043.543578	0.127744
1043.710762	0.127591
1043.877927	0.127999
1044.045074	0.128708
1044.212203	0.129209
1044.379314	0.130351
1044.546407	0.133156
1044.713481	0.135064
1044.880537	0.134304
1045.047575	0.134214
1045.214595	0.133816
1045.381596	0.134833
1045.548579	0.135906
1045.715544	0.135595
1045.882491	0.135162
1046.049420	0.133459
1046.216330	0.133089
1046.383222	0.133136
1046.550096	0.134075
1046.716951	0.134810
1046.883789	0.134337
1047.050608	0.133830
1047.217409	0.133906
1047.384192	0.134979
1047.550956	0.133813
1047.717703	0.133509
1047.884431	0.134123
1048.051140	0.132882
1048.217832	0.131749
1048.384505	0.129185
1048.551161	0.128568
1048.717798	0.129203
1048.884416	0.128588
1049.051017	0.129702
1049.217599	0.129990
1049.384163	0.130871
1049.550709	0.129694
1049.717237	0.130959
1049.883746	0.133923
1050.050237	0.133538
1050.216710	0.132832
1050.383165	0.134911
1050.549601	0.133939
1050.716019	0.132870
1050.882420	0.132790
1051.048801	0.134702
1051.215165	0.132794
1051.381510	0.133386
1051.547837	0.135102
1051.714146	0.135378
1051.880437	0.134892
1052.046709	0.134498
1052.212964	0.137699
1052.379200	0.139060
1052.545417	0.138431
1052.711617	0.138073
1052.877798	0.137785
1053.043961	0.137339
1053.210106	0.136686
1053.376233	0.136938
1053.542341	0.137503
1053.708432	0.136564
1053.874504	0.136395
1054.040557	0.137254
1054.206593	0.139995
1054.372610	0.138952
1054.538609	0.137485
1054.704590	0.140531
1054.870553	0.138905
1055.036497	0.138552
1055.202424	0.138362
1055.368331	0.137203
1055.534221	0.136377
1055.700093	0.137966
1055.865946	0.138651
1056.031781	0.140395
1056.197598	0.137022
1056.363397	0.137840
1056.529177	0.140694
1056.694939	0.141210
1056.860683	0.142674
1057.026409	0.142103
1057.192116	0.139029
1057.357806	0.139339
1057.523477	0.140550
1057.689130	0.139779
1057.854764	0.140663
1058.020381	0.137716
1058.185979	0.137848
1058.351559	0.134191
1058.517120	0.134677
1058.682664	0.136392
1058.848189	0.135457
1059.013696	0.134307
1059.179185	0.138217
1059.344656	0.137816
1059.510108	0.140821
1059.675542	0.138894
1059.840958	0.141175
1060.006356	0.141311
1060.171735	0.138515
1060.337096	0.138765
1060.502439	0.137199
1060.667764	0.136477
1060.833071	0.134864
1060.998359	0.132250
1061.163629	0.132403
1061.328881	0.132353
1061.494115	0.133069
1061.659330	0.135418
1061.824527	0.135577
1061.989706	0.136567
1062.154867	0.134879
1062.320010	0.136531
1062.485134	0.139578
1062.650240	0.139488
1062.815328	0.140411
1062.980398	0.140274
1063.145449	0.142398
1063.310482	0.141327
1063.475497	0.141123
1063.640494	0.141330
1063.805473	0.141544
1063.970433	0.140330
1064.135375	0.141253
1064.300299	0.141116
1064.465204	0.140784
1064.630092	0.139932
1064.794961	0.141599
1064.959812	0.142188
1065.124645	0.141677
1065.289459	0.140623
1065.454256	0.140508
1065.619034	0.140568
1065.783793	0.139122
1065.948535	0.140905
1066.113258	0.140632
1066.277964	0.141093
1066.442651	0.141865
1066.607319	0.142491
1066.771970	0.142564
1066.936602	0.143327
1067.101216	0.142291
1067.265812	0.144122
1067.430389	0.141953
1067.594949	0.140433
1067.759490	0.137812
1067.924013	0.139724
1068.088518	0.139084
1068.253004	0.137917
1068.417472	0.138830
1068.581922	0.140343
1068.746354	0.140391
1068.910768	0.139954
1069.075163	0.139238
1069.239540	0.141896
1069.403899	0.140864
1069.568240	0.139329
1069.732562	0.142902
1069.896866	0.141222
1070.061152	0.140323
1070.225420	0.141190
1070.389670	0.143263
1070.553901	0.146178
1070.718114	0.144805
1070.882309	0.143503
1071.046486	0.145559
1071.210644	0.145582
1071.374784	0.147782
1071.538906	0.146400
1071.703010	0.145287
1071.867096	0.143346
1072.031163	0.142637
1072.195212	0.141367
1072.359243	0.141841
1072.523256	0.143083
1072.687250	0.141222
1072.851226	0.140783
1073.015184	0.145334
1073.179124	0.145492
1073.343045	0.147468
1073.506949	0.145194
1073.670834	0.147636
1073.834701	0.145535
1073.998549	0.143806
1074.162380	0.141338
1074.326192	0.139685
1074.489986	0.136086
1074.653761	0.137074
1074.817519	0.137125
1074.981258	0.139541
1075.144979	0.137394
1075.308682	0.140290
1075.472367	0.143049
1075.636033	0.146669
1075.799681	0.147692
1075.963311	0.151338
1076.126923	0.150557
1076.290516	0.150722
1076.454092	0.149289
1076.617649	0.152063
1076.781187	0.150952
1076.944708	0.151130
1077.108210	0.149636
1077.271695	0.149909
1077.435160	0.145525
1077.598608	0.145034
1077.762038	0.145185
1077.925449	0.148274
1078.088842	0.147409
1078.252217	0.148399
1078.415573	0.146809
1078.578912	0.148516
1078.742232	0.146165
1078.905534	0.146431
1079.068817	0.147238
1079.232083	0.145595
1079.395330	0.143952
1079.558559	0.142795
1079.721770	0.142108
1079.884962	0.141673
1080.048136	0.140070
1080.211293	0.144270
1080.374430	0.146912
1080.537550	0.146461
1080.700651	0.147359
1080.863735	0.145088
1081.026800	0.147918
1081.189846	0.146117
1081.352875	0.149244
1081.515885	0.149612
1081.678877	0.148152
1081.841851	0.145423
1082.004807	0.143345
1082.167744	0.143616
1082.330663	0.142555
1082.493564	0.141713
1082.656447	0.144082
1082.819312	0.142953
1082.982158	0.140542
1083.144986	0.139376
1083.307796	0.140684
1083.470587	0.142217
1083.633361	0.142080
1083.796116	0.144355
1083.958853	0.144944
1084.121571	0.147427
1084.284272	0.143922
1084.446954	0.148946
1084.609618	0.150076
1084.772264	0.150827
1084.934892	0.149447
1085.097501	0.149406
1085.260092	0.151539
1085.422665	0.151146
1085.585220	0.147953
1085.747756	0.148844
1085.910274	0.146832
1086.072774	0.148737
1086.235256	0.151018
1086.397720	0.154417
1086.560165	0.155310
1086.722592	0.153105
1086.885001	0.153913
1087.047392	0.154847
1087.209764	0.156053
1087.372119	0.154263
1087.534455	0.149804
1087.696772	0.149021
1087.859072	0.148612
1088.021353	0.150231
1088.183616	0.149924
1088.345861	0.145311
1088.508088	0.146945
1088.670296	0.148705
1088.832486	0.151379
1088.994658	0.153772
1089.156812	0.152424
1089.318948	0.152230
1089.481065	0.150219
1089.643164	0.150688
1089.805245	0.153248
1089.967308	0.155989
1090.129352	0.156339
1090.291378	0.156788
1090.453386	0.158563
1090.615376	0.159210
1090.777347	0.156779
1090.939301	0.156973
1091.101236	0.158964
1091.263153	0.161787
1091.425051	0.155095
1091.586932	0.156364
1091.748794	0.153636
1091.910638	0.152460
1092.072463	0.152627
1092.234271	0.154646
1092.396060	0.155204
1092.557831	0.153547
1092.719584	0.154740
1092.881319	0.157011
1093.043035	0.157187
1093.204733	0.158368
1093.366413	0.158147
1093.528075	0.159025
1093.689718	0.158918
1093.851343	0.159823
1094.012950	0.161819
1094.174539	0.158437
1094.336110	0.161536
1094.497662	0.157476
1094.659196	0.156426
1094.820712	0.157550
1094.982210	0.158723
1095.143689	0.154768
1095.305151	0.151720
1095.466594	0.150613
1095.628018	0.148782
1095.789425	0.146286
1095.950813	0.146293
1096.112183	0.150364
1096.273535	0.150034
1096.434869	0.145789
1096.596184	0.150416
1096.757482	0.154326
1096.918761	0.153625
1097.080021	0.155543
1097.241264	0.153551
1097.402488	0.157230
1097.563694	0.154216
1097.724882	0.155880
1097.886052	0.156231
1098.047203	0.157510
1098.208336	0.158377
1098.369451	0.160387
1098.530548	0.161119
1098.691627	0.156481
1098.852687	0.153848
1099.013729	0.153607
1099.174753	0.155600
1099.335758	0.160058
1099.496746	0.156239
1099.657715	0.158483
1099.818666	0.159521
1099.979599	0.161486
1100.140513	0.170453
1100.301409	0.172342
1100.462287	0.177433
1100.623147	0.177302
1100.783989	0.178248
1100.944812	0.180363
1101.105617	0.178599
1101.266404	0.175466
1101.427173	0.172506
1101.587923	0.168725
1101.748656	0.165797
1101.909370	0.162862
1102.070066	0.160392
1102.230743	0.158556
1102.391403	0.162194
1102.552044	0.159716
1102.712667	0.155873
1102.873271	0.157022
1103.033858	0.158379
1103.194426	0.162396
1103.354976	0.162524
1103.515508	0.163669
1103.676021	0.160664
1103.836517	0.157119
1103.996994	0.159093
1104.157453	0.167189
1104.317893	0.164220
1104.478316	0.162075
1104.638720	0.160687
1104.799106	0.160070
1104.959474	0.157615
1105.119823	0.162708
1105.280155	0.161846
1105.440468	0.158210
1105.600763	0.151602
1105.761039	0.154423
1105.921298	0.159271
1106.081538	0.156887
1106.241760	0.160809
1106.401964	0.157547
1106.562149	0.156778
1106.722316	0.157287
1106.882465	0.157932
1107.042596	0.163004
1107.202709	0.166430
1107.362803	0.164490
1107.522879	0.166360
1107.682937	0.159982
1107.842977	0.164460
1108.002999	0.165302
1108.163002	0.169819
1108.322987	0.172084
1108.482954	0.171203
1108.642902	0.170357
1108.802833	0.171772
1108.962745	0.173846
1109.122639	0.178329
1109.282515	0.176522
1109.442372	0.176995
1109.602211	0.173210
1109.762032	0.171699
1109.921835	0.175450
1110.081620	0.177540
1110.241386	0.178044
1110.401134	0.173923
1110.560864	0.174246
1110.720576	0.178991
1110.880269	0.176901
1111.039945	0.180256
1111.199602	0.179434
1111.359240	0.176313
1111.518861	0.175037
1111.678463	0.177090
1111.838047	0.178880
1111.997613	0.178109
1112.157161	0.176782
1112.316690	0.176846
1112.476202	0.175076
1112.635695	0.180125
1112.795169	0.180705
1112.954626	0.174495
1113.114064	0.168054
1113.273484	0.165899
1113.432886	0.161062
1113.592270	0.159483
1113.751635	0.160498
1113.910983	0.157365
1114.070312	0.158171
1114.229622	0.155595
1114.388915	0.156236
1114.548189	0.157969
1114.707445	0.163656
1114.866683	0.169465
1115.025903	0.166491
1115.185104	0.167179
1115.344287	0.172335
1115.503452	0.169147
1115.662599	0.169511
1115.821727	0.171332
1115.980838	0.166124
1116.139930	0.165177
1116.299004	0.164345
1116.458059	0.166253
1116.617097	0.162551
1116.776116	0.165177
1116.935117	0.169735
1117.094099	0.170161
1117.253064	0.172637
1117.412010	0.186661
1117.570938	0.188884
1117.729848	0.189502
1117.888740	0.190606
1118.047613	0.194253
1118.206468	0.193697
1118.365305	0.184699
1118.524124	0.188734
1118.682924	0.185641
1118.841707	0.180251
1119.000471	0.175050
1119.159216	0.170575
1119.317944	0.167022
1119.476653	0.161198
1119.635344	0.158900
1119.794017	0.160892
1119.952672	0.160749
1120.111308	0.165340
1120.269927	0.165616
1120.428527	0.173953
1120.587108	0.178395
1120.745672	0.186744
1120.904217	0.192053
1121.062744	0.192151
1121.221253	0.197106
1121.379744	0.192354
1121.538216	0.185221
1121.696671	0.184801
1121.855107	0.177317
1122.013524	0.174481
1122.171924	0.174230
1122.330305	0.173438
1122.488668	0.173185
1122.647013	0.166235
1122.805340	0.172106
1122.963648	0.179100
1123.121938	0.181927
1123.280210	0.179588
1123.438464	0.183385
1123.596700	0.181212
1123.754917	0.183962
1123.913116	0.182786
1124.071297	0.190485
1124.229459	0.188703
1124.387604	0.191542
1124.545730	0.190973
1124.703838	0.196188
1124.861928	0.196051
1125.019999	0.188836
1125.178052	0.184493
1125.336088	0.186740
1125.494104	0.177966
1125.652103	0.180563
1125.810083	0.171144
1125.968045	0.166424
1126.125989	0.165545
1126.283915	0.162617
1126.441823	0.165438
1126.599712	0.171487
1126.757583	0.172969
1126.915436	0.176523
1127.073270	0.171907
1127.231087	0.174474
1127.388885	0.176868
1127.546665	0.181353
1127.704426	0.186013
1127.862170	0.195674
1128.019895	0.192670
1128.177602	0.192829
1128.335291	0.196805
1128.492961	0.194748
1128.650614	0.196757
1128.808248	0.193145
1128.965864	0.183371
1129.123461	0.178744
1129.281041	0.168282
1129.438602	0.165868
1129.596145	0.163793
1129.753670	0.159899
1129.911176	0.160811
1130.068665	0.156770
1130.226135	0.162381
1130.383587	0.161933
1130.541020	0.163102
1130.698436	0.161098
1130.855833	0.157262
1131.013212	0.160169
1131.170573	0.166514
1131.327915	0.171408
1131.485239	0.174008
1131.642545	0.166119
1131.799833	0.175693
1131.957103	0.177229
1132.114354	0.181904
1132.271588	0.192927
1132.428803	0.183603
1132.585999	0.178542
1132.743178	0.179350
1132.900338	0.183448
1133.057480	0.188306
1133.214604	0.182475
1133.371710	0.191650
1133.528797	0.197374
1133.685866	0.190785
1133.842917	0.195652
1133.999950	0.196468
1134.156964	0.192623
1134.313960	0.190373
1134.470938	0.189657
1134.627898	0.191614
1134.784840	0.192092
1134.941763	0.185881
1135.098668	0.183329
1135.255555	0.186718
1135.412424	0.185007
1135.569274	0.179974
1135.726107	0.183466
1135.882921	0.182933
1136.039716	0.181565
1136.196494	0.168518
1136.353253	0.171637
1136.509995	0.172558
1136.666717	0.172984
1136.823422	0.173829
1136.980109	0.178888
1137.136777	0.173049
1137.293427	0.174769
1137.450059	0.173078
1137.606672	0.174006
1137.763267	0.161561
1137.919844	0.164901
1138.076403	0.159777
1138.232944	0.164921
1138.389466	0.166485
1138.545971	0.169235
1138.702457	0.170598
1138.858924	0.171909
1139.015374	0.173070
1139.171805	0.188842
1139.328218	0.182758
1139.484613	0.187552
1139.640990	0.181147
1139.797348	0.185871
1139.953688	0.186149
1140.110010	0.181850
1140.266314	0.192044
1140.422600	0.198265
1140.578867	0.197670
1140.735116	0.203751
1140.891347	0.193866
1141.047559	0.193809
1141.203754	0.191716
1141.359930	0.198766
1141.516088	0.200988
1141.672228	0.185673
1141.828349	0.179091
1141.984452	0.173379
1142.140537	0.169222
1142.296604	0.170233
1142.452653	0.169470
1142.608683	0.172865
1142.764695	0.165521
1142.920689	0.159209
1143.076665	0.170281
1143.232622	0.174700
1143.388562	0.177287
1143.544483	0.182680
1143.700385	0.192377
1143.856270	0.202999
1144.012136	0.191756
1144.167985	0.186015
1144.323814	0.196382
1144.479626	0.199048
1144.635420	0.197061
1144.791195	0.189970
1144.946952	0.191668
1145.102691	0.195745
1145.258411	0.187796
1145.414113	0.191505
1145.569798	0.192603
1145.725463	0.193615
1145.881111	0.192406
1146.036741	0.208724
1146.192352	0.211709
1146.347945	0.209608
1146.503519	0.205343
1146.659076	0.208524
1146.814614	0.205566
1146.970134	0.212923
1147.125636	0.200315
1147.281120	0.189502
1147.436585	0.174156
1147.592032	0.176520
1147.747461	0.172035
1147.902872	0.163498
1148.058265	0.161305
1148.213639	0.157340
1148.368995	0.153602
1148.524333	0.166486
1148.679653	0.177147
1148.834954	0.180483
1148.990237	0.179724
1149.145502	0.181060
1149.300749	0.187964
1149.455977	0.188084
1149.611188	0.199170
1149.766380	0.204065
1149.921553	0.203586
1150.076709	0.200468
1150.231846	0.202475
1150.386966	0.206126
1150.542066	0.209076
1150.697149	0.208452
1150.852214	0.204153
1151.007260	0.199392
1151.162288	0.196082
1151.317298	0.199579
1151.472289	0.191516
1151.627263	0.189916
1151.782218	0.190727
1151.937155	0.182471
1152.092073	0.180390
1152.246974	0.189019
1152.401856	0.182230
1152.556720	0.174280
1152.711566	0.165850
1152.866393	0.168557
1153.021203	0.167303
1153.175994	0.163885
1153.330767	0.171456
1153.485521	0.173758
1153.640258	0.176886
1153.794976	0.185526
1153.949676	0.198071
1154.104358	0.191486
1154.259021	0.192365
1154.413667	0.190923
1154.568294	0.186733
1154.722903	0.182197
1154.877493	0.167030
1155.032066	0.162012
1155.186620	0.159337
1155.341156	0.151712
1155.495674	0.161916
1155.650173	0.166613
1155.804654	0.158316
1155.959118	0.162229
1156.113562	0.166003
1156.267989	0.176626
1156.422397	0.172362
1156.576788	0.172609
1156.731160	0.183676
1156.885513	0.174466
1157.039849	0.168449
1157.194166	0.171520
1157.348465	0.166716
1157.502746	0.156134
1157.657009	0.154072
1157.811253	0.162037
1157.965479	0.159272
1158.119687	0.154387
1158.273877	0.152919
1158.428048	0.149498
1158.582201	0.158086
1158.736337	0.161391
1158.890453	0.167249
1159.044552	0.169620
1159.198632	0.166392
1159.352694	0.164894
1159.506738	0.165148
1159.660764	0.174105
1159.814771	0.161198
1159.968761	0.148424
1160.122732	0.150612
1160.276685	0.150423
1160.430619	0.156486
1160.584535	0.159128
1160.738434	0.155247
1160.892313	0.155640
1161.046175	0.152655
1161.200019	0.175732
1161.353844	0.189038
1161.507651	0.185007
1161.661440	0.183517
1161.815210	0.187571
1161.968962	0.182668
1162.122697	0.189473
1162.276412	0.191190
1162.430110	0.189371
1162.583789	0.186921
1162.737451	0.184739
1162.891094	0.187556
1163.044718	0.192089
1163.198325	0.177471
1163.351913	0.176379
1163.505483	0.178652
1163.659035	0.165210
1163.812569	0.163321
1163.966084	0.166961
1164.119581	0.170026
1164.273060	0.169387
1164.426521	0.176980
1164.579964	0.180955
1164.733388	0.164485
1164.886794	0.177058
1165.040182	0.187970
1165.193551	0.178161
1165.346903	0.166985
1165.500236	0.162535
1165.653551	0.166665
1165.806848	0.172046
1165.960126	0.172299
1166.113386	0.184093
1166.266628	0.178992
1166.419852	0.171335
1166.573058	0.184628
1166.726245	0.187833
1166.879414	0.192647
1167.032565	0.191723
1167.185698	0.178246
1167.338812	0.180603
1167.491909	0.173933
1167.644987	0.164889
1167.798046	0.174930
1167.951088	0.170083
1168.104111	0.167695
1168.257117	0.156114
1168.410103	0.146678
1168.563072	0.148667
1168.716023	0.145590
1168.868955	0.153756
1169.021869	0.152798
1169.174765	0.147145
1169.327642	0.144186
1169.480501	0.143526
1169.633343	0.149852
1169.786165	0.166304
1169.938970	0.154136
1170.091757	0.160179
1170.244525	0.183097
1170.397275	0.176794
1170.550007	0.187185
1170.702720	0.198934
1170.855415	0.207703
1171.008092	0.205303
1171.160751	0.195276
1171.313392	0.208359
1171.466014	0.219618
1171.618619	0.175931
1171.771205	0.175931
1171.923772	0.175931
