sample name	sample
index	639
start time	 03-19-2021  03:30:29 PM


Wavelength (nm)	Absorbance
494.344910	-1.289021
494.563924	-1.289021
494.782919	-1.289021
495.001897	NaN
495.220856	-0.063527
495.439797	0.160031
495.658719	0.314978
495.877624	1.060193
496.096510	0.277704
496.315378	0.384158
496.534227	0.204647
496.753059	0.171056
496.971872	0.056251
497.190667	0.113175
497.409444	0.115090
497.628203	0.116673
497.846943	0.118304
498.065665	0.118329
498.284369	0.117661
498.503055	0.116339
498.721723	0.117321
498.940372	0.117313
499.159003	0.117122
499.377616	0.116778
499.596210	0.116366
499.814787	0.114065
500.033345	0.114426
500.251885	0.114389
500.470406	0.114645
500.688910	0.112683
500.907395	0.112210
501.125862	0.112099
501.344311	0.111782
501.562742	0.112059
501.781154	0.112783
501.999548	0.112560
502.217924	0.112134
502.436282	0.111835
502.654621	0.112184
502.872942	0.112094
503.091245	0.113191
503.309530	0.113477
503.527797	0.112124
503.746045	0.112005
503.964275	0.111759
504.182487	0.111274
504.400681	0.112754
504.618856	0.112493
504.837013	0.113274
505.055152	0.112858
505.273273	0.113512
505.491376	0.113491
505.709460	0.113866
505.927526	0.113875
506.145574	0.114743
506.363604	0.113600
506.581615	0.115059
506.799608	0.114888
507.017583	0.114869
507.235540	0.114924
507.453478	0.115963
507.671399	0.115865
507.889301	0.116363
508.107185	0.116391
508.325050	0.116294
508.542898	0.115793
508.760727	0.115699
508.978538	0.116038
509.196330	0.115870
509.414105	0.116434
509.631861	0.115923
509.849599	0.116451
510.067319	0.116597
510.285021	0.117489
510.502704	0.117751
510.720369	0.118205
510.938016	0.117747
511.155645	0.117069
511.373255	0.117052
511.590848	0.117487
511.808422	0.116477
512.025977	0.117050
512.243515	0.117451
512.461034	0.117815
512.678536	0.118090
512.896018	0.118629
513.113483	0.118801
513.330930	0.118673
513.548358	0.118750
513.765768	0.119048
513.983160	0.118569
514.200533	0.117829
514.417889	0.117823
514.635226	0.117074
514.852545	0.116852
515.069845	0.117996
515.287128	0.117911
515.504392	0.118943
515.721638	0.119790
515.938866	0.120218
516.156075	0.120552
516.373267	0.120469
516.590440	0.121136
516.807594	0.121449
517.024731	0.120864
517.241850	0.120454
517.458950	0.119624
517.676032	0.119282
517.893095	0.119500
518.110141	0.119439
518.327168	0.119107
518.544177	0.118703
518.761168	0.118160
518.978141	0.118509
519.195095	0.119223
519.412031	0.119441
519.628949	0.120488
519.845849	0.120472
520.062731	0.121320
520.279594	0.121678
520.496439	0.122261
520.713266	0.123196
520.930074	0.123350
521.146865	0.123418
521.363637	0.122801
521.580391	0.122089
521.797127	0.122472
522.013844	0.122124
522.230543	0.122231
522.447224	0.122056
522.663887	0.122136
522.880532	0.122072
523.097158	0.121968
523.313766	0.123211
523.530356	0.123050
523.746928	0.122606
523.963481	0.123190
524.180017	0.123917
524.396534	0.124395
524.613032	0.124337
524.829513	0.124231
525.045975	0.124681
525.262420	0.124983
525.478845	0.125660
525.695253	0.125777
525.911643	0.125545
526.128014	0.125130
526.344367	0.125327
526.560702	0.125194
526.777018	0.126170
526.993316	0.126092
527.209597	0.126072
527.425858	0.126182
527.642102	0.126517
527.858328	0.126803
528.074535	0.126940
528.290724	0.127150
528.506894	0.127703
528.723047	0.127425
528.939181	0.127836
529.155297	0.127518
529.371395	0.127496
529.587475	0.127970
529.803536	0.128243
530.019579	0.128316
530.235604	0.128752
530.451611	0.128614
530.667600	0.129214
530.883570	0.129414
531.099522	0.130090
531.315456	0.130656
531.531372	0.130626
531.747269	0.130534
531.963148	0.131280
532.179009	0.131123
532.394852	0.131404
532.610676	0.131130
532.826482	0.130883
533.042271	0.131299
533.258040	0.131142
533.473792	0.131220
533.689525	0.131739
533.905240	0.131728
534.120937	0.132056
534.336616	0.132211
534.552277	0.132632
534.767919	0.133151
534.983543	0.133133
535.199149	0.133321
535.414736	0.133645
535.630306	0.133917
535.845857	0.133901
536.061390	0.133875
536.276904	0.133817
536.492401	0.134178
536.707879	0.134705
536.923339	0.135586
537.138781	0.135890
537.354204	0.136154
537.569610	0.136133
537.784997	0.136571
538.000366	0.137106
538.215716	0.137528
538.431049	0.137366
538.646363	0.136616
538.861659	0.136389
539.076937	0.136554
539.292196	0.136453
539.507438	0.136480
539.722661	0.136568
539.937866	0.136443
540.153052	0.136380
540.368221	0.136403
540.583371	0.136990
540.798503	0.136835
541.013617	0.136852
541.228712	0.137014
541.443789	0.137458
541.658848	0.137873
541.873889	0.137628
542.088912	0.138223
542.303916	0.138555
542.518902	0.138843
542.733870	0.139484
542.948820	0.139981
543.163752	0.140696
543.378665	0.141181
543.593560	0.141302
543.808437	0.141747
544.023295	0.141912
544.238136	0.142175
544.452958	0.142327
544.667762	0.141976
544.882548	0.142174
545.097315	0.142060
545.312064	0.141932
545.526795	0.141984
545.741508	0.142313
545.956203	0.142131
546.170879	0.142046
546.385537	0.141841
546.600177	0.141940
546.814799	0.142077
547.029402	0.142027
547.243988	0.142271
547.458555	0.142454
547.673103	0.142469
547.887634	0.142908
548.102146	0.143253
548.316640	0.144142
548.531116	0.144238
548.745574	0.144788
548.960013	0.144850
549.174435	0.144961
549.388838	0.145190
549.603222	0.145522
549.817589	0.145436
550.031937	0.146102
550.246267	0.146001
550.460579	0.146336
550.674873	0.145926
550.889148	0.146565
551.103405	0.146286
551.317644	0.146186
551.531865	0.146671
551.746068	0.146606
551.960252	0.146910
552.174418	0.146752
552.388566	0.146922
552.602696	0.147314
552.816807	0.147401
553.030900	0.147858
553.244975	0.148295
553.459032	0.148229
553.673070	0.149178
553.887091	0.148721
554.101093	0.149151
554.315077	0.148938
554.529042	0.148825
554.742990	0.149004
554.956919	0.149509
555.170830	0.149350
555.384722	0.149408
555.598597	0.149102
555.812453	0.149160
556.026291	0.149723
556.240111	0.150290
556.453913	0.150515
556.667696	0.150629
556.881461	0.150554
557.095208	0.150806
557.308937	0.151126
557.522647	0.151177
557.736339	0.151120
557.950013	0.150929
558.163669	0.151305
558.377307	0.151718
558.590926	0.151579
558.804527	0.151531
559.018110	0.151731
559.231675	0.151785
559.445221	0.152229
559.658749	0.152961
559.872259	0.153025
560.085751	0.153145
560.299225	0.152870
560.512680	0.153119
560.726117	0.153321
560.939536	0.153652
561.152937	0.153849
561.366319	0.154155
561.579683	0.153875
561.793029	0.154279
562.006357	0.154087
562.219667	0.154073
562.432958	0.154400
562.646231	0.154697
562.859486	0.154915
563.072723	0.154870
563.285941	0.154843
563.499141	0.155265
563.712323	0.155193
563.925487	0.155789
564.138632	0.156398
564.351760	0.156677
564.564869	0.157071
564.777960	0.156998
564.991032	0.157310
565.204087	0.157630
565.417123	0.157655
565.630141	0.157544
565.843140	0.157191
566.056122	0.157196
566.269085	0.156753
566.482030	0.156488
566.694957	0.156397
566.907866	0.156328
567.120756	0.156286
567.333628	0.156052
567.546482	0.156384
567.759318	0.156738
567.972135	0.156682
568.184935	0.157261
568.397716	0.157087
568.610478	0.157205
568.823223	0.157574
569.035949	0.157541
569.248657	0.157747
569.461347	0.157964
569.674019	0.158042
569.886672	0.158306
570.099308	0.158160
570.311925	0.158526
570.524523	0.158715
570.737104	0.158731
570.949666	0.158801
571.162210	0.159099
571.374736	0.159209
571.587244	0.159004
571.799733	0.159082
572.012205	0.159445
572.224658	0.159695
572.437092	0.160129
572.649509	0.160361
572.861907	0.160808
573.074287	0.161110
573.286649	0.161015
573.498993	0.161827
573.711318	0.162297
573.923625	0.162474
574.135914	0.162811
574.348185	0.162926
574.560438	0.163175
574.772672	0.163281
574.984888	0.163593
575.197086	0.164345
575.409266	0.164331
575.621427	0.164763
575.833570	0.164879
576.045695	0.164914
576.257802	0.164713
576.469890	0.164702
576.681961	0.164854
576.894013	0.164711
577.106046	0.164385
577.318062	0.164636
577.530059	0.164793
577.742039	0.164685
577.954000	0.165037
578.165942	0.165473
578.377867	0.165567
578.589773	0.165928
578.801661	0.166513
579.013531	0.167026
579.225382	0.166759
579.437216	0.166673
579.649031	0.167011
579.860828	0.166928
580.072606	0.167034
580.284367	0.167349
580.496109	0.167350
580.707833	0.167618
580.919539	0.167837
581.131227	0.168222
581.342896	0.168227
581.554547	0.168574
581.766180	0.168933
581.977795	0.168944
582.189391	0.168816
582.400969	0.169073
582.612529	0.168528
582.824071	0.168285
583.035595	0.168388
583.247100	0.168380
583.458587	0.168408
583.670056	0.168412
583.881506	0.168947
584.092939	0.169061
584.304353	0.168976
584.515749	0.169072
584.727127	0.169426
584.938486	0.169566
585.149828	0.169966
585.361151	0.170308
585.572456	0.170360
585.783742	0.170248
585.995011	0.170499
586.206261	0.170486
586.417493	0.170939
586.628706	0.171260
586.839902	0.171293
587.051079	0.171444
587.262238	0.171347
587.473379	0.171342
587.684502	0.171627
587.895606	0.171832
588.106692	0.172313
588.317760	0.172633
588.528810	0.172593
588.739841	0.173204
588.950855	0.173479
589.161850	0.173527
589.372827	0.173727
589.583785	0.174023
589.794726	0.173968
590.005648	0.174042
590.216552	0.174043
590.427437	0.174357
590.638305	0.174450
590.849154	0.174618
591.059985	0.174880
591.270798	0.174938
591.481592	0.175072
591.692369	0.175577
591.903127	0.175699
592.113867	0.175874
592.324588	0.175897
592.535292	0.175701
592.745977	0.175566
592.956644	0.175905
593.167293	0.176003
593.377923	0.176012
593.588536	0.176070
593.799130	0.176132
594.009706	0.175978
594.220263	0.176136
594.430803	0.176461
594.641324	0.176914
594.851827	0.177072
595.062312	0.177458
595.272778	0.177350
595.483227	0.177551
595.693657	0.177761
595.904069	0.178223
596.114462	0.178210
596.324838	0.178167
596.535195	0.178314
596.745534	0.178457
596.955855	0.178604
597.166157	0.178998
597.376441	0.179213
597.586707	0.179135
597.796955	0.179058
598.007185	0.179039
598.217396	0.179131
598.427589	0.179234
598.637764	0.179341
598.847921	0.179242
599.058060	0.179117
599.268180	0.178726
599.478282	0.178953
599.688366	0.179263
599.898431	0.179718
600.108479	0.179728
600.318508	0.179336
600.528519	0.179117
600.738511	0.179338
600.948486	0.179656
601.158442	0.179978
601.368380	0.180290
601.578300	0.180268
601.788202	0.180235
601.998085	0.180491
602.207950	0.181017
602.417797	0.181014
602.627626	0.181023
602.837436	0.181051
603.047228	0.181194
603.257002	0.181157
603.466758	0.181262
603.676496	0.181555
603.886215	0.181586
604.095916	0.181508
604.305599	0.181875
604.515264	0.182117
604.724910	0.182382
604.934538	0.182755
605.144148	0.182612
605.353740	0.182740
605.563314	0.182570
605.772869	0.182688
605.982406	0.182755
606.191925	0.182965
606.401425	0.183213
606.610908	0.182981
606.820372	0.182961
607.029818	0.183516
607.239246	0.183526
607.448655	0.183826
607.658047	0.184110
607.867420	0.184377
608.076775	0.184411
608.286111	0.184502
608.495430	0.184874
608.704730	0.184980
608.914012	0.184916
609.123275	0.185271
609.332521	0.185326
609.541748	0.185486
609.750957	0.185517
609.960148	0.185490
610.169321	0.185539
610.378475	0.185344
610.587611	0.185331
610.796729	0.185591
611.005829	0.185905
611.214910	0.186048
611.423974	0.185837
611.633019	0.185928
611.842045	0.186115
612.051054	0.186370
612.260044	0.186603
612.469017	0.186967
612.677970	0.186944
612.886906	0.186612
613.095824	0.186509
613.304723	0.186792
613.513604	0.186849
613.722467	0.187003
613.931311	0.186992
614.140138	0.187269
614.348946	0.187282
614.557736	0.187462
614.766507	0.187704
614.975261	0.187918
615.183996	0.188077
615.392713	0.188382
615.601412	0.188675
615.810092	0.188778
616.018754	0.188857
616.227399	0.188856
616.436024	0.188879
616.644632	0.189013
616.853222	0.189156
617.061793	0.189329
617.270346	0.189306
617.478880	0.189327
617.687397	0.189262
617.895895	0.189376
618.104375	0.189425
618.312837	0.189601
618.521281	0.189679
618.729706	0.189773
618.938113	0.189722
619.146502	0.189728
619.354873	0.189804
619.563226	0.189983
619.771560	0.190072
619.979876	0.190305
620.188174	0.190367
620.396453	0.190308
620.604715	0.190518
620.812958	0.190682
621.021183	0.190675
621.229390	0.190686
621.437578	0.190824
621.645748	0.190909
621.853900	0.190951
622.062034	0.191135
622.270150	0.191325
622.478247	0.191389
622.686326	0.191531
622.894387	0.191652
623.102430	0.191821
623.310454	0.191922
623.518461	0.192247
623.726449	0.192327
623.934418	0.192364
624.142370	0.192558
624.350303	0.192491
624.558218	0.192624
624.766115	0.192806
624.973994	0.192875
625.181855	0.192743
625.389697	0.192606
625.597521	0.192775
625.805327	0.192907
626.013114	0.192923
626.220883	0.193195
626.428634	0.193270
626.636367	0.193340
626.844082	0.193376
627.051778	0.193883
627.259457	0.194170
627.467117	0.194347
627.674758	0.194391
627.882382	0.194982
628.089987	0.195113
628.297574	0.195177
628.505143	0.195504
628.712694	0.195647
628.920226	0.195575
629.127740	0.195720
629.335236	0.195540
629.542714	0.195620
629.750174	0.195561
629.957615	0.195741
630.165038	0.196092
630.372443	0.196343
630.579829	0.196749
630.787198	0.196942
630.994548	0.196705
631.201880	0.197196
631.409194	0.197368
631.616489	0.197432
631.823766	0.197235
632.031025	0.197068
632.238266	0.197215
632.445489	0.197290
632.652693	0.197374
632.859879	0.197701
633.067047	0.197758
633.274197	0.197826
633.481329	0.197745
633.688442	0.198093
633.895537	0.198403
634.102614	0.198310
634.309672	0.198398
634.516713	0.198359
634.723735	0.198314
634.930739	0.198462
635.137724	0.198611
635.344692	0.198778
635.551641	0.198919
635.758572	0.199065
635.965485	0.199184
636.172379	0.199140
636.379256	0.199440
636.586114	0.199952
636.792954	0.199750
636.999775	0.199561
637.206579	0.199836
637.413364	0.199842
637.620131	0.199906
637.826880	0.200027
638.033610	0.200309
638.240323	0.200384
638.447017	0.200123
638.653692	0.200419
638.860350	0.200982
639.066990	0.200991
639.273611	0.201313
639.480214	0.201577
639.686798	0.201852
639.893365	0.201987
640.099913	0.202094
640.306443	0.202403
640.512955	0.202624
640.719449	0.202518
640.925924	0.202478
641.132381	0.202425
641.338820	0.202327
641.545241	0.201992
641.751644	0.201877
641.958028	0.202172
642.164394	0.202120
642.370742	0.202078
642.577071	0.202466
642.783383	0.202725
642.989676	0.203065
643.195951	0.203215
643.402207	0.203509
643.608446	0.203789
643.814666	0.203743
644.020868	0.204227
644.227052	0.204360
644.433218	0.204510
644.639365	0.204596
644.845494	0.204646
645.051605	0.204901
645.257698	0.205200
645.463772	0.205436
645.669828	0.205535
645.875866	0.205481
646.081886	0.205903
646.287888	0.205912
646.493871	0.206082
646.699836	0.206121
646.905783	0.206078
647.111712	0.205995
647.317622	0.205944
647.523514	0.206172
647.729388	0.206118
647.935244	0.206089
648.141082	0.206184
648.346901	0.206152
648.552702	0.206435
648.758485	0.206556
648.964250	0.206765
649.169996	0.207097
649.375724	0.207301
649.581434	0.207400
649.787126	0.207643
649.992800	0.207697
650.198455	0.207994
650.404092	0.207979
650.609711	0.208158
650.815311	0.208391
651.020894	0.208217
651.226458	0.208260
651.432004	0.208310
651.637532	0.208372
651.843041	0.208685
652.048532	0.208579
652.254006	0.208724
652.459460	0.208751
652.664897	0.208806
652.870315	0.209162
653.075716	0.209139
653.281097	0.209414
653.486461	0.209553
653.691807	0.209545
653.897134	0.209724
654.102443	0.209631
654.307734	0.209955
654.513006	0.210063
654.718261	0.210128
654.923497	0.210266
655.128715	0.210648
655.333915	0.210525
655.539096	0.210852
655.744259	0.211085
655.949404	0.211482
656.154531	0.211274
656.359640	0.211458
656.564730	0.211696
656.769802	0.211960
656.974856	0.211932
657.179892	0.212433
657.384909	0.212450
657.589908	0.212697
657.794889	0.212969
657.999852	0.213378
658.204797	0.213723
658.409723	0.213965
658.614631	0.214197
658.819521	0.214437
659.024393	0.214338
659.229246	0.214249
659.434081	0.214665
659.638898	0.214754
659.843697	0.215014
660.048478	0.214829
660.253240	0.214690
660.457984	0.214878
660.662710	0.214727
660.867417	0.214920
661.072107	0.215387
661.276778	0.215148
661.481431	0.215205
661.686066	0.215150
661.890682	0.215550
662.095281	0.215715
662.299861	0.215689
662.504422	0.216160
662.708966	0.216449
662.913491	0.216539
663.117999	0.216505
663.322488	0.216621
663.526958	0.216730
663.731411	0.216575
663.935845	0.216693
664.140261	0.216985
664.344659	0.216918
664.549038	0.217006
664.753400	0.216996
664.957743	0.217411
665.162068	0.217368
665.366375	0.217706
665.570663	0.218015
665.774933	0.217980
665.979185	0.217921
666.183419	0.217980
666.387635	0.218012
666.591832	0.218232
666.796011	0.218424
667.000172	0.218724
667.204315	0.218743
667.408439	0.218957
667.612545	0.219308
667.816634	0.219526
668.020703	0.219907
668.224755	0.220022
668.428788	0.220155
668.632803	0.220115
668.836800	0.220142
669.040779	0.220134
669.244739	0.220016
669.448681	0.220176
669.652605	0.220287
669.856511	0.220385
670.060399	0.220640
670.264268	0.220824
670.468119	0.220917
670.671952	0.221333
670.875767	0.221708
671.079563	0.221998
671.283341	0.222189
671.487101	0.222573
671.690843	0.222635
671.894567	0.222647
672.098272	0.222632
672.301959	0.223032
672.505628	0.223002
672.709278	0.223209
672.912911	0.223657
673.116525	0.223777
673.320121	0.223608
673.523699	0.223784
673.727258	0.223988
673.930799	0.224117
674.134322	0.224368
674.337827	0.224566
674.541314	0.224553
674.744782	0.224422
674.948232	0.224228
675.151664	0.224579
675.355078	0.224530
675.558474	0.224644
675.761851	0.225075
675.965210	0.224984
676.168551	0.224936
676.371873	0.225103
676.575178	0.225409
676.778464	0.225700
676.981732	0.225666
677.184981	0.226067
677.388213	0.226195
677.591426	0.225954
677.794621	0.226144
677.997798	0.226251
678.200956	0.226423
678.404097	0.226630
678.607219	0.227082
678.810323	0.227275
679.013408	0.227563
679.216476	0.227704
679.419525	0.228107
679.622556	0.228199
679.825569	0.228636
680.028563	0.228881
680.231540	0.228967
680.434498	0.228951
680.637438	0.229354
680.840359	0.229483
681.043263	0.229659
681.246148	0.229788
681.449015	0.230181
681.651864	0.230279
681.854694	0.230283
682.057506	0.230018
682.260301	0.230065
682.463076	0.229932
682.665834	0.229916
682.868573	0.230141
683.071295	0.230242
683.273998	0.230135
683.476682	0.230351
683.679349	0.230462
683.881997	0.230884
684.084627	0.231057
684.287239	0.231210
684.489833	0.231396
684.692408	0.231284
684.894965	0.231283
685.097504	0.231461
685.300025	0.231479
685.502527	0.231392
685.705012	0.231377
685.907478	0.231524
686.109925	0.231691
686.312355	0.231700
686.514766	0.232103
686.717159	0.232429
686.919534	0.232595
687.121891	0.232666
687.324230	0.233079
687.526550	0.233220
687.728852	0.233325
687.931136	0.233411
688.133401	0.233476
688.335649	0.233474
688.537878	0.233578
688.740089	0.233756
688.942281	0.233865
689.144456	0.233846
689.346612	0.233916
689.548750	0.234045
689.750870	0.234333
689.952971	0.234448
690.155055	0.234357
690.357120	0.234341
690.559167	0.234536
690.761195	0.234907
690.963206	0.235063
691.165198	0.235392
691.367172	0.235620
691.569128	0.235447
691.771065	0.235757
691.972984	0.236220
692.174885	0.236618
692.376768	0.236516
692.578633	0.236254
692.780479	0.236356
692.982308	0.236531
693.184118	0.236612
693.385909	0.236834
693.587683	0.236778
693.789438	0.236774
693.991175	0.236644
694.192894	0.236861
694.394595	0.237130
694.596277	0.237179
694.797941	0.237133
694.999587	0.237163
695.201215	0.237388
695.402824	0.237647
695.604416	0.237718
695.805989	0.237678
696.007543	0.237565
696.209080	0.237706
696.410598	0.238011
696.612099	0.238306
696.813580	0.238381
697.015044	0.238422
697.216490	0.238485
697.417917	0.238741
697.619326	0.239020
697.820717	0.239289
698.022089	0.239321
698.223444	0.239508
698.424780	0.239483
698.626098	0.239534
698.827397	0.239772
699.028679	0.240071
699.229942	0.240170
699.431187	0.240432
699.632414	0.240484
699.833622	0.240552
700.034813	0.240767
700.235985	0.240893
700.437139	0.241218
700.638274	0.241427
700.839392	0.241362
701.040491	0.241454
701.241572	0.241642
701.442635	0.241790
701.643679	0.241834
701.844706	0.241843
702.045714	0.242024
702.246704	0.242226
702.447675	0.242326
702.648629	0.242270
702.849564	0.242481
703.050481	0.242263
703.251380	0.242320
703.452260	0.242565
703.653122	0.242532
703.853966	0.242400
704.054792	0.242104
704.255600	0.242133
704.456389	0.242163
704.657160	0.241940
704.857913	0.242146
705.058648	0.242129
705.259365	0.242242
705.460063	0.241882
705.660743	0.242086
705.861405	0.242203
706.062048	0.242212
706.262674	0.242363
706.463281	0.242303
706.663870	0.242169
706.864441	0.242280
707.064993	0.242260
707.265527	0.242759
707.466043	0.242807
707.666541	0.243061
707.867021	0.243120
708.067482	0.243106
708.267925	0.243414
708.468350	0.243740
708.668757	0.243926
708.869145	0.244134
709.069516	0.244180
709.269868	0.244229
709.470201	0.244253
709.670517	0.244245
709.870814	0.244515
710.071093	0.244452
710.271354	0.244259
710.471597	0.244382
710.671821	0.244380
710.872028	0.244291
711.072216	0.244447
711.272385	0.244345
711.472537	0.244215
711.672670	0.244221
711.872785	0.244331
712.072882	0.244620
712.272961	0.244215
712.473021	0.243927
712.673063	0.244027
712.873087	0.243953
713.073093	0.244021
713.273081	0.244040
713.473050	0.243943
713.673001	0.243732
713.872934	0.243663
714.072849	0.243928
714.272745	0.244319
714.472623	0.244354
714.672483	0.244474
714.872325	0.244656
715.072148	0.244824
715.271954	0.244949
715.471741	0.245162
715.671509	0.245030
715.871260	0.245114
716.070992	0.244945
716.270707	0.244871
716.470403	0.244726
716.670080	0.244635
716.869740	0.244319
717.069381	0.244371
717.269004	0.244286
717.468609	0.244328
717.668195	0.244301
717.867764	0.244262
718.067314	0.244114
718.266846	0.244041
718.466360	0.244199
718.665855	0.244341
718.865332	0.244134
719.064791	0.244108
719.264232	0.244143
719.463655	0.244269
719.663059	0.244104
719.862445	0.244456
720.061813	0.244559
720.261163	0.244245
720.460494	0.244120
720.659807	0.244057
720.859102	0.244095
721.058379	0.243957
721.257638	0.243685
721.456878	0.243878
721.656100	0.243570
721.855304	0.243554
722.054490	0.243634
722.253657	0.243758
722.452806	0.243737
722.651937	0.243787
722.851050	0.244005
723.050145	0.243960
723.249221	0.243733
723.448279	0.243895
723.647319	0.243468
723.846340	0.243290
724.045344	0.243444
724.244329	0.243643
724.443296	0.243321
724.642245	0.243173
724.841175	0.243406
725.040088	0.243683
725.238982	0.243365
725.437857	0.243683
725.636715	0.243774
725.835554	0.243816
726.034376	0.243725
726.233179	0.243928
726.431963	0.243876
726.630730	0.243608
726.829478	0.243632
727.028208	0.243963
727.226920	0.243763
727.425614	0.243858
727.624289	0.243564
727.822946	0.243522
728.021585	0.243530
728.220206	0.243465
728.418808	0.243554
728.617392	0.243445
728.815958	0.243238
729.014506	0.243449
729.213036	0.243385
729.411547	0.243373
729.610040	0.243144
729.808515	0.242915
730.006972	0.242788
730.205410	0.242737
730.403831	0.242503
730.602233	0.242429
730.800616	0.242277
730.998982	0.242221
731.197329	0.242156
731.395658	0.242356
731.593969	0.242536
731.792262	0.242502
731.990536	0.242470
732.188793	0.242451
732.387031	0.242320
732.585250	0.242333
732.783452	0.241991
732.981635	0.241798
733.179800	0.241561
733.377947	0.241249
733.576076	0.241204
733.774186	0.240880
733.972278	0.240812
734.170352	0.240942
734.368408	0.240527
734.566446	0.240595
734.764465	0.240489
734.962466	0.240412
735.160449	0.240473
735.358413	0.240346
735.556360	0.240411
735.754288	0.240231
735.952198	0.240041
736.150090	0.240116
736.347963	0.240012
736.545818	0.239801
736.743655	0.239759
736.941474	0.239539
737.139275	0.239396
737.337057	0.239328
737.534821	0.239225
737.732567	0.238926
737.930295	0.239023
738.128005	0.238921
738.325696	0.239012
738.523369	0.239046
738.721024	0.239108
738.918660	0.238945
739.116279	0.238846
739.313879	0.238751
739.511461	0.238966
739.709024	0.238493
739.906570	0.238630
740.104097	0.238490
740.301606	0.238339
740.499097	0.238318
740.696569	0.238265
740.894024	0.238122
741.091460	0.238135
741.288878	0.237925
741.486277	0.237953
741.683659	0.237633
741.881022	0.237600
742.078367	0.237200
742.275694	0.237113
742.473002	0.237253
742.670293	0.237046
742.867565	0.236888
743.064819	0.236519
743.262054	0.236521
743.459272	0.236339
743.656471	0.236052
743.853652	0.236007
744.050815	0.235868
744.247959	0.235370
744.445085	0.235142
744.642194	0.234791
744.839283	0.234660
745.036355	0.234529
745.233408	0.234319
745.430444	0.234230
745.627461	0.234331
745.824459	0.233935
746.021440	0.234079
746.218402	0.234198
746.415346	0.234211
746.612272	0.234021
746.809180	0.233793
747.006069	0.233752
747.202940	0.233738
747.399793	0.233374
747.596628	0.233313
747.793444	0.233207
747.990243	0.233078
748.187023	0.233090
748.383784	0.233274
748.580528	0.233144
748.777253	0.233164
748.973960	0.233000
749.170649	0.233142
749.367320	0.233013
749.563973	0.232742
749.760607	0.232544
749.957223	0.232497
750.153821	0.232181
750.350400	0.232182
750.546962	0.231816
750.743505	0.231603
750.940030	0.231204
751.136536	0.231142
751.333025	0.231360
751.529495	0.231327
751.725947	0.231057
751.922381	0.231125
752.118796	0.231091
752.315194	0.231052
752.511573	0.231154
752.707934	0.231062
752.904276	0.231004
753.100601	0.230623
753.296907	0.230378
753.493195	0.230474
753.689465	0.230451
753.885716	0.230339
754.081949	0.230136
754.278164	0.229730
754.474361	0.229858
754.670540	0.229722
754.866700	0.229608
755.062843	0.229439
755.258967	0.229049
755.455072	0.228677
755.651160	0.228573
755.847229	0.228442
756.043280	0.228436
756.239313	0.227965
756.435328	0.227961
756.631324	0.228050
756.827302	0.228121
757.023262	0.227917
757.219204	0.227876
757.415127	0.227675
757.611033	0.227724
757.806920	0.227411
758.002788	0.227481
758.198639	0.227305
758.394471	0.226917
758.590286	0.226877
758.786081	0.226912
758.981859	0.226849
759.177619	0.226666
759.373360	0.226560
759.569083	0.226813
759.764788	0.226658
759.960474	0.226481
760.156143	0.226517
760.351793	0.226309
760.547425	0.226375
760.743038	0.226325
760.938634	0.226377
761.134211	0.226268
761.329770	0.225951
761.525311	0.225853
761.720833	0.225804
761.916338	0.225669
762.111824	0.225382
762.307292	0.225135
762.502741	0.225103
762.698173	0.224994
762.893586	0.224762
763.088981	0.225019
763.284358	0.225009
763.479716	0.224804
763.675057	0.224760
763.870379	0.224777
764.065683	0.224817
764.260968	0.224701
764.456236	0.224537
764.651485	0.224707
764.846716	0.224779
765.041929	0.224789
765.237123	0.224555
765.432299	0.224400
765.627457	0.224276
765.822597	0.224148
766.017719	0.223899
766.212822	0.223990
766.407907	0.223978
766.602974	0.223586
766.798023	0.223546
766.993054	0.223789
767.188066	0.223691
767.383060	0.223550
767.578036	0.223487
767.772993	0.223337
767.967933	0.223103
768.162854	0.222959
768.357757	0.222684
768.552642	0.222482
768.747508	0.222241
768.942356	0.222366
769.137186	0.222347
769.331998	0.222205
769.526792	0.222373
769.721567	0.222304
769.916324	0.222219
770.111063	0.222341
770.305784	0.222268
770.500486	0.222160
770.695171	0.222032
770.889837	0.221951
771.084484	0.222119
771.279114	0.222016
771.473725	0.222055
771.668318	0.221978
771.862893	0.221853
772.057450	0.221825
772.251988	0.221870
772.446509	0.221674
772.641011	0.221792
772.835494	0.221441
773.029960	0.221414
773.224407	0.221462
773.418836	0.221415
773.613247	0.221571
773.807640	0.221678
774.002014	0.221671
774.196370	0.221620
774.390708	0.221741
774.585028	0.221644
774.779330	0.221565
774.973613	0.221559
775.167878	0.221511
775.362125	0.221174
775.556354	0.221077
775.750564	0.220967
775.944756	0.221100
776.138930	0.220779
776.333086	0.220920
776.527223	0.220907
776.721343	0.220579
776.915444	0.220670
777.109526	0.220784
777.303591	0.220937
777.497637	0.220606
777.691666	0.220425
777.885676	0.220212
778.079667	0.220026
778.273641	0.220200
778.467596	0.220304
778.661533	0.220026
778.855452	0.220309
779.049352	0.219979
779.243235	0.220281
779.437099	0.220304
779.630945	0.220400
779.824773	0.220511
780.018582	0.220415
780.212373	0.220270
780.406146	0.220270
780.599901	0.220096
780.793638	0.220037
780.987356	0.220098
781.181056	0.220209
781.374738	0.220191
781.568402	0.219998
781.762047	0.219798
781.955674	0.219697
782.149283	0.219649
782.342874	0.219346
782.536447	0.219263
782.730001	0.219021
782.923537	0.218755
783.117055	0.218761
783.310555	0.218654
783.504036	0.218507
783.697499	0.218287
783.890944	0.218410
784.084371	0.218540
784.277780	0.218585
784.471170	0.218760
784.664542	0.218585
784.857896	0.218708
785.051231	0.218913
785.244549	0.219231
785.437848	0.219355
785.631129	0.219387
785.824392	0.219349
786.017636	0.219355
786.210863	0.219316
786.404071	0.219571
786.597260	0.219546
786.790432	0.219867
786.983585	0.219821
787.176721	0.220069
787.369838	0.219930
787.562936	0.220046
787.756017	0.219919
787.949079	0.220073
788.142123	0.219984
788.335149	0.220009
788.528156	0.219933
788.721146	0.219828
788.914117	0.219668
789.107070	0.219819
789.300005	0.219880
789.492921	0.220293
789.685819	0.220266
789.878699	0.220504
790.071561	0.220446
790.264405	0.220407
790.457230	0.220588
790.650037	0.220796
790.842826	0.220803
791.035597	0.220905
791.228349	0.220469
791.421084	0.220619
791.613800	0.220904
791.806497	0.220970
791.999177	0.221014
792.191838	0.220965
792.384481	0.220879
792.577106	0.220913
792.769713	0.220813
792.962301	0.221320
793.154871	0.221247
793.347423	0.220906
793.539957	0.221130
793.732473	0.221214
793.924970	0.221484
794.117449	0.221824
794.309910	0.221927
794.502353	0.222062
794.694777	0.222079
794.887183	0.222254
795.079571	0.222456
795.271941	0.222559
795.464293	0.222623
795.656626	0.222493
795.848941	0.222199
796.041238	0.222102
796.233516	0.222164
796.425777	0.222118
796.618019	0.222207
796.810243	0.222440
797.002449	0.222386
797.194636	0.222278
797.386805	0.222543
797.578956	0.222704
797.771089	0.222868
797.963204	0.222971
798.155300	0.222897
798.347378	0.222965
798.539438	0.222704
798.731480	0.223016
798.923503	0.223116
799.115509	0.223051
799.307496	0.223199
799.499465	0.223243
799.691415	0.223407
799.883348	0.223719
800.075262	0.223698
800.267158	0.224027
800.459035	0.223908
800.650895	0.224001
800.842736	0.223930
801.034559	0.224028
801.226364	0.224261
801.418150	0.224147
801.609919	0.224278
801.801669	0.224288
801.993401	0.224407
802.185114	0.224637
802.376810	0.224848
802.568487	0.225028
802.760146	0.225096
802.951787	0.225020
803.143409	0.224981
803.335014	0.224893
803.526600	0.225048
803.718168	0.224949
803.909717	0.224749
804.101249	0.225020
804.292762	0.225230
804.484257	0.225314
804.675734	0.225893
804.867192	0.226001
805.058632	0.226295
805.250054	0.226561
805.441458	0.226785
805.632844	0.227087
805.824211	0.227021
806.015561	0.227123
806.206891	0.227639
806.398204	0.227294
806.589499	0.227509
806.780775	0.227434
806.972033	0.227443
807.163273	0.227415
807.354495	0.227718
807.545698	0.227991
807.736883	0.228046
807.928050	0.227998
808.119199	0.228186
808.310329	0.228574
808.501441	0.228694
808.692535	0.228845
808.883611	0.229391
809.074669	0.229347
809.265708	0.229489
809.456729	0.229680
809.647732	0.229926
809.838717	0.230419
810.029683	0.230640
810.220632	0.230767
810.411562	0.230896
810.602474	0.230934
810.793367	0.231153
810.984242	0.231138
811.175100	0.231381
811.365938	0.231516
811.556759	0.231599
811.747562	0.231523
811.938346	0.231822
812.129112	0.232173
812.319860	0.232440
812.510589	0.232488
812.701300	0.232643
812.891994	0.232817
813.082668	0.232906
813.273325	0.233021
813.463964	0.233394
813.654584	0.233525
813.845186	0.233439
814.035769	0.233587
814.226335	0.233912
814.416882	0.234212
814.607411	0.234427
814.797922	0.234375
814.988415	0.234542
815.178889	0.234733
815.369345	0.235062
815.559783	0.235609
815.750203	0.235838
815.940605	0.235935
816.130988	0.235853
816.321353	0.236128
816.511700	0.236425
816.702028	0.236377
816.892339	0.236379
817.082631	0.236378
817.272905	0.235993
817.463161	0.235992
817.653398	0.236246
817.843617	0.236407
818.033819	0.236571
818.224001	0.236900
818.414166	0.237175
818.604312	0.237541
818.794440	0.237872
818.984550	0.238401
819.174642	0.238595
819.364716	0.238897
819.554771	0.239238
819.744808	0.239320
819.934827	0.239642
820.124827	0.239882
820.314810	0.240221
820.504774	0.240338
820.694720	0.240642
820.884647	0.240745
821.074557	0.240860
821.264448	0.241198
821.454321	0.241288
821.644176	0.241362
821.834012	0.241413
822.023831	0.241412
822.213631	0.241539
822.403413	0.241353
822.593176	0.241519
822.782922	0.241433
822.972649	0.241384
823.162358	0.241717
823.352049	0.241650
823.541721	0.241698
823.731376	0.241777
823.921012	0.242134
824.110629	0.242460
824.300229	0.242587
824.489811	0.242995
824.679374	0.243368
824.868919	0.243467
825.058445	0.243989
825.247954	0.244377
825.437444	0.244410
825.626916	0.244514
825.816370	0.244858
826.005806	0.245276
826.195223	0.245615
826.384622	0.245639
826.574003	0.246272
826.763366	0.246262
826.952711	0.246952
827.142037	0.247406
827.331345	0.247896
827.520635	0.248208
827.709906	0.248237
827.899160	0.248609
828.088395	0.249005
828.277612	0.248826
828.466810	0.248981
828.655991	0.248972
828.845153	0.249309
829.034297	0.249533
829.223423	0.249564
829.412531	0.250165
829.601620	0.250050
829.790691	0.250484
829.979744	0.250705
830.168779	0.251110
830.357795	0.251332
830.546793	0.251372
830.735773	0.251364
830.924735	0.251721
831.113679	0.251516
831.302604	0.251505
831.491511	0.251543
831.680400	0.251867
831.869271	0.251932
832.058123	0.252026
832.246957	0.252185
832.435773	0.252559
832.624571	0.252942
832.813351	0.253221
833.002112	0.253777
833.190855	0.253656
833.379580	0.253947
833.568287	0.254169
833.756975	0.254417
833.945645	0.254872
834.134297	0.255217
834.322931	0.255115
834.511547	0.255362
834.700144	0.255296
834.888723	0.255886
835.077284	0.256175
835.265826	0.256344
835.454351	0.256464
835.642857	0.256371
835.831345	0.256482
836.019815	0.256747
836.208266	0.256903
836.396699	0.257518
836.585114	0.257787
836.773511	0.257807
836.961890	0.258591
837.150250	0.258891
837.338592	0.259640
837.526916	0.259887
837.715222	0.260121
837.903510	0.260583
838.091779	0.260623
838.280030	0.260781
838.468263	0.260790
838.656477	0.260644
838.844674	0.260810
839.032852	0.260879
839.221012	0.261341
839.409153	0.261660
839.597277	0.261646
839.785382	0.261848
839.973469	0.262085
840.161538	0.262700
840.349589	0.263015
840.537621	0.263406
840.725635	0.263728
840.913631	0.263456
841.101609	0.263900
841.289568	0.264466
841.477509	0.265023
841.665432	0.265352
841.853337	0.265428
842.041224	0.265701
842.229092	0.266073
842.416942	0.266304
842.604774	0.266993
842.792588	0.267088
842.980383	0.267571
843.168160	0.267717
843.355919	0.267915
843.543660	0.268202
843.731382	0.268344
843.919087	0.268515
844.106773	0.268715
844.294441	0.268875
844.482090	0.269319
844.669722	0.269253
844.857335	0.269499
845.044930	0.269593
845.232507	0.269901
845.420065	0.270381
845.607605	0.270553
845.795127	0.270525
845.982631	0.270706
846.170117	0.271093
846.357584	0.271392
846.545033	0.271698
846.732464	0.272405
846.919877	0.272623
847.107272	0.272568
847.294648	0.273007
847.482006	0.273335
847.669346	0.273679
847.856667	0.273870
848.043971	0.274434
848.231256	0.274438
848.418523	0.274392
848.605771	0.274968
848.793002	0.275587
848.980214	0.275825
849.167408	0.276102
849.354584	0.276290
849.541742	0.276596
849.728881	0.276872
849.916002	0.277463
850.103105	0.277951
850.290190	0.277912
850.477256	0.277856
850.664304	0.278353
850.851334	0.278769
851.038346	0.278899
851.225340	0.279109
851.412315	0.279040
851.599272	0.279152
851.786211	0.279245
851.973132	0.279308
852.160034	0.279803
852.346918	0.279675
852.533784	0.279977
852.720632	0.280740
852.907462	0.280864
853.094273	0.281506
853.281066	0.281818
853.467841	0.282614
853.654598	0.282931
853.841336	0.283304
854.028056	0.283651
854.214758	0.283751
854.401442	0.283783
854.588107	0.284006
854.774755	0.283961
854.961384	0.284433
855.147995	0.284269
855.334587	0.284796
855.521162	0.284727
855.707718	0.285133
855.894256	0.285202
856.080775	0.285231
856.267277	0.285426
856.453760	0.285540
856.640225	0.285427
856.826672	0.285871
857.013101	0.285942
857.199511	0.286170
857.385903	0.286341
857.572277	0.287021
857.758633	0.287117
857.944970	0.287450
858.131290	0.287719
858.317591	0.287822
858.503873	0.287959
858.690138	0.288462
858.876384	0.289131
859.062612	0.289551
859.248822	0.289704
859.435014	0.290255
859.621188	0.290295
859.807343	0.290889
859.993480	0.291357
860.179599	0.291310
860.365699	0.291526
860.551781	0.291291
860.737846	0.291287
860.923891	0.291491
861.109919	0.291757
861.295929	0.292011
861.481920	0.292442
861.667893	0.292961
861.853848	0.293477
862.039784	0.293936
862.225702	0.294315
862.411603	0.294520
862.597484	0.294631
862.783348	0.294435
862.969193	0.295096
863.155021	0.294922
863.340830	0.294926
863.526620	0.294771
863.712393	0.294472
863.898147	0.294612
864.083883	0.295185
864.269601	0.295565
864.455301	0.296029
864.640982	0.296130
864.826645	0.296203
865.012290	0.296634
865.197917	0.297336
865.383526	0.297745
865.569116	0.298047
865.754688	0.297833
865.940242	0.298016
866.125777	0.298191
866.311295	0.298243
866.496794	0.298688
866.682275	0.298617
866.867737	0.298563
867.053182	0.298262
867.238608	0.298351
867.424016	0.298813
867.609406	0.298874
867.794778	0.298754
867.980131	0.299024
868.165466	0.299099
868.350783	0.299337
868.536082	0.299324
868.721362	0.300158
868.906625	0.300442
869.091869	0.300298
869.277094	0.300707
869.462302	0.301286
869.647491	0.301174
869.832662	0.301398
870.017815	0.301733
870.202950	0.302315
870.388066	0.301882
870.573165	0.302305
870.758245	0.302639
870.943306	0.302740
871.128350	0.302851
871.313375	0.303188
871.498382	0.303481
871.683371	0.303585
871.868342	0.303536
872.053294	0.304328
872.238229	0.304191
872.423144	0.304234
872.608042	0.304663
872.792922	0.305155
872.977783	0.304913
873.162626	0.304738
873.347451	0.305008
873.532258	0.305263
873.717046	0.305386
873.901816	0.305937
874.086568	0.306243
874.271302	0.305998
874.456017	0.305782
874.640715	0.306438
874.825394	0.306947
875.010055	0.307042
875.194697	0.307135
875.379322	0.307025
875.563928	0.306848
875.748516	0.306994
875.933085	0.307368
876.117637	0.307564
876.302170	0.307633
876.486685	0.307457
876.671182	0.307212
876.855661	0.307294
877.040121	0.307216
877.224563	0.307223
877.408987	0.307127
877.593393	0.307332
877.777780	0.307167
877.962150	0.307323
878.146501	0.307382
878.330833	0.307375
878.515148	0.307555
878.699444	0.308186
878.883722	0.308379
879.067982	0.308795
879.252224	0.308628
879.436447	0.309467
879.620653	0.309797
879.804840	0.310166
879.989008	0.310991
880.173159	0.311042
880.357291	0.311033
880.541405	0.311424
880.725501	0.311638
880.909579	0.311731
881.093638	0.311353
881.277680	0.311112
881.461703	0.310793
881.645707	0.310849
881.829694	0.311098
882.013662	0.310672
882.197612	0.310508
882.381544	0.310487
882.565458	0.310427
882.749353	0.310741
882.933230	0.310960
883.117089	0.311256
883.300930	0.310879
883.484753	0.310704
883.668557	0.311390
883.852343	0.311196
884.036111	0.310959
884.219861	0.311231
884.403592	0.311100
884.587305	0.311194
884.771000	0.311409
884.954677	0.311408
885.138335	0.311495
885.321976	0.310917
885.505598	0.311164
885.689201	0.311699
885.872787	0.311622
886.056354	0.311931
886.239904	0.311517
886.423434	0.311338
886.606947	0.311070
886.790442	0.310927
886.973918	0.311241
887.157376	0.311173
887.340816	0.310755
887.524237	0.310827
887.707641	0.310423
887.891026	0.310392
888.074393	0.310600
888.257741	0.310681
888.441072	0.310435
888.624384	0.309949
888.807678	0.309747
888.990954	0.309660
889.174211	0.309731
889.357451	0.309787
889.540672	0.310036
889.723875	0.309629
889.907059	0.309710
890.090226	0.310021
890.273374	0.310351
890.456504	0.310482
890.639616	0.310905
890.822709	0.310506
891.005785	0.310262
891.188842	0.310710
891.371881	0.310737
891.554901	0.310813
891.737904	0.310519
891.920888	0.310685
892.103854	0.310766
892.286802	0.310275
892.469731	0.310452
892.652643	0.310580
892.835536	0.309698
893.018410	0.309827
893.201267	0.309890
893.384106	0.309960
893.566926	0.309662
893.749728	0.309864
893.932511	0.309792
894.115277	0.309613
894.298024	0.309714
894.480753	0.309549
894.663464	0.309216
894.846157	0.309443
895.028831	0.309450
895.211487	0.309254
895.394125	0.308969
895.576745	0.308769
895.759346	0.308607
895.941930	0.308192
896.124495	0.308582
896.307041	0.308220
896.489570	0.308000
896.672080	0.308023
896.854573	0.307796
897.037046	0.307404
897.219502	0.307303
897.401940	0.307128
897.584359	0.307023
897.766760	0.306440
897.949143	0.306901
898.131507	0.306279
898.313854	0.305798
898.496182	0.305956
898.678492	0.305935
898.860783	0.305691
899.043057	0.305365
899.225312	0.305116
899.407549	0.305622
899.589768	0.305303
899.771968	0.305226
899.954151	0.305252
900.136315	0.304865
900.318461	0.304630
900.500588	0.304478
900.682698	0.304327
900.864789	0.304630
901.046862	0.303854
901.228917	0.303563
901.410953	0.303751
901.592971	0.304211
901.774972	0.303890
901.956953	0.303930
902.138917	0.303972
902.320862	0.303577
902.502790	0.302707
902.684699	0.302401
902.866589	0.302208
903.048462	0.301469
903.230316	0.300711
903.412152	0.300646
903.593970	0.300168
903.775770	0.299708
903.957551	0.299939
904.139314	0.299720
904.321059	0.300114
904.502786	0.299738
904.684494	0.299888
904.866185	0.299385
905.047857	0.299280
905.229510	0.298892
905.411146	0.298604
905.592763	0.298555
905.774363	0.298446
905.955943	0.297832
906.137506	0.297860
906.319051	0.297367
906.500577	0.297341
906.682085	0.296785
906.863575	0.296609
907.045046	0.296720
907.226500	0.296099
907.407935	0.295764
907.589352	0.295551
907.770750	0.295207
907.952131	0.295142
908.133493	0.294457
908.314837	0.294399
908.496163	0.294131
908.677470	0.293662
908.858760	0.293417
909.040031	0.293308
909.221284	0.293250
909.402518	0.293131
909.583735	0.292848
909.764933	0.292950
909.946113	0.292564
910.127275	0.292236
910.308418	0.291765
910.489544	0.291338
910.670651	0.290779
910.851740	0.290299
911.032810	0.289438
911.213863	0.288930
911.394897	0.288429
911.575913	0.288054
911.756911	0.287871
911.937890	0.287638
912.118851	0.287196
912.299794	0.287684
912.480719	0.286870
912.661626	0.286820
912.842514	0.285993
913.023384	0.286077
913.204236	0.286039
913.385070	0.285675
913.565886	0.284908
913.746683	0.285220
913.927462	0.284082
914.108223	0.284079
914.288965	0.283370
914.469690	0.283093
914.650396	0.282108
914.831084	0.281376
915.011754	0.281100
915.192405	0.281001
915.373038	0.280207
915.553653	0.280108
915.734250	0.279804
915.914829	0.279471
916.095389	0.279189
916.275931	0.278743
916.456455	0.278448
916.636961	0.278187
916.817448	0.277743
916.997917	0.276993
917.178368	0.276168
917.358801	0.275434
917.539216	0.275661
917.719612	0.275139
917.899990	0.275286
918.080350	0.275444
918.260692	0.275026
918.441015	0.274808
918.621320	0.274496
918.801607	0.273931
918.981876	0.273712
919.162127	0.272629
919.342359	0.272437
919.522573	0.271131
919.702769	0.270251
919.882947	0.269270
920.063106	0.269023
920.243247	0.268985
920.423370	0.268759
920.603475	0.267739
920.783562	0.267168
920.963630	0.266601
921.143680	0.266900
921.323712	0.266644
921.503725	0.266422
921.683721	0.265810
921.863698	0.265522
922.043657	0.265266
922.223598	0.264672
922.403520	0.264128
922.583424	0.263719
922.763311	0.262703
922.943178	0.261976
923.123028	0.260774
923.302859	0.259927
923.482673	0.259060
923.662467	0.258285
923.842244	0.258343
924.022003	0.258190
924.201743	0.257324
924.381465	0.256841
924.561169	0.256220
924.740854	0.255967
924.920522	0.255720
925.100171	0.254580
925.279802	0.254513
925.459414	0.253835
925.639009	0.253469
925.818585	0.253160
925.998143	0.252819
926.177683	0.252578
926.357205	0.252486
926.536708	0.251642
926.716193	0.251360
926.895660	0.250733
927.075109	0.249622
927.254539	0.248943
927.433951	0.248148
927.613345	0.247687
927.792721	0.246474
927.972079	0.245379
928.151418	0.244759
928.330739	0.244856
928.510042	0.243451
928.689327	0.243654
928.868593	0.242266
929.047841	0.241702
929.227071	0.240769
929.406283	0.240199
929.585476	0.240690
929.764652	0.240262
929.943809	0.239308
930.122948	0.238990
930.302068	0.238104
930.481171	0.238100
930.660255	0.237730
930.839321	0.237291
931.018369	0.236494
931.197398	0.235145
931.376409	0.234952
931.555402	0.234632
931.734377	0.234247
931.913334	0.233486
932.092272	0.233065
932.271192	0.232883
932.450094	0.232442
932.628978	0.232112
932.807844	0.231748
932.986691	0.230284
933.165520	0.229708
933.344331	0.229485
933.523123	0.229465
933.701898	0.229324
933.880654	0.227925
934.059392	0.226686
934.238111	0.224817
934.416813	0.224020
934.595496	0.223590
934.774161	0.222199
934.952808	0.221119
935.131437	0.219579
935.310047	0.217735
935.488639	0.217559
935.667213	0.216714
935.845769	0.217586
936.024306	0.216594
936.202825	0.216157
936.381326	0.215687
936.559809	0.215154
936.738274	0.215467
936.916720	0.215065
937.095148	0.214913
937.273558	0.214824
937.451950	0.214124
937.630323	0.214093
937.808678	0.213845
937.987015	0.214010
938.165334	0.213667
938.343635	0.211915
938.521917	0.211076
938.700181	0.210053
938.878427	0.209435
939.056655	0.208866
939.234864	0.207665
939.413055	0.207065
939.591228	0.205617
939.769383	0.205282
939.947519	0.205276
940.125638	0.205452
940.303738	0.203683
940.481820	0.203817
940.659883	0.203052
940.837929	0.201951
941.015956	0.200968
941.193965	0.200579
941.371955	0.197887
941.549928	0.197588
941.727882	0.196813
941.905818	0.196225
942.083736	0.195455
942.261636	0.194936
942.439517	0.194545
942.617380	0.193081
942.795225	0.191467
942.973052	0.191614
943.150860	0.191030
943.328651	0.190862
943.506423	0.190584
943.684176	0.189645
943.861912	0.188967
944.039629	0.188343
944.217328	0.189730
944.395009	0.189386
944.572672	0.189256
944.750317	0.188084
944.927943	0.187016
945.105551	0.186252
945.283141	0.184180
945.460712	0.181902
945.638265	0.179334
945.815801	0.175336
945.993317	0.174635
946.170816	0.173948
946.348297	0.173444
946.525759	0.171145
946.703203	0.171085
946.880629	0.171438
947.058036	0.172373
947.235425	0.173414
947.412797	0.173984
947.590149	0.173131
947.767484	0.172821
947.944800	0.171698
948.122099	0.171953
948.299379	0.170995
948.476640	0.170239
948.653884	0.168061
948.831109	0.167866
949.008316	0.167440
949.185505	0.167647
949.362676	0.167918
949.539828	0.168761
949.716962	0.167169
949.894078	0.166379
950.071176	0.166008
950.248256	0.165674
950.425317	0.164615
950.602360	0.163339
950.779385	0.161810
950.956391	0.158797
951.133380	0.155800
951.310350	0.156827
951.487302	0.155119
951.664235	0.153583
951.841151	0.153762
952.018048	0.151571
952.194927	0.152030
952.371788	0.151222
952.548631	0.150820
952.725455	0.150571
952.902261	0.148473
953.079049	0.148164
953.255819	0.147989
953.432570	0.146936
953.609303	0.148234
953.786018	0.146421
953.962715	0.145768
954.139394	0.146382
954.316054	0.145645
954.492696	0.146158
954.669320	0.145093
954.845926	0.143869
955.022513	0.143333
955.199083	0.142468
955.375634	0.140657
955.552166	0.138957
955.728681	0.137742
955.905177	0.138155
956.081655	0.136412
956.258115	0.136612
956.434557	0.134454
956.610980	0.132450
956.787385	0.132663
956.963772	0.134519
957.140141	0.133321
957.316492	0.130968
957.492824	0.129676
957.669138	0.130554
957.845434	0.132767
958.021712	0.133042
958.197971	0.132758
958.374212	0.132322
958.550435	0.131625
958.726640	0.135595
958.902826	0.135565
959.078995	0.134737
959.255145	0.132615
959.431277	0.130165
959.607390	0.131222
959.783486	0.130528
959.959563	0.128168
960.135622	0.128250
960.311662	0.126280
960.487685	0.126083
960.663689	0.124956
960.839675	0.125546
961.015643	0.124817
961.191593	0.123890
961.367524	0.125750
961.543437	0.126287
961.719332	0.123645
961.895209	0.121742
962.071067	0.121802
962.246907	0.123704
962.422730	0.122624
962.598533	0.122203
962.774319	0.122076
962.950086	0.119977
963.125835	0.118173
963.301566	0.117597
963.477279	0.115061
963.652973	0.113361
963.828650	0.111846
964.004308	0.111687
964.179947	0.111508
964.355569	0.110873
964.531172	0.111845
964.706757	0.115679
964.882324	0.119232
965.057873	0.123057
965.233403	0.124658
965.408916	0.125132
965.584410	0.126381
965.759885	0.125265
965.935343	0.125063
966.110782	0.124888
966.286203	0.121779
966.461606	0.118868
966.636991	0.116198
966.812357	0.116143
966.987705	0.115179
967.163035	0.115514
967.338347	0.115333
967.513641	0.116047
967.688916	0.115877
967.864173	0.116741
968.039412	0.117180
968.214632	0.119580
968.389835	0.119676
968.565019	0.118211
968.740185	0.116543
968.915333	0.117427
969.090462	0.116615
969.265573	0.115998
969.440667	0.117338
969.615741	0.119235
969.790798	0.118200
969.965836	0.118114
970.140856	0.119631
970.315858	0.120243
970.490842	0.119959
970.665808	0.118165
970.840755	0.119773
971.015684	0.118813
971.190595	0.115892
971.365487	0.116500
971.540362	0.116406
971.715218	0.118572
971.890056	0.120180
972.064875	0.120471
972.239677	0.122133
972.414460	0.120690
972.589225	0.119511
972.763972	0.121307
972.938700	0.119050
973.113411	0.116690
973.288103	0.113313
973.462777	0.110634
973.637432	0.112097
973.812070	0.109842
973.986689	0.109252
974.161290	0.108646
974.335873	0.108436
974.510437	0.110410
974.684984	0.112636
974.859512	0.112636
975.034022	0.112771
975.208513	0.111506
975.382987	0.114062
975.557442	0.115368
975.731879	0.114862
975.906298	0.114944
976.080698	0.113382
976.255080	0.112567
976.429445	0.113167
976.603790	0.113926
976.778118	0.112705
976.952427	0.111861
977.126719	0.109968
977.300992	0.112537
977.475246	0.111567
977.649483	0.113549
977.823701	0.112643
977.997901	0.114958
978.172083	0.113994
978.346247	0.117286
978.520392	0.116304
978.694519	0.117112
978.868628	0.114958
979.042719	0.114496
979.216791	0.115769
979.390845	0.116078
979.564882	0.114789
979.738899	0.117449
979.912899	0.115059
980.086880	0.115953
980.260843	0.115721
980.434788	0.116026
980.608715	0.115567
980.782623	0.111992
980.956514	0.113117
981.130386	0.112488
981.304240	0.112972
981.478075	0.113681
981.651892	0.113438
981.825692	0.115138
981.999472	0.114162
982.173235	0.114643
982.346980	0.116273
982.520706	0.116793
982.694414	0.118209
982.868104	0.117369
983.041775	0.115048
983.215428	0.114536
983.389064	0.112655
983.562680	0.111803
983.736279	0.113685
983.909860	0.113027
984.083422	0.112308
984.256966	0.109758
984.430491	0.110116
984.603999	0.113656
984.777488	0.114514
984.950959	0.115980
985.124412	0.116349
985.297847	0.116026
985.471263	0.116973
985.644661	0.117449
985.818041	0.119932
985.991403	0.117479
986.164747	0.114992
986.338072	0.114862
986.511379	0.113378
986.684668	0.115553
986.857938	0.115812
987.031191	0.112767
987.204425	0.113303
987.377641	0.113203
987.550839	0.114173
987.724018	0.114453
987.897179	0.113186
988.070322	0.114218
988.243447	0.114021
988.416554	0.111223
988.589642	0.114419
988.762712	0.112325
988.935764	0.109775
989.108798	0.111042
989.281813	0.110926
989.454811	0.111122
989.627790	0.110068
989.800751	0.109360
989.973693	0.111403
990.146617	0.110160
990.319524	0.112779
990.492412	0.114008
990.665281	0.112375
990.838133	0.111554
991.010966	0.112879
991.183781	0.111727
991.356578	0.112978
991.529356	0.111504
991.702117	0.112344
991.874859	0.111427
992.047583	0.112751
992.220288	0.112548
992.392976	0.112921
992.565645	0.112969
992.738296	0.115081
992.910929	0.114732
993.083543	0.116306
993.256139	0.114120
993.428718	0.112702
993.601277	0.113189
993.773819	0.113446
993.946342	0.115721
994.118848	0.114695
994.291335	0.114113
994.463803	0.111213
994.636254	0.110673
994.808686	0.112166
994.981100	0.112127
995.153496	0.109912
995.325874	0.111282
995.498233	0.111622
995.670574	0.112049
995.842897	0.111027
996.015202	0.113116
996.187488	0.111990
996.359757	0.111583
996.532007	0.111720
996.704239	0.112905
996.876452	0.109849
997.048648	0.107718
997.220825	0.106758
997.392984	0.107599
997.565124	0.106954
997.737247	0.108198
997.909351	0.108639
998.081437	0.108472
998.253505	0.108419
998.425554	0.108878
998.597586	0.107899
998.769599	0.109578
998.941594	0.110620
999.113571	0.108829
999.285529	0.108823
999.457469	0.109374
999.629391	0.109615
999.801295	0.108790
999.973181	0.110688
1000.145048	0.112316
1000.316897	0.111049
1000.488728	0.109986
1000.660541	0.111797
1000.832335	0.112316
1001.004111	0.110693
1001.175869	0.112010
1001.347609	0.110632
1001.519331	0.109256
1001.691034	0.107739
1001.862719	0.108041
1002.034386	0.107439
1002.206035	0.108944
1002.377665	0.108795
1002.549277	0.110661
1002.720871	0.108883
1002.892447	0.109576
1003.064004	0.109447
1003.235544	0.109687
1003.407065	0.109918
1003.578568	0.111602
1003.750052	0.109624
1003.921519	0.109864
1004.092967	0.109364
1004.264397	0.112212
1004.435809	0.112832
1004.607202	0.112523
1004.778577	0.113161
1004.949934	0.114608
1005.121273	0.115881
1005.292594	0.114634
1005.463896	0.113132
1005.635180	0.111914
1005.806446	0.109304
1005.977694	0.109519
1006.148923	0.111262
1006.320135	0.110942
1006.491328	0.108662
1006.662503	0.106177
1006.833659	0.107521
1007.004798	0.107765
1007.175918	0.108576
1007.347020	0.109475
1007.518103	0.108867
1007.689169	0.110854
1007.860216	0.110081
1008.031245	0.112018
1008.202256	0.111542
1008.373248	0.111218
1008.544223	0.112635
1008.715179	0.113089
1008.886117	0.111760
1009.057036	0.113331
1009.227938	0.110488
1009.398821	0.110160
1009.569686	0.108460
1009.740533	0.109412
1009.911361	0.110902
1010.082172	0.108769
1010.252964	0.108137
1010.423738	0.108823
1010.594493	0.106992
1010.765231	0.107202
1010.935950	0.108388
1011.106651	0.109433
1011.277334	0.108273
1011.447998	0.106966
1011.618645	0.107470
1011.789273	0.106512
1011.959882	0.107508
1012.130474	0.108843
1012.301048	0.108933
1012.471603	0.110121
1012.642140	0.107703
1012.812658	0.108684
1012.983159	0.110337
1013.153641	0.109841
1013.324105	0.111467
1013.494551	0.107975
1013.664979	0.108202
1013.835388	0.108016
1014.005779	0.106978
1014.176152	0.107680
1014.346507	0.108153
1014.516843	0.108118
1014.687162	0.108075
1014.857462	0.105672
1015.027744	0.108308
1015.198007	0.108234
1015.368252	0.109749
1015.538480	0.110208
1015.708689	0.111942
1015.878879	0.111350
1016.049052	0.111312
1016.219206	0.112006
1016.389342	0.114295
1016.559460	0.113252
1016.729559	0.111568
1016.899641	0.108638
1017.069704	0.107962
1017.239749	0.106827
1017.409775	0.106987
1017.579784	0.106465
1017.749774	0.106954
1017.919746	0.107381
1018.089700	0.107753
1018.259635	0.109185
1018.429553	0.110699
1018.599452	0.111274
1018.769333	0.113265
1018.939195	0.115033
1019.109040	0.114345
1019.278866	0.114363
1019.448674	0.113113
1019.618464	0.113839
1019.788235	0.113397
1019.957989	0.113029
1020.127724	0.112411
1020.297441	0.110359
1020.467139	0.110114
1020.636820	0.110536
1020.806482	0.110947
1020.976126	0.110816
1021.145752	0.111252
1021.315359	0.110870
1021.484948	0.111325
1021.654519	0.111197
1021.824072	0.111548
1021.993607	0.109699
1022.163123	0.108155
1022.332621	0.108608
1022.502101	0.110244
1022.671563	0.109824
1022.841007	0.109857
1023.010432	0.107602
1023.179839	0.108964
1023.349228	0.108407
1023.518598	0.109411
1023.687951	0.110292
1023.857285	0.109026
1024.026601	0.107698
1024.195899	0.106722
1024.365178	0.105575
1024.534439	0.106916
1024.703682	0.107122
1024.872907	0.107877
1025.042114	0.107414
1025.211302	0.107176
1025.380472	0.106092
1025.549624	0.105409
1025.718758	0.106112
1025.887873	0.105295
1026.056970	0.105879
1026.226049	0.105416
1026.395110	0.105180
1026.564153	0.106060
1026.733177	0.107478
1026.902183	0.110173
1027.071171	0.110636
1027.240141	0.110810
1027.409092	0.112973
1027.578026	0.111967
1027.746940	0.111142
1027.915837	0.110818
1028.084716	0.107664
1028.253576	0.106321
1028.422418	0.104063
1028.591242	0.104568
1028.760048	0.104697
1028.928835	0.104841
1029.097604	0.105916
1029.266355	0.106012
1029.435088	0.106448
1029.603803	0.107775
1029.772499	0.108315
1029.941177	0.107784
1030.109837	0.108047
1030.278478	0.107785
1030.447102	0.108036
1030.615707	0.105686
1030.784294	0.105966
1030.952863	0.106444
1031.121413	0.106812
1031.289945	0.106498
1031.458460	0.107758
1031.626955	0.106330
1031.795433	0.105871
1031.963892	0.105711
1032.132334	0.107664
1032.300756	0.106634
1032.469161	0.106988
1032.637548	0.107077
1032.805916	0.106519
1032.974266	0.107755
1033.142598	0.110092
1033.310911	0.109400
1033.479207	0.108336
1033.647484	0.108498
1033.815743	0.108555
1033.983983	0.107326
1034.152206	0.108105
1034.320410	0.110633
1034.488596	0.109633
1034.656764	0.109310
1034.824914	0.111338
1034.993045	0.112410
1035.161158	0.113228
1035.329253	0.113944
1035.497330	0.113862
1035.665388	0.112251
1035.833428	0.109664
1036.001450	0.109669
1036.169454	0.108355
1036.337440	0.108471
1036.505407	0.109103
1036.673356	0.108839
1036.841287	0.108496
1037.009200	0.108510
1037.177094	0.109549
1037.344970	0.111331
1037.512828	0.111444
1037.680668	0.112570
1037.848489	0.112589
1038.016293	0.110088
1038.184078	0.108427
1038.351845	0.108321
1038.519593	0.109245
1038.687324	0.108869
1038.855036	0.106710
1039.022730	0.105866
1039.190406	0.105790
1039.358063	0.104464
1039.525702	0.105014
1039.693323	0.106464
1039.860926	0.105991
1040.028511	0.105361
1040.196077	0.104115
1040.363625	0.106007
1040.531155	0.106818
1040.698667	0.104492
1040.866161	0.104225
1041.033636	0.105434
1041.201093	0.104032
1041.368532	0.105031
1041.535952	0.105893
1041.703355	0.107626
1041.870739	0.107032
1042.038105	0.107544
1042.205452	0.107944
1042.372782	0.108140
1042.540093	0.108163
1042.707386	0.107232
1042.874661	0.108233
1043.041918	0.107679
1043.209156	0.109040
1043.376376	0.108280
1043.543578	0.106846
1043.710762	0.108727
1043.877927	0.108481
1044.045074	0.108061
1044.212203	0.109796
1044.379314	0.108427
1044.546407	0.108321
1044.713481	0.106107
1044.880537	0.105595
1045.047575	0.106358
1045.214595	0.105048
1045.381596	0.107910
1045.548579	0.107945
1045.715544	0.107708
1045.882491	0.108542
1046.049420	0.108645
1046.216330	0.109021
1046.383222	0.110927
1046.550096	0.111227
1046.716951	0.111203
1046.883789	0.109710
1047.050608	0.109004
1047.217409	0.107943
1047.384192	0.106936
1047.550956	0.107443
1047.717703	0.107251
1047.884431	0.107256
1048.051140	0.107922
1048.217832	0.108547
1048.384505	0.109438
1048.551161	0.111841
1048.717798	0.113148
1048.884416	0.113371
1049.051017	0.112054
1049.217599	0.113194
1049.384163	0.113022
1049.550709	0.108002
1049.717237	0.109936
1049.883746	0.108619
1050.050237	0.107238
1050.216710	0.107327
1050.383165	0.108008
1050.549601	0.108907
1050.716019	0.107876
1050.882420	0.106782
1051.048801	0.111124
1051.215165	0.109663
1051.381510	0.108247
1051.547837	0.107852
1051.714146	0.107871
1051.880437	0.108090
1052.046709	0.107691
1052.212964	0.108237
1052.379200	0.109317
1052.545417	0.108208
1052.711617	0.108089
1052.877798	0.108808
1053.043961	0.108833
1053.210106	0.109086
1053.376233	0.108108
1053.542341	0.109487
1053.708432	0.108093
1053.874504	0.106512
1054.040557	0.107974
1054.206593	0.107177
1054.372610	0.106715
1054.538609	0.107179
1054.704590	0.107652
1054.870553	0.108724
1055.036497	0.106731
1055.202424	0.107511
1055.368331	0.109025
1055.534221	0.108898
1055.700093	0.108012
1055.865946	0.108848
1056.031781	0.110845
1056.197598	0.110580
1056.363397	0.109796
1056.529177	0.111084
1056.694939	0.110561
1056.860683	0.111855
1057.026409	0.112001
1057.192116	0.114888
1057.357806	0.114448
1057.523477	0.113916
1057.689130	0.112529
1057.854764	0.113006
1058.020381	0.112426
1058.185979	0.113182
1058.351559	0.112307
1058.517120	0.112344
1058.682664	0.110909
1058.848189	0.111927
1059.013696	0.110081
1059.179185	0.111260
1059.344656	0.110390
1059.510108	0.111407
1059.675542	0.112078
1059.840958	0.109742
1060.006356	0.107573
1060.171735	0.107843
1060.337096	0.108369
1060.502439	0.109742
1060.667764	0.108824
1060.833071	0.109724
1060.998359	0.107929
1061.163629	0.107875
1061.328881	0.109283
1061.494115	0.109816
1061.659330	0.109083
1061.824527	0.106985
1061.989706	0.105705
1062.154867	0.106953
1062.320010	0.108595
1062.485134	0.109706
1062.650240	0.107988
1062.815328	0.107245
1062.980398	0.108919
1063.145449	0.107904
1063.310482	0.108262
1063.475497	0.108138
1063.640494	0.105755
1063.805473	0.104898
1063.970433	0.105165
1064.135375	0.108482
1064.300299	0.108586
1064.465204	0.109336
1064.630092	0.110694
1064.794961	0.111325
1064.959812	0.111820
1065.124645	0.113465
1065.289459	0.112265
1065.454256	0.112852
1065.619034	0.112476
1065.783793	0.113309
1065.948535	0.112291
1066.113258	0.112541
1066.277964	0.113513
1066.442651	0.112684
1066.607319	0.112320
1066.771970	0.112580
1066.936602	0.111976
1067.101216	0.112103
1067.265812	0.115314
1067.430389	0.113550
1067.594949	0.112853
1067.759490	0.112632
1067.924013	0.113651
1068.088518	0.115203
1068.253004	0.115668
1068.417472	0.114592
1068.581922	0.113745
1068.746354	0.110481
1068.910768	0.112985
1069.075163	0.115173
1069.239540	0.114839
1069.403899	0.114244
1069.568240	0.114162
1069.732562	0.112526
1069.896866	0.113128
1070.061152	0.112152
1070.225420	0.114911
1070.389670	0.113576
1070.553901	0.113040
1070.718114	0.111433
1070.882309	0.112681
1071.046486	0.112044
1071.210644	0.113208
1071.374784	0.113162
1071.538906	0.111994
1071.703010	0.113286
1071.867096	0.113257
1072.031163	0.112139
1072.195212	0.113700
1072.359243	0.111322
1072.523256	0.109587
1072.687250	0.109896
1072.851226	0.112567
1073.015184	0.113394
1073.179124	0.109970
1073.343045	0.110147
1073.506949	0.110773
1073.670834	0.111605
1073.834701	0.113710
1073.998549	0.115609
1074.162380	0.116266
1074.326192	0.112531
1074.489986	0.114273
1074.653761	0.115812
1074.817519	0.117270
1074.981258	0.115117
1075.144979	0.115949
1075.308682	0.113753
1075.472367	0.116426
1075.636033	0.116959
1075.799681	0.120254
1075.963311	0.118495
1076.126923	0.117699
1076.290516	0.118935
1076.454092	0.120888
1076.617649	0.119182
1076.781187	0.121806
1076.944708	0.117926
1077.108210	0.115679
1077.271695	0.114273
1077.435160	0.115974
1077.598608	0.113201
1077.762038	0.113320
1077.925449	0.116731
1078.088842	0.118585
1078.252217	0.117861
1078.415573	0.120985
1078.578912	0.122163
1078.742232	0.124749
1078.905534	0.123379
1079.068817	0.125943
1079.232083	0.125711
1079.395330	0.121315
1079.558559	0.119034
1079.721770	0.120451
1079.884962	0.120216
1080.048136	0.119399
1080.211293	0.119708
1080.374430	0.120949
1080.537550	0.118580
1080.700651	0.114545
1080.863735	0.116388
1081.026800	0.117684
1081.189846	0.116676
1081.352875	0.115208
1081.515885	0.117801
1081.678877	0.115531
1081.841851	0.116125
1082.004807	0.119086
1082.167744	0.119571
1082.330663	0.120049
1082.493564	0.121554
1082.656447	0.121005
1082.819312	0.120909
1082.982158	0.118823
1083.144986	0.117639
1083.307796	0.116495
1083.470587	0.115013
1083.633361	0.116294
1083.796116	0.115239
1083.958853	0.114499
1084.121571	0.116712
1084.284272	0.116394
1084.446954	0.116958
1084.609618	0.117690
1084.772264	0.118312
1084.934892	0.117932
1085.097501	0.119541
1085.260092	0.121144
1085.422665	0.120111
1085.585220	0.119147
1085.747756	0.119575
1085.910274	0.118247
1086.072774	0.118147
1086.235256	0.119467
1086.397720	0.120411
1086.560165	0.118612
1086.722592	0.119500
1086.885001	0.120221
1087.047392	0.120333
1087.209764	0.120660
1087.372119	0.123028
1087.534455	0.120911
1087.696772	0.123327
1087.859072	0.121902
1088.021353	0.122137
1088.183616	0.120570
1088.345861	0.120329
1088.508088	0.118855
1088.670296	0.118065
1088.832486	0.117007
1088.994658	0.119971
1089.156812	0.118622
1089.318948	0.120947
1089.481065	0.121681
1089.643164	0.121986
1089.805245	0.123805
1089.967308	0.125465
1090.129352	0.129078
1090.291378	0.127198
1090.453386	0.128373
1090.615376	0.126884
1090.777347	0.126035
1090.939301	0.125137
1091.101236	0.125645
1091.263153	0.122496
1091.425051	0.122926
1091.586932	0.119827
1091.748794	0.122206
1091.910638	0.121993
1092.072463	0.123531
1092.234271	0.125205
1092.396060	0.124447
1092.557831	0.125037
1092.719584	0.126772
1092.881319	0.126277
1093.043035	0.126070
1093.204733	0.127193
1093.366413	0.122486
1093.528075	0.121302
1093.689718	0.119535
1093.851343	0.125523
1094.012950	0.125785
1094.174539	0.124970
1094.336110	0.124536
1094.497662	0.123506
1094.659196	0.126461
1094.820712	0.129184
1094.982210	0.127656
1095.143689	0.129379
1095.305151	0.125535
1095.466594	0.126269
1095.628018	0.126144
1095.789425	0.127512
1095.950813	0.128203
1096.112183	0.122852
1096.273535	0.123248
1096.434869	0.123940
1096.596184	0.124168
1096.757482	0.125848
1096.918761	0.122035
1097.080021	0.122706
1097.241264	0.121595
1097.402488	0.124605
1097.563694	0.123334
1097.724882	0.125424
1097.886052	0.124947
1098.047203	0.125163
1098.208336	0.125602
1098.369451	0.125315
1098.530548	0.129401
1098.691627	0.128680
1098.852687	0.124650
1099.013729	0.128411
1099.174753	0.127873
1099.335758	0.127985
1099.496746	0.125648
1099.657715	0.124483
1099.818666	0.125394
1099.979599	0.120525
1100.140513	0.120186
1100.301409	0.119724
1100.462287	0.118014
1100.623147	0.114535
1100.783989	0.114571
1100.944812	0.115396
1101.105617	0.117590
1101.266404	0.115835
1101.427173	0.118620
1101.587923	0.117166
1101.748656	0.121090
1101.909370	0.120147
1102.070066	0.122902
1102.230743	0.125646
1102.391403	0.126304
1102.552044	0.122131
1102.712667	0.122285
1102.873271	0.123547
1103.033858	0.123366
1103.194426	0.122062
1103.354976	0.124811
1103.515508	0.125240
1103.676021	0.124268
1103.836517	0.125876
1103.996994	0.128309
1104.157453	0.131509
1104.317893	0.124502
1104.478316	0.126208
1104.638720	0.126763
1104.799106	0.123710
1104.959474	0.122697
1105.119823	0.124258
1105.280155	0.123868
1105.440468	0.125223
1105.600763	0.128254
1105.761039	0.132372
1105.921298	0.131874
1106.081538	0.133420
1106.241760	0.138793
1106.401964	0.141881
1106.562149	0.137714
1106.722316	0.138038
1106.882465	0.136280
1107.042596	0.129732
1107.202709	0.127748
1107.362803	0.133566
1107.522879	0.131602
1107.682937	0.128960
1107.842977	0.124553
1108.002999	0.123970
1108.163002	0.119785
1108.322987	0.117102
1108.482954	0.120596
1108.642902	0.123262
1108.802833	0.118215
1108.962745	0.116182
1109.122639	0.116634
1109.282515	0.120459
1109.442372	0.123096
1109.602211	0.124799
1109.762032	0.131501
1109.921835	0.129699
1110.081620	0.131312
1110.241386	0.135330
1110.401134	0.137714
1110.560864	0.135705
1110.720576	0.134519
1110.880269	0.133429
1111.039945	0.133329
1111.199602	0.125877
1111.359240	0.128390
1111.518861	0.129987
1111.678463	0.126186
1111.838047	0.127139
1111.997613	0.130137
1112.157161	0.133508
1112.316690	0.135653
1112.476202	0.137468
1112.635695	0.143881
1112.795169	0.140464
1112.954626	0.136774
1113.114064	0.135047
1113.273484	0.138806
1113.432886	0.133227
1113.592270	0.131114
1113.751635	0.127526
1113.910983	0.128758
1114.070312	0.124785
1114.229622	0.123779
1114.388915	0.123792
1114.548189	0.126229
1114.707445	0.119844
1114.866683	0.121006
1115.025903	0.121913
1115.185104	0.124228
1115.344287	0.123743
1115.503452	0.125352
1115.662599	0.127651
1115.821727	0.128488
1115.980838	0.128283
1116.139930	0.132596
1116.299004	0.134015
1116.458059	0.134608
1116.617097	0.136758
1116.776116	0.135850
1116.935117	0.139672
1117.094099	0.141247
1117.253064	0.144610
1117.412010	0.147257
1117.570938	0.153406
1117.729848	0.154785
1117.888740	0.153519
1118.047613	0.148389
1118.206468	0.150032
1118.365305	0.144356
1118.524124	0.139759
1118.682924	0.133234
1118.841707	0.131377
1119.000471	0.124971
1119.159216	0.124705
1119.317944	0.127542
1119.476653	0.131727
1119.635344	0.129768
1119.794017	0.127653
1119.952672	0.127271
1120.111308	0.126688
1120.269927	0.127635
1120.428527	0.127696
1120.587108	0.127474
1120.745672	0.120613
1120.904217	0.122172
1121.062744	0.124365
1121.221253	0.127924
1121.379744	0.130822
1121.538216	0.136574
1121.696671	0.138452
1121.855107	0.135213
1122.013524	0.135695
1122.171924	0.138304
1122.330305	0.133222
1122.488668	0.130610
1122.647013	0.132817
1122.805340	0.135418
1122.963648	0.133890
1123.121938	0.132730
1123.280210	0.135906
1123.438464	0.137286
1123.596700	0.129581
1123.754917	0.135032
1123.913116	0.139991
1124.071297	0.140792
1124.229459	0.140947
1124.387604	0.141212
1124.545730	0.139973
1124.703838	0.144249
1124.861928	0.144905
1125.019999	0.151652
1125.178052	0.148623
1125.336088	0.148507
1125.494104	0.144975
1125.652103	0.141495
1125.810083	0.137204
1125.968045	0.140681
1126.125989	0.134155
1126.283915	0.132247
1126.441823	0.135647
1126.599712	0.136610
1126.757583	0.137532
1126.915436	0.136703
1127.073270	0.141781
1127.231087	0.146357
1127.388885	0.146105
1127.546665	0.147249
1127.704426	0.151841
1127.862170	0.155914
1128.019895	0.158883
1128.177602	0.151502
1128.335291	0.153568
1128.492961	0.156852
1128.650614	0.155385
1128.808248	0.151775
1128.965864	0.156837
1129.123461	0.151406
1129.281041	0.144484
1129.438602	0.142555
1129.596145	0.143763
1129.753670	0.143228
1129.911176	0.142958
1130.068665	0.138978
1130.226135	0.138545
1130.383587	0.134224
1130.541020	0.137508
1130.698436	0.146897
1130.855833	0.144966
1131.013212	0.144468
1131.170573	0.139415
1131.327915	0.139107
1131.485239	0.144734
1131.642545	0.142206
1131.799833	0.142594
1131.957103	0.143895
1132.114354	0.137483
1132.271588	0.138976
1132.428803	0.140703
1132.585999	0.149288
1132.743178	0.138717
1132.900338	0.137194
1133.057480	0.146717
1133.214604	0.141116
1133.371710	0.141675
1133.528797	0.135712
1133.685866	0.132764
1133.842917	0.136139
1133.999950	0.127411
1134.156964	0.137829
1134.313960	0.138665
1134.470938	0.137053
1134.627898	0.144264
1134.784840	0.150705
1134.941763	0.159262
1135.098668	0.164418
1135.255555	0.161951
1135.412424	0.163273
1135.569274	0.159982
1135.726107	0.154514
1135.882921	0.156496
1136.039716	0.155645
1136.196494	0.143666
1136.353253	0.145990
1136.509995	0.145899
1136.666717	0.143087
1136.823422	0.142816
1136.980109	0.138056
1137.136777	0.146821
1137.293427	0.143069
1137.450059	0.144408
1137.606672	0.139021
1137.763267	0.134852
1137.919844	0.126358
1138.076403	0.129811
1138.232944	0.130094
1138.389466	0.142194
1138.545971	0.140182
1138.702457	0.139602
1138.858924	0.143467
1139.015374	0.148400
1139.171805	0.150634
1139.328218	0.163045
1139.484613	0.166205
1139.640990	0.178057
1139.797348	0.169389
1139.953688	0.167671
1140.110010	0.168880
1140.266314	0.159575
1140.422600	0.164148
1140.578867	0.157864
1140.735116	0.150995
1140.891347	0.150411
1141.047559	0.144940
1141.203754	0.156233
1141.359930	0.157102
1141.516088	0.160343
1141.672228	0.162206
1141.828349	0.161590
1141.984452	0.163428
1142.140537	0.160843
1142.296604	0.169417
1142.452653	0.175958
1142.608683	0.165659
1142.764695	0.161224
1142.920689	0.154103
1143.076665	0.155183
1143.232622	0.161969
1143.388562	0.167382
1143.544483	0.171344
1143.700385	0.154841
1143.856270	0.142535
1144.012136	0.145713
1144.167985	0.157939
1144.323814	0.157465
1144.479626	0.155755
1144.635420	0.146587
1144.791195	0.142800
1144.946952	0.147443
1145.102691	0.149091
1145.258411	0.151080
1145.414113	0.143934
1145.569798	0.136541
1145.725463	0.133790
1145.881111	0.128943
1146.036741	0.126611
1146.192352	0.124370
1146.347945	0.120461
1146.503519	0.124039
1146.659076	0.131550
1146.814614	0.133717
1146.970134	0.139764
1147.125636	0.134241
1147.281120	0.138265
1147.436585	0.142946
1147.592032	0.143165
1147.747461	0.149512
1147.902872	0.152311
1148.058265	0.151784
1148.213639	0.151383
1148.368995	0.156327
1148.524333	0.171113
1148.679653	0.177287
1148.834954	0.170159
1148.990237	0.169613
1149.145502	0.159622
1149.300749	0.161471
1149.455977	0.150220
1149.611188	0.145644
1149.766380	0.137655
1149.921553	0.133123
1150.076709	0.131238
1150.231846	0.132888
1150.386966	0.140946
1150.542066	0.148266
1150.697149	0.139828
1150.852214	0.152696
1151.007260	0.168828
1151.162288	0.175199
1151.317298	0.180977
1151.472289	0.166696
1151.627263	0.174853
1151.782218	0.172192
1151.937155	0.163805
1152.092073	0.169485
1152.246974	0.164047
1152.401856	0.156298
1152.556720	0.144364
1152.711566	0.142104
1152.866393	0.155642
1153.021203	0.155376
1153.175994	0.158895
1153.330767	0.149550
1153.485521	0.144103
1153.640258	0.149503
1153.794976	0.158020
1153.949676	0.171321
1154.104358	0.168793
1154.259021	0.176572
1154.413667	0.165781
1154.568294	0.150237
1154.722903	0.162812
1154.877493	0.161283
1155.032066	0.150404
1155.186620	0.147343
1155.341156	0.138262
1155.495674	0.138865
1155.650173	0.128024
1155.804654	0.138715
1155.959118	0.148254
1156.113562	0.156944
1156.267989	0.170133
1156.422397	0.175501
1156.576788	0.171091
1156.731160	0.170668
1156.885513	0.175366
1157.039849	0.185853
1157.194166	0.191338
1157.348465	0.181360
1157.502746	0.168169
1157.657009	0.161014
1157.811253	0.159329
1157.965479	0.147231
1158.119687	0.140087
1158.273877	0.132298
1158.428048	0.115730
1158.582201	0.120872
1158.736337	0.132818
1158.890453	0.134427
1159.044552	0.140667
1159.198632	0.139465
1159.352694	0.150966
1159.506738	0.167284
1159.660764	0.171994
1159.814771	0.184629
1159.968761	0.170500
1160.122732	0.179584
1160.276685	0.181851
1160.430619	0.178447
1160.584535	0.190620
1160.738434	0.182406
1160.892313	0.169536
1161.046175	0.174744
1161.200019	0.173146
1161.353844	0.165638
1161.507651	0.160686
1161.661440	0.159493
1161.815210	0.156692
1161.968962	0.141575
1162.122697	0.150264
1162.276412	0.166400
1162.430110	0.159980
1162.583789	0.169176
1162.737451	0.180194
1162.891094	0.171637
1163.044718	0.184045
1163.198325	0.183091
1163.351913	0.191854
1163.505483	0.190687
1163.659035	0.178479
1163.812569	0.177007
1163.966084	0.158205
1164.119581	0.159273
1164.273060	0.155254
1164.426521	0.153581
1164.579964	0.155574
1164.733388	0.155678
1164.886794	0.146732
1165.040182	0.134947
1165.193551	0.139521
1165.346903	0.156922
1165.500236	0.142753
1165.653551	0.146253
1165.806848	0.139224
1165.960126	0.124981
1166.113386	0.124936
1166.266628	0.141583
1166.419852	0.153542
1166.573058	0.153529
1166.726245	0.150464
1166.879414	0.159914
1167.032565	0.156003
1167.185698	0.157543
1167.338812	0.176011
1167.491909	0.175854
1167.644987	0.170768
1167.798046	0.186586
1167.951088	0.180856
1168.104111	0.171806
1168.257117	0.165592
1168.410103	0.163145
1168.563072	0.154662
1168.716023	0.150737
1168.868955	0.154207
1169.021869	0.145643
1169.174765	0.144693
1169.327642	0.161040
1169.480501	0.157422
1169.633343	0.158736
1169.786165	0.155780
1169.938970	0.169508
1170.091757	0.158949
1170.244525	0.181464
1170.397275	0.181592
1170.550007	0.170125
1170.702720	0.142877
1170.855415	0.138522
1171.008092	0.162039
1171.160751	0.191487
1171.313392	0.199301
1171.466014	0.029033
1171.618619	0.340231
1171.771205	0.340231
1171.923772	0.340231
