sample name	sample
index	1142
start time	 04-22-2021  03:06:59 PM


Wavelength (nm)	Absorbance
494.344910	NaN
494.563924	NaN
494.782919	NaN
495.001897	-0.394513
495.220856	NaN
495.439797	0.650269
495.658719	NaN
495.877624	-0.051141
496.096510	-0.264066
496.315378	-0.412479
496.534227	-0.473327
496.753059	-0.363060
496.971872	-0.191992
497.190667	0.051364
497.409444	0.064462
497.628203	0.067134
497.846943	0.067426
498.065665	0.070932
498.284369	0.071772
498.503055	0.069896
498.721723	0.068874
498.940372	0.068669
499.159003	0.069980
499.377616	0.069315
499.596210	0.068268
499.814787	0.069113
500.033345	0.068653
500.251885	0.068392
500.470406	0.068087
500.688910	0.067902
500.907395	0.068544
501.125862	0.067892
501.344311	0.068464
501.562742	0.068447
501.781154	0.068031
501.999548	0.067235
502.217924	0.066921
502.436282	0.067450
502.654621	0.068805
502.872942	0.067242
503.091245	0.066470
503.309530	0.066038
503.527797	0.065964
503.746045	0.065743
503.964275	0.065357
504.182487	0.065928
504.400681	0.065754
504.618856	0.064818
504.837013	0.064247
505.055152	0.064868
505.273273	0.066425
505.491376	0.066416
505.709460	0.066631
505.927526	0.066580
506.145574	0.065686
506.363604	0.066146
506.581615	0.066731
506.799608	0.067592
507.017583	0.067056
507.235540	0.066693
507.453478	0.067035
507.671399	0.066276
507.889301	0.066814
508.107185	0.066466
508.325050	0.066596
508.542898	0.064600
508.760727	0.064341
508.978538	0.064207
509.196330	0.062555
509.414105	0.061778
509.631861	0.062827
509.849599	0.063020
510.067319	0.063274
510.285021	0.063377
510.502704	0.065069
510.720369	0.065222
510.938016	0.065468
511.155645	0.066273
511.373255	0.065580
511.590848	0.064864
511.808422	0.064162
512.025977	0.064055
512.243515	0.063120
512.461034	0.063980
512.678536	0.063829
512.896018	0.064805
513.113483	0.064237
513.330930	0.065313
513.548358	0.065237
513.765768	0.065878
513.983160	0.065630
514.200533	0.065826
514.417889	0.064926
514.635226	0.065426
514.852545	0.064702
515.069845	0.065424
515.287128	0.065090
515.504392	0.065163
515.721638	0.065221
515.938866	0.065424
516.156075	0.065210
516.373267	0.064978
516.590440	0.064934
516.807594	0.065216
517.024731	0.064221
517.241850	0.064539
517.458950	0.064628
517.676032	0.063787
517.893095	0.063636
518.110141	0.064115
518.327168	0.064287
518.544177	0.063827
518.761168	0.062892
518.978141	0.063097
519.195095	0.063272
519.412031	0.063671
519.628949	0.064231
519.845849	0.064205
520.062731	0.063909
520.279594	0.063957
520.496439	0.064927
520.713266	0.065617
520.930074	0.065777
521.146865	0.065492
521.363637	0.065588
521.580391	0.065513
521.797127	0.065999
522.013844	0.065940
522.230543	0.065393
522.447224	0.064303
522.663887	0.063310
522.880532	0.063300
523.097158	0.062804
523.313766	0.061893
523.530356	0.061826
523.746928	0.061668
523.963481	0.061680
524.180017	0.062117
524.396534	0.062167
524.613032	0.062921
524.829513	0.063377
525.045975	0.063794
525.262420	0.063923
525.478845	0.064458
525.695253	0.064490
525.911643	0.064387
526.128014	0.064375
526.344367	0.063900
526.560702	0.063901
526.777018	0.063869
526.993316	0.063048
527.209597	0.063102
527.425858	0.062820
527.642102	0.062428
527.858328	0.062016
528.074535	0.062027
528.290724	0.063175
528.506894	0.062786
528.723047	0.062745
528.939181	0.063287
529.155297	0.063945
529.371395	0.063182
529.587475	0.063400
529.803536	0.063757
530.019579	0.063770
530.235604	0.062860
530.451611	0.063182
530.667600	0.062874
530.883570	0.062599
531.099522	0.061947
531.315456	0.061865
531.531372	0.061539
531.747269	0.061681
531.963148	0.061590
532.179009	0.062042
532.394852	0.061843
532.610676	0.061966
532.826482	0.062725
533.042271	0.062670
533.258040	0.063282
533.473792	0.063849
533.689525	0.063954
533.905240	0.063911
534.120937	0.063836
534.336616	0.063706
534.552277	0.063368
534.767919	0.062719
534.983543	0.062586
535.199149	0.062591
535.414736	0.062659
535.630306	0.062316
535.845857	0.062415
536.061390	0.062408
536.276904	0.062446
536.492401	0.062716
536.707879	0.062687
536.923339	0.062795
537.138781	0.062116
537.354204	0.061904
537.569610	0.061497
537.784997	0.061259
538.000366	0.061415
538.215716	0.061513
538.431049	0.061414
538.646363	0.061457
538.861659	0.062068
539.076937	0.062311
539.292196	0.062403
539.507438	0.062925
539.722661	0.063132
539.937866	0.062870
540.153052	0.062785
540.368221	0.062815
540.583371	0.063186
540.798503	0.063097
541.013617	0.063654
541.228712	0.063388
541.443789	0.063092
541.658848	0.062950
541.873889	0.063200
542.088912	0.063148
542.303916	0.063318
542.518902	0.063177
542.733870	0.062554
542.948820	0.062539
543.163752	0.062479
543.378665	0.062487
543.593560	0.062652
543.808437	0.062649
544.023295	0.062825
544.238136	0.062843
544.452958	0.062636
544.667762	0.062758
544.882548	0.062419
545.097315	0.062531
545.312064	0.062862
545.526795	0.062778
545.741508	0.063457
545.956203	0.063862
546.170879	0.064044
546.385537	0.064136
546.600177	0.064770
546.814799	0.064955
547.029402	0.065236
547.243988	0.065406
547.458555	0.065350
547.673103	0.064848
547.887634	0.064645
548.102146	0.064103
548.316640	0.064007
548.531116	0.063490
548.745574	0.063289
548.960013	0.063354
549.174435	0.062892
549.388838	0.063032
549.603222	0.062457
549.817589	0.062067
550.031937	0.062313
550.246267	0.062783
550.460579	0.062670
550.674873	0.062697
550.889148	0.062517
551.103405	0.062847
551.317644	0.062701
551.531865	0.062600
551.746068	0.062988
551.960252	0.062717
552.174418	0.062350
552.388566	0.062500
552.602696	0.062670
552.816807	0.062881
553.030900	0.062317
553.244975	0.062507
553.459032	0.062834
553.673070	0.063067
553.887091	0.063194
554.101093	0.063183
554.315077	0.063278
554.529042	0.062990
554.742990	0.062974
554.956919	0.063595
555.170830	0.063416
555.384722	0.063497
555.598597	0.063222
555.812453	0.063258
556.026291	0.063126
556.240111	0.063055
556.453913	0.063268
556.667696	0.063047
556.881461	0.062766
557.095208	0.062983
557.308937	0.063098
557.522647	0.062967
557.736339	0.063106
557.950013	0.062913
558.163669	0.062645
558.377307	0.062761
558.590926	0.062786
558.804527	0.062956
559.018110	0.062749
559.231675	0.062732
559.445221	0.063061
559.658749	0.063073
559.872259	0.063470
560.085751	0.063992
560.299225	0.063863
560.512680	0.063833
560.726117	0.063376
560.939536	0.063690
561.152937	0.063775
561.366319	0.063592
561.579683	0.063665
561.793029	0.063581
562.006357	0.063732
562.219667	0.063978
562.432958	0.063987
562.646231	0.064622
562.859486	0.064223
563.072723	0.064345
563.285941	0.064340
563.499141	0.064246
563.712323	0.064510
563.925487	0.064169
564.138632	0.063901
564.351760	0.063846
564.564869	0.063514
564.777960	0.063498
564.991032	0.063077
565.204087	0.062848
565.417123	0.063017
565.630141	0.062551
565.843140	0.062569
566.056122	0.062434
566.269085	0.062414
566.482030	0.062499
566.694957	0.062932
566.907866	0.062884
567.120756	0.063170
567.333628	0.062993
567.546482	0.063558
567.759318	0.063570
567.972135	0.063645
568.184935	0.063813
568.397716	0.064192
568.610478	0.063943
568.823223	0.063826
569.035949	0.063669
569.248657	0.063622
569.461347	0.063463
569.674019	0.063658
569.886672	0.063753
570.099308	0.063646
570.311925	0.063434
570.524523	0.063478
570.737104	0.063545
570.949666	0.063630
571.162210	0.063853
571.374736	0.063660
571.587244	0.063390
571.799733	0.063036
572.012205	0.063157
572.224658	0.062964
572.437092	0.062657
572.649509	0.062948
572.861907	0.062961
573.074287	0.062484
573.286649	0.062750
573.498993	0.062553
573.711318	0.062835
573.923625	0.062719
574.135914	0.062975
574.348185	0.063428
574.560438	0.063140
574.772672	0.063352
574.984888	0.063743
575.197086	0.063425
575.409266	0.063773
575.621427	0.063889
575.833570	0.063774
576.045695	0.063957
576.257802	0.063653
576.469890	0.063717
576.681961	0.063440
576.894013	0.063521
577.106046	0.063691
577.318062	0.063638
577.530059	0.063598
577.742039	0.063545
577.954000	0.062942
578.165942	0.063208
578.377867	0.063615
578.589773	0.063567
578.801661	0.063521
579.013531	0.063672
579.225382	0.063720
579.437216	0.063630
579.649031	0.063668
579.860828	0.063835
580.072606	0.063440
580.284367	0.062795
580.496109	0.062567
580.707833	0.062289
580.919539	0.062122
581.131227	0.062036
581.342896	0.062066
581.554547	0.062146
581.766180	0.062314
581.977795	0.062827
582.189391	0.063162
582.400969	0.063734
582.612529	0.063939
582.824071	0.063939
583.035595	0.063737
583.247100	0.063697
583.458587	0.063966
583.670056	0.063954
583.881506	0.063906
584.092939	0.063842
584.304353	0.063795
584.515749	0.063618
584.727127	0.063651
584.938486	0.063610
585.149828	0.064046
585.361151	0.064115
585.572456	0.063694
585.783742	0.063661
585.995011	0.063715
586.206261	0.063519
586.417493	0.063399
586.628706	0.063158
586.839902	0.063616
587.051079	0.063324
587.262238	0.063079
587.473379	0.063189
587.684502	0.062934
587.895606	0.063207
588.106692	0.063028
588.317760	0.063136
588.528810	0.063332
588.739841	0.063175
588.950855	0.062861
589.161850	0.062837
589.372827	0.062930
589.583785	0.062919
589.794726	0.062655
590.005648	0.062634
590.216552	0.062766
590.427437	0.062578
590.638305	0.062479
590.849154	0.062805
591.059985	0.062722
591.270798	0.062795
591.481592	0.062880
591.692369	0.062841
591.903127	0.063252
592.113867	0.063372
592.324588	0.063624
592.535292	0.063803
592.745977	0.063976
592.956644	0.064007
593.167293	0.064040
593.377923	0.064269
593.588536	0.064243
593.799130	0.064135
594.009706	0.064545
594.220263	0.064524
594.430803	0.064679
594.641324	0.064316
594.851827	0.064334
595.062312	0.064287
595.272778	0.064207
595.483227	0.064270
595.693657	0.064400
595.904069	0.063928
596.114462	0.063901
596.324838	0.063513
596.535195	0.063689
596.745534	0.063825
596.955855	0.064152
597.166157	0.064299
597.376441	0.064222
597.586707	0.063945
597.796955	0.064056
598.007185	0.064060
598.217396	0.064068
598.427589	0.064051
598.637764	0.063814
598.847921	0.063656
599.058060	0.063002
599.268180	0.063173
599.478282	0.062966
599.688366	0.062880
599.898431	0.062733
600.108479	0.062623
600.318508	0.062629
600.528519	0.062647
600.738511	0.062377
600.948486	0.062593
601.158442	0.062495
601.368380	0.062708
601.578300	0.062682
601.788202	0.062830
601.998085	0.063007
602.207950	0.063100
602.417797	0.063111
602.627626	0.063074
602.837436	0.063180
603.047228	0.063106
603.257002	0.063240
603.466758	0.063141
603.676496	0.063177
603.886215	0.063058
604.095916	0.062709
604.305599	0.062826
604.515264	0.062963
604.724910	0.062977
604.934538	0.063232
605.144148	0.063103
605.353740	0.063097
605.563314	0.063021
605.772869	0.063329
605.982406	0.063587
606.191925	0.063561
606.401425	0.063476
606.610908	0.063365
606.820372	0.062954
607.029818	0.062969
607.239246	0.063129
607.448655	0.062921
607.658047	0.062587
607.867420	0.062339
608.076775	0.062175
608.286111	0.062108
608.495430	0.062135
608.704730	0.062267
608.914012	0.062209
609.123275	0.062031
609.332521	0.062024
609.541748	0.062023
609.750957	0.061860
609.960148	0.061966
610.169321	0.062003
610.378475	0.061956
610.587611	0.061912
610.796729	0.061942
611.005829	0.062140
611.214910	0.062419
611.423974	0.062799
611.633019	0.063040
611.842045	0.062950
612.051054	0.063113
612.260044	0.063184
612.469017	0.063154
612.677970	0.063029
612.886906	0.062845
613.095824	0.062840
613.304723	0.062521
613.513604	0.062595
613.722467	0.062580
613.931311	0.062474
614.140138	0.062354
614.348946	0.062598
614.557736	0.062563
614.766507	0.062615
614.975261	0.062405
615.183996	0.062445
615.392713	0.062363
615.601412	0.062548
615.810092	0.062338
616.018754	0.062309
616.227399	0.061960
616.436024	0.061837
616.644632	0.061542
616.853222	0.061752
617.061793	0.061510
617.270346	0.061551
617.478880	0.061350
617.687397	0.061332
617.895895	0.061519
618.104375	0.061693
618.312837	0.061714
618.521281	0.061699
618.729706	0.061636
618.938113	0.061488
619.146502	0.061374
619.354873	0.061396
619.563226	0.061653
619.771560	0.061721
619.979876	0.061559
620.188174	0.061650
620.396453	0.061859
620.604715	0.061577
620.812958	0.061888
621.021183	0.061913
621.229390	0.061883
621.437578	0.061543
621.645748	0.061336
621.853900	0.061451
622.062034	0.061498
622.270150	0.061520
622.478247	0.061653
622.686326	0.061578
622.894387	0.061666
623.102430	0.061587
623.310454	0.061938
623.518461	0.062048
623.726449	0.062131
623.934418	0.062188
624.142370	0.062089
624.350303	0.061909
624.558218	0.061929
624.766115	0.061883
624.973994	0.061913
625.181855	0.062131
625.389697	0.061954
625.597521	0.061879
625.805327	0.061910
626.013114	0.062047
626.220883	0.062192
626.428634	0.062246
626.636367	0.062236
626.844082	0.062575
627.051778	0.062332
627.259457	0.062474
627.467117	0.062249
627.674758	0.062257
627.882382	0.061899
628.089987	0.062069
628.297574	0.061969
628.505143	0.062023
628.712694	0.061681
628.920226	0.061595
629.127740	0.061495
629.335236	0.061487
629.542714	0.061491
629.750174	0.061529
629.957615	0.061399
630.165038	0.061546
630.372443	0.061575
630.579829	0.061867
630.787198	0.061731
630.994548	0.061697
631.201880	0.061892
631.409194	0.061679
631.616489	0.061846
631.823766	0.061943
632.031025	0.061844
632.238266	0.061803
632.445489	0.061588
632.652693	0.061714
632.859879	0.062012
633.067047	0.062138
633.274197	0.062253
633.481329	0.062365
633.688442	0.062534
633.895537	0.062634
634.102614	0.062514
634.309672	0.062605
634.516713	0.062522
634.723735	0.062276
634.930739	0.062316
635.137724	0.062451
635.344692	0.062410
635.551641	0.062106
635.758572	0.062194
635.965485	0.062341
636.172379	0.062234
636.379256	0.062175
636.586114	0.062340
636.792954	0.062282
636.999775	0.062175
637.206579	0.062087
637.413364	0.062203
637.620131	0.062203
637.826880	0.062186
638.033610	0.062218
638.240323	0.062461
638.447017	0.062260
638.653692	0.062180
638.860350	0.062126
639.066990	0.062263
639.273611	0.062283
639.480214	0.062158
639.686798	0.062201
639.893365	0.062456
640.099913	0.062275
640.306443	0.062394
640.512955	0.062537
640.719449	0.062547
640.925924	0.062767
641.132381	0.062831
641.338820	0.063023
641.545241	0.062984
641.751644	0.063032
641.958028	0.063194
642.164394	0.063297
642.370742	0.063208
642.577071	0.063516
642.783383	0.063380
642.989676	0.063375
643.195951	0.063457
643.402207	0.063511
643.608446	0.063429
643.814666	0.063591
644.020868	0.063627
644.227052	0.063460
644.433218	0.063301
644.639365	0.063340
644.845494	0.063529
645.051605	0.063355
645.257698	0.063256
645.463772	0.063150
645.669828	0.062990
645.875866	0.062973
646.081886	0.063095
646.287888	0.063060
646.493871	0.062933
646.699836	0.062671
646.905783	0.062501
647.111712	0.062515
647.317622	0.062401
647.523514	0.062468
647.729388	0.062313
647.935244	0.062319
648.141082	0.062238
648.346901	0.062242
648.552702	0.062228
648.758485	0.062293
648.964250	0.062267
649.169996	0.062462
649.375724	0.062297
649.581434	0.062531
649.787126	0.062599
649.992800	0.062742
650.198455	0.062712
650.404092	0.062887
650.609711	0.062894
650.815311	0.062915
651.020894	0.062713
651.226458	0.062757
651.432004	0.062682
651.637532	0.062821
651.843041	0.062747
652.048532	0.062863
652.254006	0.062663
652.459460	0.062783
652.664897	0.062858
652.870315	0.063135
653.075716	0.063429
653.281097	0.063460
653.486461	0.063368
653.691807	0.063348
653.897134	0.063567
654.102443	0.063691
654.307734	0.063696
654.513006	0.063836
654.718261	0.063694
654.923497	0.063385
655.128715	0.063297
655.333915	0.063159
655.539096	0.063211
655.744259	0.063075
655.949404	0.063211
656.154531	0.063353
656.359640	0.063110
656.564730	0.063134
656.769802	0.063403
656.974856	0.063581
657.179892	0.063901
657.384909	0.064177
657.589908	0.064334
657.794889	0.064489
657.999852	0.064364
658.204797	0.064625
658.409723	0.064690
658.614631	0.064507
658.819521	0.064443
659.024393	0.064299
659.229246	0.064000
659.434081	0.063819
659.638898	0.063612
659.843697	0.063551
660.048478	0.063293
660.253240	0.063334
660.457984	0.063323
660.662710	0.063511
660.867417	0.063571
661.072107	0.063699
661.276778	0.063645
661.481431	0.063641
661.686066	0.063758
661.890682	0.064135
662.095281	0.064319
662.299861	0.064635
662.504422	0.064702
662.708966	0.064848
662.913491	0.064826
663.117999	0.064973
663.322488	0.064979
663.526958	0.065137
663.731411	0.065082
663.935845	0.064930
664.140261	0.064716
664.344659	0.064386
664.549038	0.064135
664.753400	0.064205
664.957743	0.064186
665.162068	0.064240
665.366375	0.064010
665.570663	0.063962
665.774933	0.063896
665.979185	0.063912
666.183419	0.064136
666.387635	0.064423
666.591832	0.064322
666.796011	0.064360
667.000172	0.064425
667.204315	0.064375
667.408439	0.064508
667.612545	0.064661
667.816634	0.064851
668.020703	0.064841
668.224755	0.064797
668.428788	0.065074
668.632803	0.065158
668.836800	0.065008
669.040779	0.065307
669.244739	0.065242
669.448681	0.065370
669.652605	0.065491
669.856511	0.065520
670.060399	0.065603
670.264268	0.065191
670.468119	0.064884
670.671952	0.065126
670.875767	0.065265
671.079563	0.065297
671.283341	0.065093
671.487101	0.064938
671.690843	0.065065
671.894567	0.065067
672.098272	0.065531
672.301959	0.066012
672.505628	0.065959
672.709278	0.065999
672.912911	0.066253
673.116525	0.066407
673.320121	0.066439
673.523699	0.066449
673.727258	0.066461
673.930799	0.066595
674.134322	0.066436
674.337827	0.066581
674.541314	0.066381
674.744782	0.066231
674.948232	0.066124
675.151664	0.066087
675.355078	0.065962
675.558474	0.065902
675.761851	0.065618
675.965210	0.065669
676.168551	0.065692
676.371873	0.065647
676.575178	0.065572
676.778464	0.065688
676.981732	0.065552
677.184981	0.065599
677.388213	0.065832
677.591426	0.065973
677.794621	0.065928
677.997798	0.065779
678.200956	0.065878
678.404097	0.065975
678.607219	0.066118
678.810323	0.066326
679.013408	0.066537
679.216476	0.066470
679.419525	0.066494
679.622556	0.066617
679.825569	0.066626
680.028563	0.066819
680.231540	0.066932
680.434498	0.067087
680.637438	0.067348
680.840359	0.067086
681.043263	0.067179
681.246148	0.067384
681.449015	0.067485
681.651864	0.067726
681.854694	0.067672
682.057506	0.067815
682.260301	0.067979
682.463076	0.067943
682.665834	0.068225
682.868573	0.068287
683.071295	0.068144
683.273998	0.068001
683.476682	0.068043
683.679349	0.068253
683.881997	0.068088
684.084627	0.067804
684.287239	0.067781
684.489833	0.067571
684.692408	0.067583
684.894965	0.067656
685.097504	0.067740
685.300025	0.067788
685.502527	0.067608
685.705012	0.067697
685.907478	0.067674
686.109925	0.067551
686.312355	0.067604
686.514766	0.067599
686.717159	0.067565
686.919534	0.067561
687.121891	0.067287
687.324230	0.067173
687.526550	0.067211
687.728852	0.066991
687.931136	0.066894
688.133401	0.066919
688.335649	0.066607
688.537878	0.066396
688.740089	0.066358
688.942281	0.066599
689.144456	0.066632
689.346612	0.066564
689.548750	0.066725
689.750870	0.066735
689.952971	0.066760
690.155055	0.066955
690.357120	0.067220
690.559167	0.067294
690.761195	0.067129
690.963206	0.067076
691.165198	0.066862
691.367172	0.066893
691.569128	0.066832
691.771065	0.066715
691.972984	0.066522
692.174885	0.066504
692.376768	0.066348
692.578633	0.066444
692.780479	0.066418
692.982308	0.066642
693.184118	0.066739
693.385909	0.066973
693.587683	0.067260
693.789438	0.067550
693.991175	0.067556
694.192894	0.067794
694.394595	0.067785
694.596277	0.067980
694.797941	0.067891
694.999587	0.067980
695.201215	0.068022
695.402824	0.068065
695.604416	0.067979
695.805989	0.067826
696.007543	0.067855
696.209080	0.067880
696.410598	0.067996
696.612099	0.067902
696.813580	0.067795
697.015044	0.067543
697.216490	0.067362
697.417917	0.067202
697.619326	0.067111
697.820717	0.067018
698.022089	0.067024
698.223444	0.066901
698.424780	0.066937
698.626098	0.066935
698.827397	0.066996
699.028679	0.066975
699.229942	0.067201
699.431187	0.067304
699.632414	0.067219
699.833622	0.067171
700.034813	0.067310
700.235985	0.067472
700.437139	0.067153
700.638274	0.067144
700.839392	0.067204
701.040491	0.067177
701.241572	0.067135
701.442635	0.067162
701.643679	0.067085
701.844706	0.066797
702.045714	0.066655
702.246704	0.066929
702.447675	0.067144
702.648629	0.067149
702.849564	0.067023
703.050481	0.067146
703.251380	0.067127
703.452260	0.067115
703.653122	0.067238
703.853966	0.067241
704.054792	0.067095
704.255600	0.067057
704.456389	0.067022
704.657160	0.067029
704.857913	0.066874
705.058648	0.066796
705.259365	0.066772
705.460063	0.066670
705.660743	0.066662
705.861405	0.066693
706.062048	0.066581
706.262674	0.066475
706.463281	0.066328
706.663870	0.066342
706.864441	0.066361
707.064993	0.066324
707.265527	0.066423
707.466043	0.066387
707.666541	0.066404
707.867021	0.066368
708.067482	0.066275
708.267925	0.066348
708.468350	0.066475
708.668757	0.066325
708.869145	0.066332
709.069516	0.066269
709.269868	0.066220
709.470201	0.066128
709.670517	0.066098
709.870814	0.066291
710.071093	0.066353
710.271354	0.066308
710.471597	0.066616
710.671821	0.066817
710.872028	0.066801
711.072216	0.066848
711.272385	0.066990
711.472537	0.066980
711.672670	0.066929
711.872785	0.067099
712.072882	0.067077
712.272961	0.066972
712.473021	0.066944
712.673063	0.066845
712.873087	0.066806
713.073093	0.066947
713.273081	0.066885
713.473050	0.066833
713.673001	0.066676
713.872934	0.066553
714.072849	0.066408
714.272745	0.066165
714.472623	0.066167
714.672483	0.066040
714.872325	0.065792
715.072148	0.065930
715.271954	0.066001
715.471741	0.065957
715.671509	0.066025
715.871260	0.066098
716.070992	0.066083
716.270707	0.066038
716.470403	0.066123
716.670080	0.066032
716.869740	0.065920
717.069381	0.065788
717.269004	0.065645
717.468609	0.065480
717.668195	0.065404
717.867764	0.065380
718.067314	0.065429
718.266846	0.065303
718.466360	0.065256
718.665855	0.065278
718.865332	0.065246
719.064791	0.065151
719.264232	0.065186
719.463655	0.065189
719.663059	0.065132
719.862445	0.064952
720.061813	0.065086
720.261163	0.065099
720.460494	0.064985
720.659807	0.064840
720.859102	0.064860
721.058379	0.064890
721.257638	0.064686
721.456878	0.064610
721.656100	0.064597
721.855304	0.064445
722.054490	0.064285
722.253657	0.064209
722.452806	0.064291
722.651937	0.064393
722.851050	0.064498
723.050145	0.064706
723.249221	0.064710
723.448279	0.065097
723.647319	0.065211
723.846340	0.065329
724.045344	0.065582
724.244329	0.065609
724.443296	0.065546
724.642245	0.065527
724.841175	0.065515
725.040088	0.065652
725.238982	0.065188
725.437857	0.065154
725.636715	0.065094
725.835554	0.064787
726.034376	0.064694
726.233179	0.064747
726.431963	0.064468
726.630730	0.064293
726.829478	0.064195
727.028208	0.064305
727.226920	0.064197
727.425614	0.064183
727.624289	0.064226
727.822946	0.064161
728.021585	0.064094
728.220206	0.064114
728.418808	0.064249
728.617392	0.064225
728.815958	0.064275
729.014506	0.064299
729.213036	0.064347
729.411547	0.064387
729.610040	0.064374
729.808515	0.064192
730.006972	0.064274
730.205410	0.064023
730.403831	0.063855
730.602233	0.063643
730.800616	0.063553
730.998982	0.063547
731.197329	0.063449
731.395658	0.063483
731.593969	0.063680
731.792262	0.063627
731.990536	0.063741
732.188793	0.064037
732.387031	0.064249
732.585250	0.064393
732.783452	0.064381
732.981635	0.064444
733.179800	0.064630
733.377947	0.064493
733.576076	0.064443
733.774186	0.064326
733.972278	0.064085
734.170352	0.063945
734.368408	0.063798
734.566446	0.063704
734.764465	0.063499
734.962466	0.063103
735.160449	0.062818
735.358413	0.062812
735.556360	0.062942
735.754288	0.063094
735.952198	0.062858
736.150090	0.062899
736.347963	0.062920
736.545818	0.063273
736.743655	0.063491
736.941474	0.063785
737.139275	0.063767
737.337057	0.063677
737.534821	0.063518
737.732567	0.063722
737.930295	0.063749
738.128005	0.063675
738.325696	0.063528
738.523369	0.063203
738.721024	0.063241
738.918660	0.063176
739.116279	0.063003
739.313879	0.063001
739.511461	0.062920
739.709024	0.062563
739.906570	0.062570
740.104097	0.062485
740.301606	0.062653
740.499097	0.062697
740.696569	0.063008
740.894024	0.063276
741.091460	0.063283
741.288878	0.063348
741.486277	0.063627
741.683659	0.063587
741.881022	0.063573
742.078367	0.063611
742.275694	0.063393
742.473002	0.063071
742.670293	0.062873
742.867565	0.062973
743.064819	0.062981
743.262054	0.062933
743.459272	0.063183
743.656471	0.063282
743.853652	0.063228
744.050815	0.063536
744.247959	0.063785
744.445085	0.063990
744.642194	0.063905
744.839283	0.063837
745.036355	0.063820
745.233408	0.063530
745.430444	0.063430
745.627461	0.063462
745.824459	0.063198
746.021440	0.062918
746.218402	0.062819
746.415346	0.062946
746.612272	0.063083
746.809180	0.063163
747.006069	0.063231
747.202940	0.063289
747.399793	0.063133
747.596628	0.063230
747.793444	0.063377
747.990243	0.063303
748.187023	0.062911
748.383784	0.062754
748.580528	0.062685
748.777253	0.062733
748.973960	0.062667
749.170649	0.062888
749.367320	0.062811
749.563973	0.062802
749.760607	0.062918
749.957223	0.063051
750.153821	0.063089
750.350400	0.063065
750.546962	0.062981
750.743505	0.062948
750.940030	0.062800
751.136536	0.062721
751.333025	0.062493
751.529495	0.062190
751.725947	0.062259
751.922381	0.062036
752.118796	0.061971
752.315194	0.061955
752.511573	0.061906
752.707934	0.062056
752.904276	0.062002
753.100601	0.062161
753.296907	0.062345
753.493195	0.062284
753.689465	0.062586
753.885716	0.062572
754.081949	0.062470
754.278164	0.062528
754.474361	0.062179
754.670540	0.062177
754.866700	0.062131
755.062843	0.062088
755.258967	0.062153
755.455072	0.061989
755.651160	0.062045
755.847229	0.062189
756.043280	0.062161
756.239313	0.062367
756.435328	0.062497
756.631324	0.062566
756.827302	0.062680
757.023262	0.062803
757.219204	0.062864
757.415127	0.062930
757.611033	0.063113
757.806920	0.063233
758.002788	0.063156
758.198639	0.063362
758.394471	0.063289
758.590286	0.063187
758.786081	0.063135
758.981859	0.063050
759.177619	0.063115
759.373360	0.062875
759.569083	0.062651
759.764788	0.062592
759.960474	0.062209
760.156143	0.062054
760.351793	0.062044
760.547425	0.061895
760.743038	0.061783
760.938634	0.061543
761.134211	0.061600
761.329770	0.061630
761.525311	0.061689
761.720833	0.061750
761.916338	0.061744
762.111824	0.061679
762.307292	0.061623
762.502741	0.061754
762.698173	0.061795
762.893586	0.061624
763.088981	0.061585
763.284358	0.061525
763.479716	0.061415
763.675057	0.061404
763.870379	0.061309
764.065683	0.061073
764.260968	0.061075
764.456236	0.060989
764.651485	0.060954
764.846716	0.061136
765.041929	0.061100
765.237123	0.061039
765.432299	0.061076
765.627457	0.061131
765.822597	0.061420
766.017719	0.061408
766.212822	0.061447
766.407907	0.061534
766.602974	0.061438
766.798023	0.061411
766.993054	0.061376
767.188066	0.061345
767.383060	0.061205
767.578036	0.061049
767.772993	0.060942
767.967933	0.061015
768.162854	0.060883
768.357757	0.060552
768.552642	0.060562
768.747508	0.060763
768.942356	0.060592
769.137186	0.060639
769.331998	0.060633
769.526792	0.060667
769.721567	0.060495
769.916324	0.060278
770.111063	0.060221
770.305784	0.060190
770.500486	0.059897
770.695171	0.059819
770.889837	0.059845
771.084484	0.059915
771.279114	0.059814
771.473725	0.059738
771.668318	0.059876
771.862893	0.059901
772.057450	0.059841
772.251988	0.059770
772.446509	0.059814
772.641011	0.059766
772.835494	0.059574
773.029960	0.059452
773.224407	0.059337
773.418836	0.059293
773.613247	0.059235
773.807640	0.059266
774.002014	0.059324
774.196370	0.059389
774.390708	0.059503
774.585028	0.059504
774.779330	0.059444
774.973613	0.059666
775.167878	0.059658
775.362125	0.059710
775.556354	0.059723
775.750564	0.059839
775.944756	0.059851
776.138930	0.059736
776.333086	0.059812
776.527223	0.059923
776.721343	0.059632
776.915444	0.059673
777.109526	0.059804
777.303591	0.059940
777.497637	0.059976
777.691666	0.060050
777.885676	0.060117
778.079667	0.060070
778.273641	0.060149
778.467596	0.060419
778.661533	0.060604
778.855452	0.060796
779.049352	0.060832
779.243235	0.060914
779.437099	0.060964
779.630945	0.060937
779.824773	0.061206
780.018582	0.061101
780.212373	0.061112
780.406146	0.060995
780.599901	0.060893
780.793638	0.060849
780.987356	0.060941
781.181056	0.060943
781.374738	0.061034
781.568402	0.060840
781.762047	0.060914
781.955674	0.060923
782.149283	0.060844
782.342874	0.060964
782.536447	0.060846
782.730001	0.060741
782.923537	0.060684
783.117055	0.060642
783.310555	0.060736
783.504036	0.060760
783.697499	0.060787
783.890944	0.060872
784.084371	0.060905
784.277780	0.061014
784.471170	0.061232
784.664542	0.061350
784.857896	0.061055
785.051231	0.060863
785.244549	0.060806
785.437848	0.060786
785.631129	0.060942
785.824392	0.060710
786.017636	0.060722
786.210863	0.060308
786.404071	0.060248
786.597260	0.060530
786.790432	0.060757
786.983585	0.061124
787.176721	0.061122
787.369838	0.061043
787.562936	0.061123
787.756017	0.061270
787.949079	0.061617
788.142123	0.061717
788.335149	0.061805
788.528156	0.061770
788.721146	0.061671
788.914117	0.061803
789.107070	0.062048
789.300005	0.062137
789.492921	0.061998
789.685819	0.061852
789.878699	0.061747
790.071561	0.061696
790.264405	0.061663
790.457230	0.061592
790.650037	0.061503
790.842826	0.061199
791.035597	0.061195
791.228349	0.061261
791.421084	0.061278
791.613800	0.061289
791.806497	0.061435
791.999177	0.061570
792.191838	0.061549
792.384481	0.061647
792.577106	0.061720
792.769713	0.061734
792.962301	0.061717
793.154871	0.061695
793.347423	0.061744
793.539957	0.061829
793.732473	0.061808
793.924970	0.061889
794.117449	0.061778
794.309910	0.061969
794.502353	0.061982
794.694777	0.061935
794.887183	0.062105
795.079571	0.062237
795.271941	0.061999
795.464293	0.062083
795.656626	0.062138
795.848941	0.062301
796.041238	0.062269
796.233516	0.062231
796.425777	0.062471
796.618019	0.062573
796.810243	0.062529
797.002449	0.062614
797.194636	0.062519
797.386805	0.062408
797.578956	0.062379
797.771089	0.062286
797.963204	0.062520
798.155300	0.062393
798.347378	0.062283
798.539438	0.062409
798.731480	0.062363
798.923503	0.062359
799.115509	0.062327
799.307496	0.062255
799.499465	0.062239
799.691415	0.061792
799.883348	0.061866
800.075262	0.061729
800.267158	0.061736
800.459035	0.061735
800.650895	0.061931
800.842736	0.062050
801.034559	0.062151
801.226364	0.062138
801.418150	0.062480
801.609919	0.062371
801.801669	0.062576
801.993401	0.062632
802.185114	0.062672
802.376810	0.062473
802.568487	0.062348
802.760146	0.062518
802.951787	0.062689
803.143409	0.062731
803.335014	0.063044
803.526600	0.063179
803.718168	0.063415
803.909717	0.063715
804.101249	0.063959
804.292762	0.064049
804.484257	0.064190
804.675734	0.064217
804.867192	0.064228
805.058632	0.064304
805.250054	0.064148
805.441458	0.063923
805.632844	0.064064
805.824211	0.064100
806.015561	0.064454
806.206891	0.064221
806.398204	0.064388
806.589499	0.064625
806.780775	0.064767
806.972033	0.064913
807.163273	0.065267
807.354495	0.065147
807.545698	0.065267
807.736883	0.065325
807.928050	0.065403
808.119199	0.065441
808.310329	0.065533
808.501441	0.065224
808.692535	0.065223
808.883611	0.064991
809.074669	0.065235
809.265708	0.065165
809.456729	0.065035
809.647732	0.065244
809.838717	0.065154
810.029683	0.065069
810.220632	0.065221
810.411562	0.065454
810.602474	0.065611
810.793367	0.065382
810.984242	0.065680
811.175100	0.065850
811.365938	0.065907
811.556759	0.066131
811.747562	0.066268
811.938346	0.066521
812.129112	0.066536
812.319860	0.066428
812.510589	0.066493
812.701300	0.066492
812.891994	0.066376
813.082668	0.066459
813.273325	0.066560
813.463964	0.066737
813.654584	0.066584
813.845186	0.066670
814.035769	0.066689
814.226335	0.066784
814.416882	0.066576
814.607411	0.066531
814.797922	0.066411
814.988415	0.066366
815.178889	0.066216
815.369345	0.066271
815.559783	0.066157
815.750203	0.066182
815.940605	0.066167
816.130988	0.066363
816.321353	0.066716
816.511700	0.066900
816.702028	0.066858
816.892339	0.066767
817.082631	0.066790
817.272905	0.066904
817.463161	0.066923
817.653398	0.067062
817.843617	0.067097
818.033819	0.066971
818.224001	0.066922
818.414166	0.066813
818.604312	0.067112
818.794440	0.067237
818.984550	0.067325
819.174642	0.067512
819.364716	0.067267
819.554771	0.066919
819.744808	0.067101
819.934827	0.067236
820.124827	0.067438
820.314810	0.067349
820.504774	0.067405
820.694720	0.067563
820.884647	0.067661
821.074557	0.067893
821.264448	0.068181
821.454321	0.068103
821.644176	0.068211
821.834012	0.068272
822.023831	0.068368
822.213631	0.068323
822.403413	0.068404
822.593176	0.068383
822.782922	0.068514
822.972649	0.068669
823.162358	0.068946
823.352049	0.068948
823.541721	0.069130
823.731376	0.069065
823.921012	0.069064
824.110629	0.069172
824.300229	0.069373
824.489811	0.069445
824.679374	0.069626
824.868919	0.069449
825.058445	0.069508
825.247954	0.069758
825.437444	0.069968
825.626916	0.070144
825.816370	0.070064
826.005806	0.070246
826.195223	0.070466
826.384622	0.070334
826.574003	0.070576
826.763366	0.070467
826.952711	0.070299
827.142037	0.070479
827.331345	0.070503
827.520635	0.070468
827.709906	0.070299
827.899160	0.070342
828.088395	0.070525
828.277612	0.070631
828.466810	0.070874
828.655991	0.070989
828.845153	0.071064
829.034297	0.070992
829.223423	0.071022
829.412531	0.071174
829.601620	0.070904
829.790691	0.070897
829.979744	0.070466
830.168779	0.070451
830.357795	0.070643
830.546793	0.070691
830.735773	0.070834
830.924735	0.070998
831.113679	0.071122
831.302604	0.071147
831.491511	0.071595
831.680400	0.071947
831.869271	0.072130
832.058123	0.072057
832.246957	0.071887
832.435773	0.072007
832.624571	0.072102
832.813351	0.071931
833.002112	0.072288
833.190855	0.072315
833.379580	0.072285
833.568287	0.072361
833.756975	0.072444
833.945645	0.072606
834.134297	0.072641
834.322931	0.072577
834.511547	0.072759
834.700144	0.072748
834.888723	0.072678
835.077284	0.073188
835.265826	0.073087
835.454351	0.073045
835.642857	0.073228
835.831345	0.073405
836.019815	0.073543
836.208266	0.073539
836.396699	0.073628
836.585114	0.073611
836.773511	0.073288
836.961890	0.073287
837.150250	0.073392
837.338592	0.073369
837.526916	0.073382
837.715222	0.073462
837.903510	0.073612
838.091779	0.073838
838.280030	0.073908
838.468263	0.074127
838.656477	0.074537
838.844674	0.074381
839.032852	0.074310
839.221012	0.074528
839.409153	0.074765
839.597277	0.075081
839.785382	0.075240
839.973469	0.075460
840.161538	0.075650
840.349589	0.075674
840.537621	0.076114
840.725635	0.076749
840.913631	0.077050
841.101609	0.077149
841.289568	0.077095
841.477509	0.077150
841.665432	0.077092
841.853337	0.077114
842.041224	0.077148
842.229092	0.077058
842.416942	0.076761
842.604774	0.076498
842.792588	0.076474
842.980383	0.076444
843.168160	0.076453
843.355919	0.076416
843.543660	0.076699
843.731382	0.076727
843.919087	0.077060
844.106773	0.077246
844.294441	0.077544
844.482090	0.077590
844.669722	0.077644
844.857335	0.077896
845.044930	0.078075
845.232507	0.077813
845.420065	0.077859
845.607605	0.077757
845.795127	0.077785
845.982631	0.077467
846.170117	0.077466
846.357584	0.077361
846.545033	0.077452
846.732464	0.077745
846.919877	0.077889
847.107272	0.078149
847.294648	0.078186
847.482006	0.078138
847.669346	0.078480
847.856667	0.078524
848.043971	0.078937
848.231256	0.078886
848.418523	0.078874
848.605771	0.079305
848.793002	0.079377
848.980214	0.079414
849.167408	0.079535
849.354584	0.079715
849.541742	0.079936
849.728881	0.080133
849.916002	0.080399
850.103105	0.080403
850.290190	0.080224
850.477256	0.080368
850.664304	0.080792
850.851334	0.080826
851.038346	0.081006
851.225340	0.081389
851.412315	0.081488
851.599272	0.081272
851.786211	0.081295
851.973132	0.081403
852.160034	0.081594
852.346918	0.081840
852.533784	0.082040
852.720632	0.082008
852.907462	0.081707
853.094273	0.081593
853.281066	0.081893
853.467841	0.081912
853.654598	0.082214
853.841336	0.081945
854.028056	0.081824
854.214758	0.082206
854.401442	0.082279
854.588107	0.082519
854.774755	0.082908
854.961384	0.082975
855.147995	0.083402
855.334587	0.083400
855.521162	0.083701
855.707718	0.083707
855.894256	0.083759
856.080775	0.084009
856.267277	0.084144
856.453760	0.083807
856.640225	0.083766
856.826672	0.083957
857.013101	0.084115
857.199511	0.084284
857.385903	0.084595
857.572277	0.084810
857.758633	0.084861
857.944970	0.084958
858.131290	0.085184
858.317591	0.085486
858.503873	0.085508
858.690138	0.085803
858.876384	0.085906
859.062612	0.086108
859.248822	0.086092
859.435014	0.086400
859.621188	0.086515
859.807343	0.086949
859.993480	0.086950
860.179599	0.086918
860.365699	0.086823
860.551781	0.087113
860.737846	0.086985
860.923891	0.086802
861.109919	0.086588
861.295929	0.086709
861.481920	0.086670
861.667893	0.086575
861.853848	0.086670
862.039784	0.086590
862.225702	0.086428
862.411603	0.086501
862.597484	0.086652
862.783348	0.086999
862.969193	0.086866
863.155021	0.086787
863.340830	0.087280
863.526620	0.087092
863.712393	0.087041
863.898147	0.087084
864.083883	0.087039
864.269601	0.087035
864.455301	0.087055
864.640982	0.087290
864.826645	0.087239
865.012290	0.086951
865.197917	0.087073
865.383526	0.087294
865.569116	0.087411
865.754688	0.087759
865.940242	0.087988
866.125777	0.087735
866.311295	0.087926
866.496794	0.088198
866.682275	0.088333
866.867737	0.088653
867.053182	0.088782
867.238608	0.089167
867.424016	0.089242
867.609406	0.089580
867.794778	0.089612
867.980131	0.089695
868.165466	0.090133
868.350783	0.090249
868.536082	0.090266
868.721362	0.090467
868.906625	0.090047
869.091869	0.090086
869.277094	0.089747
869.462302	0.090063
869.647491	0.089881
869.832662	0.089695
870.017815	0.089557
870.202950	0.089630
870.388066	0.089730
870.573165	0.089848
870.758245	0.089927
870.943306	0.090157
871.128350	0.090148
871.313375	0.090415
871.498382	0.090244
871.683371	0.090531
871.868342	0.090753
872.053294	0.090744
872.238229	0.090817
872.423144	0.090747
872.608042	0.090519
872.792922	0.090524
872.977783	0.090378
873.162626	0.090921
873.347451	0.091016
873.532258	0.090858
873.717046	0.090767
873.901816	0.091087
874.086568	0.091129
874.271302	0.091641
874.456017	0.091718
874.640715	0.091938
874.825394	0.091727
875.010055	0.091775
875.194697	0.091912
875.379322	0.092114
875.563928	0.092210
875.748516	0.092198
875.933085	0.092153
876.117637	0.092458
876.302170	0.092278
876.486685	0.092388
876.671182	0.092492
876.855661	0.092852
877.040121	0.093096
877.224563	0.093268
877.408987	0.093277
877.593393	0.093317
877.777780	0.093280
877.962150	0.093717
878.146501	0.094077
878.330833	0.094102
878.515148	0.093857
878.699444	0.093780
878.883722	0.093538
879.067982	0.093693
879.252224	0.093782
879.436447	0.093691
879.620653	0.093661
879.804840	0.093749
879.989008	0.093813
880.173159	0.093888
880.357291	0.093742
880.541405	0.093916
880.725501	0.093848
880.909579	0.093883
881.093638	0.094083
881.277680	0.094112
881.461703	0.093705
881.645707	0.093854
881.829694	0.093937
882.013662	0.094312
882.197612	0.094294
882.381544	0.094627
882.565458	0.094722
882.749353	0.094921
882.933230	0.094915
883.117089	0.095091
883.300930	0.095610
883.484753	0.095640
883.668557	0.095404
883.852343	0.095697
884.036111	0.095630
884.219861	0.095621
884.403592	0.095404
884.587305	0.095607
884.771000	0.095563
884.954677	0.095215
885.138335	0.095399
885.321976	0.095779
885.505598	0.095661
885.689201	0.095688
885.872787	0.095666
886.056354	0.096109
886.239904	0.096198
886.423434	0.096056
886.606947	0.095953
886.790442	0.095790
886.973918	0.095488
887.157376	0.095176
887.340816	0.095239
887.524237	0.095328
887.707641	0.094698
887.891026	0.094762
888.074393	0.095051
888.257741	0.095055
888.441072	0.095149
888.624384	0.095363
888.807678	0.095719
888.990954	0.095789
889.174211	0.095932
889.357451	0.096469
889.540672	0.096671
889.723875	0.096341
889.907059	0.096198
890.090226	0.096034
890.273374	0.095820
890.456504	0.095765
890.639616	0.095713
890.822709	0.095780
891.005785	0.095696
891.188842	0.095287
891.371881	0.095670
891.554901	0.095732
891.737904	0.095739
891.920888	0.095625
892.103854	0.095527
892.286802	0.095404
892.469731	0.095002
892.652643	0.094903
892.835536	0.094943
893.018410	0.094657
893.201267	0.094361
893.384106	0.094239
893.566926	0.094567
893.749728	0.094516
893.932511	0.094605
894.115277	0.094831
894.298024	0.094916
894.480753	0.094920
894.663464	0.095293
894.846157	0.095851
895.028831	0.096138
895.211487	0.096085
895.394125	0.096150
895.576745	0.096276
895.759346	0.096278
895.941930	0.096285
896.124495	0.096027
896.307041	0.095787
896.489570	0.096062
896.672080	0.096221
896.854573	0.096460
897.037046	0.096782
897.219502	0.096477
897.401940	0.096447
897.584359	0.096236
897.766760	0.096808
897.949143	0.097129
898.131507	0.096586
898.313854	0.096400
898.496182	0.095910
898.678492	0.095781
898.860783	0.095935
899.043057	0.095670
899.225312	0.095715
899.407549	0.094900
899.589768	0.094458
899.771968	0.094269
899.954151	0.094199
900.136315	0.094401
900.318461	0.094269
900.500588	0.094149
900.682698	0.094475
900.864789	0.094563
901.046862	0.094852
901.228917	0.094870
901.410953	0.094893
901.592971	0.094901
901.774972	0.094595
901.956953	0.094447
902.138917	0.094750
902.320862	0.094239
902.502790	0.094031
902.684699	0.093828
902.866589	0.093757
903.048462	0.094022
903.230316	0.094265
903.412152	0.094715
903.593970	0.094392
903.775770	0.094445
903.957551	0.094807
904.139314	0.094939
904.321059	0.095216
904.502786	0.095402
904.684494	0.095218
904.866185	0.094794
905.047857	0.094380
905.229510	0.094675
905.411146	0.094070
905.592763	0.093918
905.774363	0.093758
905.955943	0.093841
906.137506	0.093715
906.319051	0.093630
906.500577	0.094078
906.682085	0.093788
906.863575	0.093919
907.045046	0.094070
907.226500	0.094067
907.407935	0.094041
907.589352	0.093970
907.770750	0.093732
907.952131	0.093636
908.133493	0.093013
908.314837	0.092860
908.496163	0.092545
908.677470	0.092205
908.858760	0.092020
909.040031	0.091794
909.221284	0.091553
909.402518	0.091531
909.583735	0.091355
909.764933	0.091499
909.946113	0.092123
910.127275	0.091802
910.308418	0.092153
910.489544	0.091845
910.670651	0.091483
910.851740	0.091395
911.032810	0.091245
911.213863	0.090743
911.394897	0.090410
911.575913	0.089856
911.756911	0.089469
911.937890	0.089110
912.118851	0.089055
912.299794	0.089004
912.480719	0.088652
912.661626	0.088459
912.842514	0.088538
913.023384	0.088357
913.204236	0.088251
913.385070	0.088819
913.565886	0.088437
913.746683	0.088487
913.927462	0.088653
914.108223	0.088724
914.288965	0.088517
914.469690	0.088591
914.650396	0.088628
914.831084	0.088593
915.011754	0.087858
915.192405	0.087343
915.373038	0.086949
915.553653	0.086721
915.734250	0.086367
915.914829	0.086255
916.095389	0.085851
916.275931	0.085875
916.456455	0.085504
916.636961	0.085795
916.817448	0.086691
916.997917	0.086925
917.178368	0.086712
917.358801	0.086386
917.539216	0.086304
917.719612	0.086444
917.899990	0.086161
918.080350	0.086254
918.260692	0.085873
918.441015	0.085447
918.621320	0.084905
918.801607	0.085164
918.981876	0.085362
919.162127	0.085040
919.342359	0.084937
919.522573	0.084948
919.702769	0.085226
919.882947	0.085423
920.063106	0.085354
920.243247	0.085508
920.423370	0.085187
920.603475	0.085029
920.783562	0.085509
920.963630	0.085069
921.143680	0.084568
921.323712	0.083892
921.503725	0.083687
921.683721	0.083253
921.863698	0.083086
922.043657	0.082940
922.223598	0.082589
922.403520	0.081917
922.583424	0.082395
922.763311	0.082516
922.943178	0.082269
923.123028	0.081762
923.302859	0.081708
923.482673	0.081526
923.662467	0.081070
923.842244	0.081004
924.022003	0.080752
924.201743	0.080369
924.381465	0.079853
924.561169	0.080158
924.740854	0.079899
924.920522	0.080087
925.100171	0.079969
925.279802	0.080203
925.459414	0.080686
925.639009	0.080528
925.818585	0.080640
925.998143	0.080621
926.177683	0.080122
926.357205	0.080736
926.536708	0.080512
926.716193	0.080695
926.895660	0.080415
927.075109	0.079471
927.254539	0.078898
927.433951	0.078569
927.613345	0.078663
927.792721	0.078412
927.972079	0.077607
928.151418	0.077007
928.330739	0.076604
928.510042	0.076471
928.689327	0.076105
928.868593	0.076090
929.047841	0.075406
929.227071	0.074864
929.406283	0.074803
929.585476	0.074647
929.764652	0.073954
929.943809	0.073176
930.122948	0.072464
930.302068	0.073103
930.481171	0.072847
930.660255	0.072748
930.839321	0.072455
931.018369	0.072033
931.197398	0.071816
931.376409	0.071845
931.555402	0.070954
931.734377	0.070921
931.913334	0.069890
932.092272	0.070350
932.271192	0.069728
932.450094	0.069903
932.628978	0.069375
932.807844	0.069094
932.986691	0.069671
933.165520	0.070344
933.344331	0.069692
933.523123	0.069021
933.701898	0.068255
933.880654	0.068285
934.059392	0.067386
934.238111	0.067609
934.416813	0.066405
934.595496	0.065855
934.774161	0.065219
934.952808	0.065309
935.131437	0.065133
935.310047	0.064960
935.488639	0.064746
935.667213	0.064980
935.845769	0.064659
936.024306	0.065456
936.202825	0.065013
936.381326	0.065109
936.559809	0.064947
936.738274	0.065629
936.916720	0.065056
937.095148	0.064315
937.273558	0.064115
937.451950	0.063745
937.630323	0.062930
937.808678	0.062810
937.987015	0.062444
938.165334	0.062485
938.343635	0.061265
938.521917	0.061577
938.700181	0.061777
938.878427	0.061208
939.056655	0.061167
939.234864	0.061965
939.413055	0.061406
939.591228	0.060600
939.769383	0.060222
939.947519	0.061298
940.125638	0.060685
940.303738	0.061108
940.481820	0.059765
940.659883	0.058874
940.837929	0.057465
941.015956	0.057005
941.193965	0.057612
941.371955	0.056664
941.549928	0.055175
941.727882	0.054548
941.905818	0.054387
942.083736	0.054487
942.261636	0.054114
942.439517	0.054239
942.617380	0.053692
942.795225	0.052906
942.973052	0.052538
943.150860	0.051911
943.328651	0.052918
943.506423	0.052415
943.684176	0.053290
943.861912	0.053885
944.039629	0.053294
944.217328	0.054135
944.395009	0.054048
944.572672	0.054337
944.750317	0.054492
944.927943	0.053880
945.105551	0.053574
945.283141	0.053112
945.460712	0.052818
945.638265	0.052699
945.815801	0.051585
945.993317	0.051526
946.170816	0.050660
946.348297	0.051584
946.525759	0.050481
946.703203	0.050578
946.880629	0.049801
947.058036	0.049381
947.235425	0.050359
947.412797	0.049757
947.590149	0.050579
947.767484	0.050561
947.944800	0.049541
948.122099	0.049647
948.299379	0.048228
948.476640	0.048326
948.653884	0.047573
948.831109	0.047438
949.008316	0.047711
949.185505	0.047197
949.362676	0.048355
949.539828	0.048327
949.716962	0.049524
949.894078	0.050416
950.071176	0.050315
950.248256	0.051217
950.425317	0.049919
950.602360	0.049719
950.779385	0.050116
950.956391	0.049414
951.133380	0.049175
951.310350	0.048235
951.487302	0.048551
951.664235	0.048645
951.841151	0.048782
952.018048	0.049377
952.194927	0.050745
952.371788	0.049059
952.548631	0.048976
952.725455	0.048248
952.902261	0.047993
953.079049	0.046666
953.255819	0.046252
953.432570	0.044346
953.609303	0.042459
953.786018	0.042654
953.962715	0.042958
954.139394	0.041667
954.316054	0.044396
954.492696	0.045950
954.669320	0.047685
954.845926	0.048350
955.022513	0.049899
955.199083	0.051383
955.375634	0.050220
955.552166	0.049613
955.728681	0.052436
955.905177	0.051502
956.081655	0.050934
956.258115	0.049080
956.434557	0.049681
956.610980	0.049035
956.787385	0.049704
956.963772	0.051180
957.140141	0.051233
957.316492	0.049593
957.492824	0.049846
957.669138	0.050777
957.845434	0.050544
958.021712	0.049704
958.197971	0.052207
958.374212	0.052844
958.550435	0.051733
958.726640	0.052901
958.902826	0.053143
959.078995	0.053947
959.255145	0.051654
959.431277	0.053939
959.607390	0.054314
959.783486	0.054247
959.959563	0.053240
960.135622	0.053040
960.311662	0.052795
960.487685	0.056254
960.663689	0.054979
960.839675	0.055811
961.015643	0.054389
961.191593	0.055755
961.367524	0.053196
961.543437	0.054580
961.719332	0.056447
961.895209	0.056714
962.071067	0.053560
962.246907	0.054358
962.422730	0.054225
962.598533	0.055420
962.774319	0.055074
962.950086	0.055961
963.125835	0.055509
963.301566	0.052808
963.477279	0.054387
963.652973	0.056586
963.828650	0.057621
964.004308	0.056972
964.179947	0.057317
964.355569	0.055525
964.531172	0.055278
964.706757	0.056494
964.882324	0.057827
965.057873	0.058095
965.233403	0.056120
965.408916	0.055304
965.584410	0.057393
965.759885	0.055837
965.935343	0.057533
966.110782	0.058715
966.286203	0.056644
966.461606	0.056119
966.636991	0.055993
966.812357	0.055535
966.987705	0.055747
967.163035	0.055162
967.338347	0.056613
967.513641	0.058526
967.688916	0.059599
967.864173	0.060219
968.039412	0.059961
968.214632	0.059384
968.389835	0.059282
968.565019	0.059764
968.740185	0.060235
968.915333	0.060131
969.090462	0.058849
969.265573	0.057105
969.440667	0.056980
969.615741	0.057678
969.790798	0.057900
969.965836	0.059785
970.140856	0.058333
970.315858	0.060885
970.490842	0.061504
970.665808	0.060079
970.840755	0.061387
971.015684	0.063730
971.190595	0.065111
971.365487	0.065286
971.540362	0.063856
971.715218	0.065471
971.890056	0.062102
972.064875	0.061218
972.239677	0.062502
972.414460	0.061448
972.589225	0.059905
972.763972	0.058478
972.938700	0.059431
973.113411	0.061105
973.288103	0.060811
973.462777	0.062532
973.637432	0.062199
973.812070	0.062075
973.986689	0.061191
974.161290	0.061763
974.335873	0.063233
974.510437	0.061985
974.684984	0.059264
974.859512	0.056896
975.034022	0.057759
975.208513	0.057676
975.382987	0.057990
975.557442	0.058442
975.731879	0.056653
975.906298	0.057834
976.080698	0.057325
976.255080	0.058990
976.429445	0.059766
976.603790	0.057223
976.778118	0.060250
976.952427	0.059908
977.126719	0.060281
977.300992	0.060243
977.475246	0.057734
977.649483	0.059052
977.823701	0.060237
977.997901	0.062036
978.172083	0.063703
978.346247	0.061726
978.520392	0.060668
978.694519	0.059195
978.868628	0.061844
979.042719	0.062774
979.216791	0.062108
979.390845	0.061143
979.564882	0.058979
979.738899	0.058458
979.912899	0.056921
980.086880	0.058933
980.260843	0.058556
980.434788	0.057328
980.608715	0.057504
980.782623	0.056626
980.956514	0.055220
981.130386	0.056471
981.304240	0.054436
981.478075	0.055655
981.651892	0.052657
981.825692	0.056019
981.999472	0.057556
982.173235	0.056468
982.346980	0.056168
982.520706	0.058147
982.694414	0.057835
982.868104	0.058413
983.041775	0.056818
983.215428	0.057812
983.389064	0.054980
983.562680	0.054123
983.736279	0.054476
983.909860	0.055643
984.083422	0.055642
984.256966	0.054989
984.430491	0.057147
984.603999	0.058480
984.777488	0.059892
984.950959	0.061118
985.124412	0.060554
985.297847	0.061489
985.471263	0.064065
985.644661	0.064251
985.818041	0.063634
985.991403	0.062158
986.164747	0.062575
986.338072	0.062737
986.511379	0.062542
986.684668	0.063629
986.857938	0.062693
987.031191	0.059696
987.204425	0.059436
987.377641	0.061303
987.550839	0.062203
987.724018	0.062408
987.897179	0.061622
988.070322	0.062881
988.243447	0.060017
988.416554	0.060881
988.589642	0.062792
988.762712	0.062965
988.935764	0.065261
989.108798	0.064392
989.281813	0.066104
989.454811	0.067969
989.627790	0.066106
989.800751	0.066840
989.973693	0.065252
990.146617	0.061801
990.319524	0.061053
990.492412	0.058444
990.665281	0.058439
990.838133	0.056267
991.010966	0.055988
991.183781	0.057091
991.356578	0.057183
991.529356	0.059138
991.702117	0.060384
991.874859	0.060292
992.047583	0.061083
992.220288	0.062868
992.392976	0.063894
992.565645	0.063199
992.738296	0.062844
992.910929	0.061913
993.083543	0.059198
993.256139	0.059781
993.428718	0.060613
993.601277	0.060362
993.773819	0.060104
993.946342	0.060064
994.118848	0.059161
994.291335	0.059747
994.463803	0.061333
994.636254	0.062862
994.808686	0.063210
994.981100	0.063221
995.153496	0.063254
995.325874	0.063043
995.498233	0.061366
995.670574	0.062510
995.842897	0.061641
996.015202	0.060977
996.187488	0.059995
996.359757	0.057885
996.532007	0.057742
996.704239	0.056287
996.876452	0.056211
997.048648	0.056733
997.220825	0.055821
997.392984	0.055258
997.565124	0.053692
997.737247	0.053684
997.909351	0.055121
998.081437	0.054310
998.253505	0.055567
998.425554	0.054045
998.597586	0.052349
998.769599	0.052060
998.941594	0.052128
999.113571	0.054049
999.285529	0.053441
999.457469	0.053508
999.629391	0.054255
999.801295	0.052982
999.973181	0.053703
1000.145048	0.055477
1000.316897	0.055341
1000.488728	0.056607
1000.660541	0.057487
1000.832335	0.058282
1001.004111	0.059622
1001.175869	0.061153
1001.347609	0.062554
1001.519331	0.061348
1001.691034	0.060255
1001.862719	0.060542
1002.034386	0.060336
1002.206035	0.060109
1002.377665	0.060336
1002.549277	0.060286
1002.720871	0.058261
1002.892447	0.059650
1003.064004	0.059695
1003.235544	0.061132
1003.407065	0.061212
1003.578568	0.060347
1003.750052	0.059831
1003.921519	0.059557
1004.092967	0.059486
1004.264397	0.059422
1004.435809	0.056913
1004.607202	0.058444
1004.778577	0.057203
1004.949934	0.057183
1005.121273	0.058116
1005.292594	0.058963
1005.463896	0.059886
1005.635180	0.060219
1005.806446	0.060462
1005.977694	0.060327
1006.148923	0.059129
1006.320135	0.060395
1006.491328	0.060913
1006.662503	0.061461
1006.833659	0.061915
1007.004798	0.060054
1007.175918	0.058142
1007.347020	0.056968
1007.518103	0.059509
1007.689169	0.060330
1007.860216	0.058599
1008.031245	0.057177
1008.202256	0.055609
1008.373248	0.053639
1008.544223	0.055271
1008.715179	0.056673
1008.886117	0.058398
1009.057036	0.056652
1009.227938	0.057757
1009.398821	0.058975
1009.569686	0.060562
1009.740533	0.060730
1009.911361	0.060603
1010.082172	0.060193
1010.252964	0.058430
1010.423738	0.055966
1010.594493	0.056351
1010.765231	0.056102
1010.935950	0.056785
1011.106651	0.055699
1011.277334	0.054916
1011.447998	0.055597
1011.618645	0.055435
1011.789273	0.055828
1011.959882	0.058306
1012.130474	0.058317
1012.301048	0.057662
1012.471603	0.057052
1012.642140	0.057706
1012.812658	0.058594
1012.983159	0.058959
1013.153641	0.058502
1013.324105	0.057928
1013.494551	0.056882
1013.664979	0.055304
1013.835388	0.055555
1014.005779	0.056134
1014.176152	0.056413
1014.346507	0.055492
1014.516843	0.056087
1014.687162	0.056768
1014.857462	0.057433
1015.027744	0.056778
1015.198007	0.057735
1015.368252	0.056978
1015.538480	0.055421
1015.708689	0.053640
1015.878879	0.054493
1016.049052	0.053722
1016.219206	0.054693
1016.389342	0.055692
1016.559460	0.056343
1016.729559	0.057055
1016.899641	0.056525
1017.069704	0.057220
1017.239749	0.058080
1017.409775	0.058182
1017.579784	0.057650
1017.749774	0.057792
1017.919746	0.057329
1018.089700	0.058046
1018.259635	0.055234
1018.429553	0.056853
1018.599452	0.056390
1018.769333	0.056529
1018.939195	0.058012
1019.109040	0.059424
1019.278866	0.057735
1019.448674	0.056832
1019.618464	0.056096
1019.788235	0.060509
1019.957989	0.059532
1020.127724	0.059921
1020.297441	0.060773
1020.467139	0.059780
1020.636820	0.059802
1020.806482	0.059189
1020.976126	0.059098
1021.145752	0.059854
1021.315359	0.056467
1021.484948	0.056131
1021.654519	0.056426
1021.824072	0.056325
1021.993607	0.055855
1022.163123	0.054298
1022.332621	0.055367
1022.502101	0.055783
1022.671563	0.055464
1022.841007	0.057219
1023.010432	0.057034
1023.179839	0.056926
1023.349228	0.055859
1023.518598	0.055705
1023.687951	0.055958
1023.857285	0.055351
1024.026601	0.054922
1024.195899	0.053815
1024.365178	0.053444
1024.534439	0.054156
1024.703682	0.054842
1024.872907	0.056752
1025.042114	0.056658
1025.211302	0.057580
1025.380472	0.058645
1025.549624	0.059326
1025.718758	0.060339
1025.887873	0.059339
1026.056970	0.059029
1026.226049	0.058793
1026.395110	0.056139
1026.564153	0.055719
1026.733177	0.054073
1026.902183	0.053328
1027.071171	0.053581
1027.240141	0.053693
1027.409092	0.053351
1027.578026	0.052262
1027.746940	0.051493
1027.915837	0.051860
1028.084716	0.051756
1028.253576	0.052680
1028.422418	0.052424
1028.591242	0.052370
1028.760048	0.049595
1028.928835	0.051672
1029.097604	0.052457
1029.266355	0.054381
1029.435088	0.053864
1029.603803	0.055925
1029.772499	0.055588
1029.941177	0.055733
1030.109837	0.054400
1030.278478	0.055862
1030.447102	0.053755
1030.615707	0.053942
1030.784294	0.051895
1030.952863	0.051553
1031.121413	0.049842
1031.289945	0.051240
1031.458460	0.051225
1031.626955	0.053071
1031.795433	0.054483
1031.963892	0.056850
1032.132334	0.057106
1032.300756	0.057056
1032.469161	0.059074
1032.637548	0.058318
1032.805916	0.057529
1032.974266	0.055780
1033.142598	0.055001
1033.310911	0.055092
1033.479207	0.054424
1033.647484	0.055120
1033.815743	0.054582
1033.983983	0.053133
1034.152206	0.053841
1034.320410	0.053527
1034.488596	0.056729
1034.656764	0.056099
1034.824914	0.055494
1034.993045	0.054369
1035.161158	0.054807
1035.329253	0.055952
1035.497330	0.057262
1035.665388	0.056977
1035.833428	0.056486
1036.001450	0.056325
1036.169454	0.057229
1036.337440	0.057538
1036.505407	0.057351
1036.673356	0.057227
1036.841287	0.057468
1037.009200	0.058305
1037.177094	0.057682
1037.344970	0.057000
1037.512828	0.057033
1037.680668	0.056109
1037.848489	0.054717
1038.016293	0.054895
1038.184078	0.052729
1038.351845	0.052692
1038.519593	0.051121
1038.687324	0.052473
1038.855036	0.054936
1039.022730	0.053894
1039.190406	0.053541
1039.358063	0.054492
1039.525702	0.055578
1039.693323	0.056568
1039.860926	0.056114
1040.028511	0.057485
1040.196077	0.056285
1040.363625	0.054700
1040.531155	0.054743
1040.698667	0.056661
1040.866161	0.057414
1041.033636	0.057445
1041.201093	0.056942
1041.368532	0.057592
1041.535952	0.056837
1041.703355	0.057062
1041.870739	0.057107
1042.038105	0.058760
1042.205452	0.056970
1042.372782	0.056290
1042.540093	0.056004
1042.707386	0.056062
1042.874661	0.054286
1043.041918	0.053893
1043.209156	0.055634
1043.376376	0.056404
1043.543578	0.053544
1043.710762	0.054027
1043.877927	0.053306
1044.045074	0.053403
1044.212203	0.053318
1044.379314	0.055774
1044.546407	0.055668
1044.713481	0.055170
1044.880537	0.054665
1045.047575	0.055786
1045.214595	0.056020
1045.381596	0.057688
1045.548579	0.058329
1045.715544	0.058309
1045.882491	0.057589
1046.049420	0.057538
1046.216330	0.058567
1046.383222	0.057922
1046.550096	0.057819
1046.716951	0.059749
1046.883789	0.058764
1047.050608	0.056400
1047.217409	0.056179
1047.384192	0.056192
1047.550956	0.056001
1047.717703	0.055930
1047.884431	0.056166
1048.051140	0.055201
1048.217832	0.052173
1048.384505	0.052548
1048.551161	0.053329
1048.717798	0.053170
1048.884416	0.051384
1049.051017	0.050961
1049.217599	0.049745
1049.384163	0.050822
1049.550709	0.049959
1049.717237	0.052662
1049.883746	0.051672
1050.050237	0.052514
1050.216710	0.053799
1050.383165	0.054521
1050.549601	0.054575
1050.716019	0.054008
1050.882420	0.053813
1051.048801	0.055636
1051.215165	0.052353
1051.381510	0.052550
1051.547837	0.050830
1051.714146	0.050779
1051.880437	0.051067
1052.046709	0.051363
1052.212964	0.050654
1052.379200	0.048939
1052.545417	0.048526
1052.711617	0.051219
1052.877798	0.051869
1053.043961	0.052029
1053.210106	0.052012
1053.376233	0.051697
1053.542341	0.052337
1053.708432	0.052136
1053.874504	0.053196
1054.040557	0.054880
1054.206593	0.053536
1054.372610	0.051785
1054.538609	0.053896
1054.704590	0.054206
1054.870553	0.054446
1055.036497	0.055420
1055.202424	0.055764
1055.368331	0.055538
1055.534221	0.054583
1055.700093	0.055586
1055.865946	0.058246
1056.031781	0.058044
1056.197598	0.057929
1056.363397	0.058820
1056.529177	0.057289
1056.694939	0.056513
1056.860683	0.057060
1057.026409	0.056331
1057.192116	0.055665
1057.357806	0.053964
1057.523477	0.052085
1057.689130	0.052912
1057.854764	0.053508
1058.020381	0.053884
1058.185979	0.055703
1058.351559	0.054631
1058.517120	0.056284
1058.682664	0.055314
1058.848189	0.057128
1059.013696	0.057698
1059.179185	0.055399
1059.344656	0.055235
1059.510108	0.053786
1059.675542	0.053130
1059.840958	0.053154
1060.006356	0.051384
1060.171735	0.051653
1060.337096	0.050401
1060.502439	0.051870
1060.667764	0.054130
1060.833071	0.053475
1060.998359	0.056732
1061.163629	0.056113
1061.328881	0.054767
1061.494115	0.054353
1061.659330	0.055359
1061.824527	0.054810
1061.989706	0.054304
1062.154867	0.053943
1062.320010	0.052897
1062.485134	0.052362
1062.650240	0.053685
1062.815328	0.057026
1062.980398	0.058848
1063.145449	0.057980
1063.310482	0.057753
1063.475497	0.056029
1063.640494	0.055155
1063.805473	0.055022
1063.970433	0.053130
1064.135375	0.052934
1064.300299	0.050447
1064.465204	0.051714
1064.630092	0.052303
1064.794961	0.054303
1064.959812	0.055629
1065.124645	0.053690
1065.289459	0.054070
1065.454256	0.052804
1065.619034	0.051576
1065.783793	0.052276
1065.948535	0.049908
1066.113258	0.049260
1066.277964	0.046965
1066.442651	0.047275
1066.607319	0.050007
1066.771970	0.050241
1066.936602	0.051528
1067.101216	0.052843
1067.265812	0.052237
1067.430389	0.052668
1067.594949	0.053819
1067.759490	0.054521
1067.924013	0.054077
1068.088518	0.051435
1068.253004	0.051673
1068.417472	0.051453
1068.581922	0.053568
1068.746354	0.054284
1068.910768	0.055507
1069.075163	0.053550
1069.239540	0.056121
1069.403899	0.055881
1069.568240	0.057445
1069.732562	0.057515
1069.896866	0.058873
1070.061152	0.057889
1070.225420	0.056786
1070.389670	0.056309
1070.553901	0.056256
1070.718114	0.053397
1070.882309	0.053800
1071.046486	0.054614
1071.210644	0.054134
1071.374784	0.054539
1071.538906	0.055132
1071.703010	0.055351
1071.867096	0.055391
1072.031163	0.054200
1072.195212	0.054884
1072.359243	0.055757
1072.523256	0.056869
1072.687250	0.057962
1072.851226	0.057600
1073.015184	0.053504
1073.179124	0.055642
1073.343045	0.053835
1073.506949	0.056501
1073.670834	0.056170
1073.834701	0.054565
1073.998549	0.053019
1074.162380	0.051504
1074.326192	0.051425
1074.489986	0.054169
1074.653761	0.053513
1074.817519	0.055474
1074.981258	0.056206
1075.144979	0.056331
1075.308682	0.055984
1075.472367	0.055149
1075.636033	0.056324
1075.799681	0.054215
1075.963311	0.053280
1076.126923	0.052070
1076.290516	0.049223
1076.454092	0.047292
1076.617649	0.047439
1076.781187	0.047594
1076.944708	0.048483
1077.108210	0.047756
1077.271695	0.050028
1077.435160	0.052127
1077.598608	0.053170
1077.762038	0.055803
1077.925449	0.056768
1078.088842	0.054142
1078.252217	0.055101
1078.415573	0.054736
1078.578912	0.055158
1078.742232	0.055160
1078.905534	0.053206
1079.068817	0.050758
1079.232083	0.045954
1079.395330	0.045528
1079.558559	0.048292
1079.721770	0.049234
1079.884962	0.049763
1080.048136	0.049843
1080.211293	0.048605
1080.374430	0.047788
1080.537550	0.049327
1080.700651	0.054605
1080.863735	0.054770
1081.026800	0.053628
1081.189846	0.054400
1081.352875	0.053987
1081.515885	0.052423
1081.678877	0.053255
1081.841851	0.054467
1082.004807	0.056442
1082.167744	0.052939
1082.330663	0.051690
1082.493564	0.050454
1082.656447	0.047672
1082.819312	0.044831
1082.982158	0.041905
1083.144986	0.042293
1083.307796	0.042845
1083.470587	0.039540
1083.633361	0.039569
1083.796116	0.040951
1083.958853	0.044233
1084.121571	0.043921
1084.284272	0.044776
1084.446954	0.049069
1084.609618	0.047929
1084.772264	0.046118
1084.934892	0.046154
1085.097501	0.049082
1085.260092	0.050257
1085.422665	0.049724
1085.585220	0.050119
1085.747756	0.052964
1085.910274	0.050098
1086.072774	0.049426
1086.235256	0.051807
1086.397720	0.054600
1086.560165	0.051631
1086.722592	0.049466
1086.885001	0.047587
1087.047392	0.045565
1087.209764	0.044399
1087.372119	0.048321
1087.534455	0.048890
1087.696772	0.047449
1087.859072	0.045769
1088.021353	0.048661
1088.183616	0.047332
1088.345861	0.047744
1088.508088	0.051753
1088.670296	0.050995
1088.832486	0.049033
1088.994658	0.048590
1089.156812	0.047208
1089.318948	0.048236
1089.481065	0.043006
1089.643164	0.043118
1089.805245	0.043980
1089.967308	0.042456
1090.129352	0.041705
1090.291378	0.040039
1090.453386	0.041930
1090.615376	0.044377
1090.777347	0.046385
1090.939301	0.050909
1091.101236	0.051901
1091.263153	0.050403
1091.425051	0.049753
1091.586932	0.049290
1091.748794	0.051427
1091.910638	0.051047
1092.072463	0.049735
1092.234271	0.046895
1092.396060	0.045794
1092.557831	0.044985
1092.719584	0.044870
1092.881319	0.042496
1093.043035	0.042631
1093.204733	0.041661
1093.366413	0.036559
1093.528075	0.036641
1093.689718	0.036673
1093.851343	0.035367
1094.012950	0.037513
1094.174539	0.038571
1094.336110	0.041064
1094.497662	0.041145
1094.659196	0.044607
1094.820712	0.047892
1094.982210	0.048822
1095.143689	0.049666
1095.305151	0.053031
1095.466594	0.050820
1095.628018	0.050044
1095.789425	0.049492
1095.950813	0.050249
1096.112183	0.045025
1096.273535	0.045181
1096.434869	0.046717
1096.596184	0.045742
1096.757482	0.044974
1096.918761	0.046422
1097.080021	0.046156
1097.241264	0.047181
1097.402488	0.048693
1097.563694	0.053269
1097.724882	0.052861
1097.886052	0.047660
1098.047203	0.047705
1098.208336	0.048139
1098.369451	0.048773
1098.530548	0.048505
1098.691627	0.049265
1098.852687	0.049044
1099.013729	0.046617
1099.174753	0.045145
1099.335758	0.044270
1099.496746	0.043603
1099.657715	0.043778
1099.818666	0.045124
1099.979599	0.048477
1100.140513	0.049778
1100.301409	0.048054
1100.462287	0.051422
1100.623147	0.052393
1100.783989	0.053119
1100.944812	0.054959
1101.105617	0.052308
1101.266404	0.050046
1101.427173	0.047885
1101.587923	0.045926
1101.748656	0.045439
1101.909370	0.039003
1102.070066	0.040126
1102.230743	0.043696
1102.391403	0.041184
1102.552044	0.037213
1102.712667	0.037552
1102.873271	0.037584
1103.033858	0.036809
1103.194426	0.036421
1103.354976	0.036614
1103.515508	0.035010
1103.676021	0.034594
1103.836517	0.034475
1103.996994	0.043684
1104.157453	0.042730
1104.317893	0.041401
1104.478316	0.038796
1104.638720	0.043358
1104.799106	0.049934
1104.959474	0.050036
1105.119823	0.048171
1105.280155	0.050320
1105.440468	0.047091
1105.600763	0.048020
1105.761039	0.047894
1105.921298	0.052000
1106.081538	0.046929
1106.241760	0.045130
1106.401964	0.046567
1106.562149	0.047559
1106.722316	0.048929
1106.882465	0.046581
1107.042596	0.044338
1107.202709	0.042378
1107.362803	0.042885
1107.522879	0.045365
1107.682937	0.041965
1107.842977	0.040111
1108.002999	0.044097
1108.163002	0.044648
1108.322987	0.047812
1108.482954	0.048285
1108.642902	0.054205
1108.802833	0.049468
1108.962745	0.048644
1109.122639	0.048880
1109.282515	0.053197
1109.442372	0.044000
1109.602211	0.044492
1109.762032	0.045466
1109.921835	0.052210
1110.081620	0.048534
1110.241386	0.054746
1110.401134	0.056149
1110.560864	0.055400
1110.720576	0.055730
1110.880269	0.057316
1111.039945	0.057445
1111.199602	0.055540
1111.359240	0.045341
1111.518861	0.050457
1111.678463	0.044859
1111.838047	0.046926
1111.997613	0.046512
1112.157161	0.043617
1112.316690	0.044633
1112.476202	0.041803
1112.635695	0.043836
1112.795169	0.049509
1112.954626	0.042850
1113.114064	0.044030
1113.273484	0.040157
1113.432886	0.039640
1113.592270	0.040255
1113.751635	0.043748
1113.910983	0.041974
1114.070312	0.038549
1114.229622	0.035817
1114.388915	0.034329
1114.548189	0.036729
1114.707445	0.039607
1114.866683	0.042240
1115.025903	0.039816
1115.185104	0.039940
1115.344287	0.039237
1115.503452	0.044075
1115.662599	0.048494
1115.821727	0.053870
1115.980838	0.053757
1116.139930	0.050382
1116.299004	0.051667
1116.458059	0.058827
1116.617097	0.057465
1116.776116	0.061075
1116.935117	0.054758
1117.094099	0.056490
1117.253064	0.053025
1117.412010	0.051306
1117.570938	0.054936
1117.729848	0.052628
1117.888740	0.050349
1118.047613	0.050936
1118.206468	0.050010
1118.365305	0.047971
1118.524124	0.046387
1118.682924	0.047062
1118.841707	0.049747
1119.000471	0.044522
1119.159216	0.046525
1119.317944	0.048684
1119.476653	0.048242
1119.635344	0.043295
1119.794017	0.052108
1119.952672	0.051896
1120.111308	0.052492
1120.269927	0.051270
1120.428527	0.051311
1120.587108	0.051795
1120.745672	0.041954
1120.904217	0.040527
1121.062744	0.046240
1121.221253	0.038047
1121.379744	0.034400
1121.538216	0.037301
1121.696671	0.033505
1121.855107	0.033361
1122.013524	0.032207
1122.171924	0.040791
1122.330305	0.043249
1122.488668	0.038468
1122.647013	0.042188
1122.805340	0.048993
1122.963648	0.050612
1123.121938	0.050722
1123.280210	0.054576
1123.438464	0.054793
1123.596700	0.049608
1123.754917	0.041662
1123.913116	0.044733
1124.071297	0.039975
1124.229459	0.032185
1124.387604	0.028601
1124.545730	0.031471
1124.703838	0.029261
1124.861928	0.032048
1125.019999	0.028560
1125.178052	0.037659
1125.336088	0.037469
1125.494104	0.041351
1125.652103	0.046562
1125.810083	0.046483
1125.968045	0.044551
1126.125989	0.043980
1126.283915	0.041855
1126.441823	0.048125
1126.599712	0.043864
1126.757583	0.044785
1126.915436	0.044636
1127.073270	0.046349
1127.231087	0.041362
1127.388885	0.043950
1127.546665	0.050084
1127.704426	0.044831
1127.862170	0.044906
1128.019895	0.045561
1128.177602	0.039775
1128.335291	0.033909
1128.492961	0.025332
1128.650614	0.036264
1128.808248	0.029972
1128.965864	0.025025
1129.123461	0.028127
1129.281041	0.027951
1129.438602	0.036978
1129.596145	0.045613
1129.753670	0.054197
1129.911176	0.059958
1130.068665	0.054017
1130.226135	0.059760
1130.383587	0.062964
1130.541020	0.060186
1130.698436	0.054272
1130.855833	0.049361
1131.013212	0.043136
1131.170573	0.042322
1131.327915	0.044654
1131.485239	0.046245
1131.642545	0.048201
1131.799833	0.045558
1131.957103	0.046465
1132.114354	0.049323
1132.271588	0.041916
1132.428803	0.048865
1132.585999	0.049113
1132.743178	0.047221
1132.900338	0.039218
1133.057480	0.036061
1133.214604	0.028986
1133.371710	0.030783
1133.528797	0.032744
1133.685866	0.039584
1133.842917	0.030667
1133.999950	0.028825
1134.156964	0.032104
1134.313960	0.037154
1134.470938	0.042163
1134.627898	0.047955
1134.784840	0.050845
1134.941763	0.042978
1135.098668	0.036593
1135.255555	0.044443
1135.412424	0.046921
1135.569274	0.040878
1135.726107	0.043907
1135.882921	0.032813
1136.039716	0.034323
1136.196494	0.034290
1136.353253	0.043132
1136.509995	0.041988
1136.666717	0.032746
1136.823422	0.029994
1136.980109	0.026045
1137.136777	0.022859
1137.293427	0.026694
1137.450059	0.025418
1137.606672	0.024433
1137.763267	0.019718
1137.919844	0.014928
1138.076403	0.017010
1138.232944	0.018362
1138.389466	0.031532
1138.545971	0.028366
1138.702457	0.030982
1138.858924	0.040436
1139.015374	0.039486
1139.171805	0.042506
1139.328218	0.057363
1139.484613	0.062210
1139.640990	0.066078
1139.797348	0.057845
1139.953688	0.065344
1140.110010	0.065290
1140.266314	0.056092
1140.422600	0.051505
1140.578867	0.051026
1140.735116	0.049975
1140.891347	0.054299
1141.047559	0.049720
1141.203754	0.042524
1141.359930	0.040600
1141.516088	0.037850
1141.672228	0.040096
1141.828349	0.040830
1141.984452	0.046773
1142.140537	0.042149
1142.296604	0.044341
1142.452653	0.047817
1142.608683	0.050349
1142.764695	0.048980
1142.920689	0.059717
1143.076665	0.055987
1143.232622	0.057640
1143.388562	0.049569
1143.544483	0.052110
1143.700385	0.042989
1143.856270	0.043968
1144.012136	0.042583
1144.167985	0.039098
1144.323814	0.026571
1144.479626	0.031617
1144.635420	0.028998
1144.791195	0.035816
1144.946952	0.038876
1145.102691	0.044251
1145.258411	0.036869
1145.414113	0.047052
1145.569798	0.045605
1145.725463	0.048626
1145.881111	0.043625
1146.036741	0.050787
1146.192352	0.048253
1146.347945	0.033735
1146.503519	0.035402
1146.659076	0.041166
1146.814614	0.032684
1146.970134	0.032334
1147.125636	0.045319
1147.281120	0.045169
1147.436585	0.051687
1147.592032	0.051774
1147.747461	0.077890
1147.902872	0.068495
1148.058265	0.066529
1148.213639	0.065955
1148.368995	0.070991
1148.524333	0.054718
1148.679653	0.060776
1148.834954	0.051685
1148.990237	0.048992
1149.145502	0.031940
1149.300749	0.030883
1149.455977	0.030240
1149.611188	0.036897
1149.766380	0.031570
1149.921553	0.038623
1150.076709	0.033372
1150.231846	0.028951
1150.386966	0.022755
1150.542066	0.030571
1150.697149	0.033862
1150.852214	0.030288
1151.007260	0.028034
1151.162288	0.028212
1151.317298	0.022693
1151.472289	0.016435
1151.627263	0.032094
1151.782218	0.043951
1151.937155	0.041939
1152.092073	0.041145
1152.246974	0.034512
1152.401856	0.034627
1152.556720	0.037859
1152.711566	0.039040
1152.866393	0.048313
1153.021203	0.031877
1153.175994	0.035118
1153.330767	0.027257
1153.485521	0.033623
1153.640258	0.048354
1153.794976	0.035433
1153.949676	0.047476
1154.104358	0.041828
1154.259021	0.042031
1154.413667	0.042127
1154.568294	0.032937
1154.722903	0.034992
1154.877493	0.031363
1155.032066	0.020222
1155.186620	0.027793
1155.341156	0.016373
1155.495674	0.012083
1155.650173	0.003590
1155.804654	-0.002095
1155.959118	0.006064
1156.113562	0.009234
1156.267989	0.016066
1156.422397	0.016510
1156.576788	0.028621
1156.731160	0.016635
1156.885513	0.016766
1157.039849	0.023183
1157.194166	0.029979
1157.348465	0.014891
1157.502746	0.013755
1157.657009	0.017839
1157.811253	0.022894
1157.965479	0.016356
1158.119687	0.031211
1158.273877	0.047386
1158.428048	0.037801
1158.582201	0.044496
1158.736337	0.055465
1158.890453	0.053130
1159.044552	0.052896
1159.198632	0.052656
1159.352694	0.054727
1159.506738	0.051355
1159.660764	0.051845
1159.814771	0.072707
1159.968761	0.066585
1160.122732	0.069046
1160.276685	0.077324
1160.430619	0.077768
1160.584535	0.087003
1160.738434	0.069335
1160.892313	0.063311
1161.046175	0.065079
1161.200019	0.059719
1161.353844	0.074547
1161.507651	0.065298
1161.661440	0.068713
1161.815210	0.055655
1161.968962	0.042176
1162.122697	0.056127
1162.276412	0.065173
1162.430110	0.060423
1162.583789	0.067876
1162.737451	0.062064
1162.891094	0.067656
1163.044718	0.041795
1163.198325	0.043373
1163.351913	0.048470
1163.505483	0.059444
1163.659035	0.048068
1163.812569	0.044641
1163.966084	0.022898
1164.119581	0.022412
1164.273060	0.027555
1164.426521	0.046422
1164.579964	0.031106
1164.733388	0.029929
1164.886794	0.028309
1165.040182	0.032570
1165.193551	0.057773
1165.346903	0.067859
1165.500236	0.039281
1165.653551	0.016632
1165.806848	0.016727
1165.960126	0.030116
1166.113386	0.027845
1166.266628	0.009709
1166.419852	0.011986
1166.573058	-0.010167
1166.726245	-0.013870
1166.879414	0.019502
1167.032565	0.033990
1167.185698	0.013123
1167.338812	0.009256
1167.491909	0.018250
1167.644987	0.034557
1167.798046	0.046367
1167.951088	0.037408
1168.104111	0.021734
1168.257117	0.016613
1168.410103	0.019525
1168.563072	0.035713
1168.716023	0.025192
1168.868955	0.023042
1169.021869	-0.000025
1169.174765	-0.011031
1169.327642	-0.003030
1169.480501	0.016723
1169.633343	-0.016088
1169.786165	-0.014353
1169.938970	0.006710
1170.091757	0.012744
1170.244525	-0.001608
1170.397275	-0.010933
1170.550007	0.002343
1170.702720	0.019011
1170.855415	0.039905
1171.008092	0.088846
1171.160751	0.102790
1171.313392	0.097127
1171.466014	0.333669
1171.618619	0.222307
1171.771205	0.222307
1171.923772	0.222307
