sample name	sample
index	478
start time	 03-11-2021  12:51:31 PM
880	0.211952
Peak Time (s)	92.035
Peak Height 	0.212
calc peak height	90,93
Baseline Time (s)	8.534
Baseline Value 	-0.00494
subtract baseline	10,4
Abs	0.131931
Peak Time (s)	92.542
Peak Height 	0.1319
calc peak height	90,93
Baseline Time (s)	8.534
Baseline Value 	0.002392
subtract baseline	10,3
PK_550	0.065879
Peak Time (s)	92.035
Peak Height 	0.06588
calc peak height	90,93
Baseline Time (s)	11.036
Baseline Value 	5.2129E-4
subtract baseline	10,2
PK_880	0.129143
Peak Time (s)	90.535
Peak Height 	0.1291
calc peak height	90,93
Baseline Time (s)	10.036
Baseline Value 	0.002267
subtract baseline	10,1


Time (s)	A880-A510	A880-A775	A880-A975	A880	I510	I775	I975	I880	
0.035000	-0.000911	0.000727	-0.002587	0.003607	7046.447553	45493.735328	3959.527017	24100.272003
0.536000	-0.005577	-0.000374	-0.002662	0.007344	6966.331402	45022.200238	3949.680964	23918.315701
1.036000	-0.002030	-0.000998	-0.005246	0.004320	7028.858589	45255.437192	3950.813286	24065.460655
1.536500	-0.001454	-0.000547	-0.005157	0.001941	7057.280504	45532.195516	3957.186856	24181.940278
2.036500	-0.000482	0.000316	-0.002272	0.001918	7066.888027	45619.098380	3964.737160	24183.025227
2.540000	-0.002053	-0.000768	-0.002443	0.005757	7014.874515	45137.930501	3954.334672	23995.378537
3.037500	0.001448	-0.000109	-0.000371	-0.000914	7113.224163	45856.449982	3977.144552	24322.562640
3.534500	0.000373	0.000466	-0.003675	0.001169	7082.436818	45707.562999	3963.033220	24219.827431
4.035000	0.000085	0.000443	-0.001281	0.001155	7079.780916	45706.772142	3969.318966	24220.525779
4.535500	-0.002838	-0.001036	-0.002722	0.004930	7015.275069	45192.325008	3955.749954	24035.671666
5.035000	0.000187	-0.000487	-0.003995	0.000410	7088.008362	45688.531319	3964.178401	24257.232390
5.535500	0.001254	0.000157	-0.002240	0.001070	7091.964101	45686.928403	3967.035456	24224.727202
6.036500	0.002812	-0.000007	0.000992	0.000218	7115.484847	45754.689375	3977.750202	24266.649790
6.536500	-0.000217	-0.000155	0.003629	-0.000288	7090.870396	45790.129327	3986.068876	24291.649653
7.039500	-0.000083	-0.000100	0.002185	-0.000046	7089.812660	45771.657441	3981.601042	24279.693536
7.534000	0.001676	0.000811	0.002175	0.000514	7101.498994	45806.262170	3980.094407	24252.089957
8.037500	0.001552	0.000191	0.001193	0.000396	7101.437085	45756.794609	3977.813531	24257.915943
8.534500	0.001730	-0.000330	0.000000	0.000000	7107.034667	45744.358545	3975.713279	24277.421546
9.035000	0.001119	0.000015	0.002100	0.000400	7097.183857	45739.018145	3980.198241	24257.727759
9.535500	-0.000615	0.000635	0.001478	0.004167	7043.912405	45429.905969	3968.658474	24072.933588
10.035500	0.000000	-0.000134	-0.001571	-0.000057	7090.728791	45769.300088	3971.734110	24280.224641
10.536500	-0.000037	0.000038	-0.000002	-0.000189	7091.649913	45799.327055	3976.205696	24286.731652
11.036000	0.002031	0.000000	0.002132	-0.000147	7111.414628	45791.427097	3981.725309	24284.655514
11.539000	-0.003844	-0.000222	-0.001210	0.003873	7015.761643	45374.771491	3962.412561	24087.270073
12.187500	-0.001984	-0.000190	0.000791	-0.000024	7071.152520	45760.509571	3977.859664	24278.593877
12.537000	0.000410	-0.000842	0.000148	-0.000801	7101.978849	45772.951018	3978.214216	24316.964156
13.035000	-0.000329	-0.000055	-0.000622	0.000131	7085.706471	45758.640123	3973.735193	24270.980411
13.539000	-0.003308	-0.000025	-0.001749	0.005722	7003.234674	45213.609982	3956.218771	23997.107934
14.035000	-0.003030	-0.000565	-0.000072	0.002286	7038.774272	45496.520199	3969.524912	24164.982474
14.535500	0.000651	-0.000544	-0.002094	0.001781	7079.192214	45548.103064	3965.558652	24189.756791
15.035500	0.000650	-0.000365	-0.000224	-0.000019	7096.684387	45742.816548	3975.174127	24278.343668
15.536500	-0.001271	0.000282	-0.002186	0.003648	7042.597449	45446.074939	3960.462481	24098.281690
16.036500	0.002247	0.000015	0.003583	0.000248	7109.662555	45753.971743	3984.524302	24265.185197
16.536500	0.000687	0.000363	0.002887	0.000274	7094.195288	45785.741557	3982.612403	24263.927225
17.037000	0.002410	-0.000473	0.000476	-0.003069	7143.817728	46033.883202	3985.082235	24429.325287
17.536500	-0.001392	0.000186	0.003242	0.001252	7064.527637	45671.877171	3980.963238	24215.760980
18.034500	-0.000903	-0.000382	0.000743	0.001058	7071.144813	45635.103342	3974.884040	24225.302644
18.535000	0.000723	-0.000254	-0.001663	0.001257	7084.982983	45628.098372	3968.054787	24215.537450
19.035500	-0.000411	0.000157	0.000177	0.001357	7073.014774	45658.727632	3972.612855	24210.611238
19.538500	0.001350	-0.000819	-0.003269	0.000929	7094.275923	45604.814275	3964.718156	24231.668037
20.036000	-0.001230	-0.000085	0.004462	0.001257	7066.058954	45644.742064	3984.181696	24215.546416
20.536000	-0.000495	-0.000608	-0.003059	0.001436	7071.436322	45575.796684	3963.945257	24206.741426
21.036500	0.000354	0.000207	0.003950	0.001698	7077.128868	45630.132597	3981.656712	24193.869862
21.537000	-0.000070	-0.000127	0.002098	0.001687	7073.116951	45598.280366	3976.795337	24194.375397
22.039500	0.000740	-0.000435	0.000772	0.001122	7086.456492	45623.623059	3974.791998	24222.155160
22.537000	0.000910	-0.000407	0.003471	0.001018	7089.127612	45636.631917	3982.189254	24227.302076
23.034500	-0.000462	-0.000192	-0.001276	0.000842	7077.504965	45675.101554	3970.153162	24235.942315
23.535000	0.000731	0.000422	-0.000187	0.002212	7075.792270	45600.686810	3969.416568	24168.599672
24.035500	0.001527	0.000847	0.003769	0.001483	7090.607049	45714.219059	3981.745070	24204.411918
24.535500	0.001489	-0.000181	0.003875	0.001333	7091.697493	45627.867859	3982.424119	24211.802250
25.039000	-0.002413	-0.000751	0.000384	0.000350	7063.382646	45668.441227	3975.804185	24260.171901
25.539000	0.000152	-0.000653	0.000023	0.000969	7082.239876	45617.264090	3973.225407	24229.695351
26.036000	0.000164	-0.000498	-0.003536	0.000097	7090.821037	45718.276577	3966.192102	24272.627565
26.536500	-0.000270	-0.000357	0.001693	0.000514	7082.563452	45691.151504	3978.822413	24252.109479
27.037000	0.001808	0.000414	0.005027	-0.002309	7130.420923	46046.479374	3995.183206	24391.593231
27.534500	0.000272	-0.000250	0.000083	-0.000667	7099.324083	45818.147503	3977.690160	24310.350418
28.035000	0.001198	-0.000311	0.001134	-0.000357	7105.331064	45781.575384	3979.645489	24295.058206
28.535000	-0.001735	0.000514	0.001638	0.003734	7037.304667	45460.394695	3970.210950	24094.089264
29.035500	0.000512	-0.000303	-0.000573	-0.000427	7099.312225	45789.115355	3975.328224	24298.468782
29.535500	-0.000335	0.000358	0.003138	0.000574	7081.332885	45755.563472	3982.480390	24249.109478
30.042000	0.001463	0.000269	0.006268	0.000010	7104.337312	45802.561600	3992.303153	24276.941125
30.536000	-0.000293	0.000078	0.003682	0.003035	7057.921579	45486.175178	3977.417803	24128.275625
31.037500	-0.001048	-0.000538	-0.000436	0.000497	7075.172046	45674.894496	3973.261246	24252.922979
31.536500	-0.002366	0.000386	0.001618	0.004428	7024.599284	45379.979963	3968.343444	24060.180064
32.038500	0.000763	-0.000865	0.000830	-0.000375	7101.257732	45728.562307	3978.888978	24295.901790
32.537500	-0.001724	-0.000471	0.001880	0.004695	7028.192020	45270.263349	3968.330603	24047.160414
33.035000	0.002906	0.000065	0.000324	0.000077	7117.788071	45775.730487	3976.364149	24273.621550
33.535000	-0.001643	-0.000299	-0.000453	0.002104	7053.874335	45540.457074	3969.001011	24173.891062
34.036000	-0.000903	-0.000469	0.001904	0.001420	7067.637109	45590.899038	3976.985721	24207.487875
34.536000	0.000540	0.000470	-0.001767	0.002521	7070.947722	45575.013133	3964.483136	24153.446702
35.036000	-0.001571	-0.000171	-0.000693	0.001575	7059.680372	45604.954041	3969.759845	24199.870108
35.536500	-0.001519	-0.000515	-0.001410	0.002030	7055.787826	45526.562840	3966.695571	24177.523840
36.037000	-0.000799	0.000195	0.004760	0.002012	7062.920232	45598.023980	3982.968900	24178.438866
36.537000	-0.001554	-0.000784	0.000657	0.001104	7064.397545	45591.063834	3974.537148	24223.040851
37.034500	-0.001852	0.000301	-0.000317	0.001945	7053.399223	45615.040990	3969.774270	24181.708476
37.535000	-0.000327	0.000013	-0.002220	0.002297	7064.725568	45552.179094	3963.887936	24164.445747
38.035000	-0.000635	0.000092	0.000313	0.002049	7064.141955	45584.214524	3971.153179	24176.596456
38.535500	-0.000786	0.000489	0.001539	0.002110	7062.097384	45617.377378	3974.212359	24173.635407
39.036000	0.000922	-0.000198	0.002115	0.001818	7081.475379	45578.564379	3976.496161	24187.976650
39.536000	-0.000864	-0.000518	-0.001555	0.001691	7065.394904	45559.523892	3967.202637	24194.179996
40.036500	0.000007	-0.000433	0.002591	0.001735	7073.398381	45563.636635	3977.970107	24192.053778
40.536500	-0.000071	-0.000629	0.000548	0.001538	7074.551822	45563.701620	3973.111503	24201.720698
41.037000	-0.000503	-0.000290	-0.000392	0.001750	7068.320477	45576.223396	3970.090883	24191.318183
41.537000	-0.001088	0.000078	-0.001867	0.001781	7062.355395	45609.183496	3966.152063	24189.748129
42.034500	-0.002120	0.000207	-0.000999	0.001909	7051.163787	45609.330567	3968.085134	24183.487326
42.535000	0.000079	-0.000284	0.001047	0.001868	7072.815856	45565.133863	3973.555774	24185.518913
43.035500	-0.000296	0.000106	0.001810	0.001905	7068.819503	45599.891101	3975.464505	24183.705533
43.536000	-0.001465	-0.000453	-0.004279	0.002885	7048.065482	45448.818940	3957.012860	24135.604560
44.038500	0.000555	-0.000025	0.003649	-0.001825	7113.391806	45954.967199	3990.212058	24367.617406
44.536000	0.000709	0.000504	0.002130	-0.000117	7098.215506	45838.326622	3981.642510	24283.198139
45.036500	0.000513	0.000511	-0.000425	0.000167	7093.541861	45810.926614	3974.154572	24269.173347
45.537000	-0.003603	-0.000306	0.001096	0.005398	7003.512843	45217.784120	3964.446918	24012.878575
46.037000	-0.000413	-0.000240	0.003213	0.000023	7085.931033	45750.942314	3984.140297	24276.274030
46.537500	-0.001746	-0.000583	-0.002252	0.000570	7067.701834	45663.339964	3968.309637	24249.315381
47.035000	-0.000393	0.000790	0.001868	0.002340	7063.670055	45624.285008	3974.471117	24162.346178
47.535000	-0.000279	0.000519	0.003087	0.005044	7038.709399	45332.749070	3970.574814	24030.125065
48.035500	0.000880	0.000838	0.002690	0.000364	7095.196353	45823.689980	3981.850780	24259.457095
48.538500	0.000404	0.000553	0.000675	0.001526	7079.279222	45681.077976	3973.477262	24202.317496
49.036000	0.000426	0.000435	-0.001912	0.000400	7090.429080	45780.405533	3969.644289	24257.695903
49.536000	-0.002144	-0.000193	0.000823	0.005044	7020.832482	45263.309393	3964.659543	24030.140135
50.036500	0.000279	0.000721	-0.000952	0.000275	7090.212226	45820.905311	3972.487987	24263.845946
50.536500	0.000410	-0.000290	0.001424	-0.001084	7104.732777	45855.333689	3982.332455	24330.922586
51.034500	-0.042113	-0.016384	0.008136	0.386072	4441.518643	19887.970292	3311.468558	11664.607833
51.535000	-0.038775	-0.008107	-0.026636	0.075863	6109.993252	38243.220948	3735.421259	20844.805085
52.035000	-0.036845	-0.077095	-0.039731	-0.239569	9603.450512	65219.164821	4643.566677	40041.952806
52.535000	-0.043021	-0.167650	-0.026361	-0.332321	11089.954336	65535.000000	5144.805398	48894.400947
53.038000	-0.045941	-0.129300	-0.021811	-0.293970	10344.340082	65535.000000	4971.680182	45003.650234
53.535500	-0.043475	-0.126138	-0.016227	-0.290808	10332.364511	65535.000000	4983.641738	44697.937087
54.036500	-0.028982	-0.096042	-0.011635	-0.260712	10068.863851	65535.000000	4860.966018	41896.863409
54.536500	-0.022004	-0.085751	-0.018632	-0.250421	10014.109701	65535.000000	4781.814902	40982.706871
55.036500	-0.003358	-0.080355	-0.002692	-0.245025	10235.584322	65535.000000	4829.714626	40512.001956
55.536500	0.009730	-0.058991	0.003783	-0.221463	10059.964648	65218.792986	4752.670751	38523.678563
56.037500	0.010125	-0.025285	0.006253	-0.168884	9245.373033	62569.683739	4543.447864	34457.140394
56.534500	0.014938	-0.006581	0.013906	-0.124886	8694.909170	59195.079210	4406.104532	31412.894801
57.035500	0.023619	0.000610	0.018550	-0.099032	8468.895345	56828.112926	4331.112383	29762.753977
57.534500	0.030912	0.010714	0.024165	-0.056564	8032.927566	52957.149412	4209.207444	27256.608820
58.036000	0.038509	0.018249	0.039855	-0.012818	7620.200929	48954.697996	4123.097093	24918.952359
58.536000	0.046737	0.024965	0.050534	0.028140	7275.022960	45464.799823	4036.196510	22933.710515
59.036000	0.053753	0.031602	0.059367	0.062487	7006.059750	42835.270880	3967.531488	21407.344346
59.536500	0.063414	0.036995	0.069657	0.087882	6858.729527	41038.899027	3928.742875	20353.953310
60.037000	0.070832	0.041687	0.074270	0.113004	6699.201099	39287.355066	3878.185998	19370.723922
60.537000	0.078643	0.047150	0.080482	0.125025	6662.217884	38742.387180	3864.295347	18920.016159
61.034500	0.084917	0.050732	0.091778	0.131196	6663.114400	38529.484711	3876.540156	18693.415301
61.535000	0.098334	0.058088	0.097114	0.139526	6707.863141	38449.702357	3869.369949	18392.631430
62.036000	0.098673	0.057930	0.093248	0.134066	6759.513106	38886.133366	3873.179322	18589.133342
62.535500	0.102928	0.059308	0.098135	0.140497	6740.052599	38470.154268	3869.489258	18357.949973
63.035500	0.106917	0.061242	0.099673	0.141609	6765.812338	38537.488125	3870.505508	18318.310862
63.537500	0.108475	0.062513	0.102907	0.144300	6755.648180	38421.242289	3871.805371	18222.841058
64.036000	0.110196	0.063266	0.110275	0.146494	6751.415456	38303.670064	3884.258294	18145.429823
64.536500	0.111866	0.063824	0.109269	0.149207	6742.088919	38128.469116	3875.291744	18050.229329
65.037000	0.112422	0.064180	0.108734	0.150604	6734.587679	38044.216668	3870.663134	18001.436447
65.537000	0.114092	0.064610	0.106002	0.152830	6729.632901	37899.240773	3858.881066	17924.029665
66.037500	0.112806	0.064769	0.110995	0.153717	6710.349424	37840.728359	3868.629069	17893.303327
66.535000	0.111511	0.065024	0.112391	0.155783	6680.707712	37695.456289	3867.033696	17821.974366
67.038000	0.118057	0.067561	0.112063	0.158835	6711.527914	37654.178416	3859.014800	17717.196862
67.535000	0.118171	0.067721	0.119119	0.160917	6694.138017	37500.813045	3870.836012	17646.143170
68.036000	0.117526	0.068571	0.118991	0.163384	6666.806546	37372.386872	3864.651397	17562.398551
68.536500	0.121004	0.070120	0.118908	0.167553	6660.753664	37165.120027	3854.596782	17421.926651
69.036500	0.123794	0.070133	0.118438	0.168758	6674.639267	37071.315794	3850.663591	17381.594699
69.534000	0.122258	0.071236	0.116075	0.174558	6610.822817	36703.936366	3831.708993	17188.934263
70.037000	0.127716	0.071504	0.113029	0.171428	6685.637144	36969.366642	3831.903216	17292.600529
70.537000	0.126613	0.071519	0.120641	0.172945	6662.660584	36851.805623	3846.023706	17242.273414
71.035000	0.128114	0.072368	0.116306	0.174570	6661.564803	36791.168255	3832.211704	17188.539726
71.535000	0.126887	0.073121	0.119191	0.178491	6616.839284	36545.075356	3829.830299	17059.773672
72.036000	0.128603	0.073132	0.121079	0.176651	6647.682362	36688.660335	3838.427200	17120.072005
72.536000	0.130710	0.073381	0.119025	0.177710	6656.817886	36625.787984	3831.244152	17085.338293
73.036500	0.126051	0.073240	0.122539	0.178657	6608.195078	36541.430872	3837.164071	17054.354046
73.536000	0.127981	0.072350	0.121639	0.181100	6603.775541	36284.397891	3829.463353	16974.735918
74.036500	0.127246	0.072713	0.117201	0.180182	6605.351424	36383.006461	3821.417414	17004.602824
74.537000	0.129244	0.073642	0.122813	0.181844	6608.239941	36326.538471	3830.449100	16950.578134
75.037000	0.127443	0.072444	0.127135	0.181040	6599.654185	36296.254678	3842.295994	16976.678435
75.535000	0.127380	0.073830	0.126497	0.186987	6548.336046	35947.588288	3827.104189	16784.710244
76.035500	0.129822	0.073788	0.123460	0.184158	6593.307026	36160.201540	3826.626799	16875.687601
76.535500	0.127955	0.072513	0.120193	0.184026	6578.446298	36072.892270	3819.479212	16879.969998
77.035500	0.129096	0.073356	0.125382	0.185464	6575.907593	36027.457434	3828.037261	16833.617767
77.536000	0.123040	0.071610	0.122567	0.189769	6488.428891	35569.480780	3811.853632	16695.794887
78.036000	0.127180	0.071020	0.126196	0.187639	6541.112481	35685.415060	3824.922275	16763.807848
78.536000	0.129834	0.072202	0.122877	0.188668	6554.893388	35696.938318	3815.039781	16730.907945
79.037000	0.127266	0.071220	0.127682	0.188865	6531.484108	35608.133267	3825.518973	16724.626658
79.537000	0.129194	0.071789	0.124068	0.190572	6533.349030	35522.511125	3813.426610	16670.223133
80.037500	0.127438	0.071411	0.127872	0.192325	6503.833953	35363.043994	3818.070781	16614.608928
80.535000	0.129767	0.071189	0.122508	0.192207	6524.390537	35355.200524	3806.240480	16618.334803
81.035000	0.130152	0.070439	0.125634	0.192667	6523.759097	35265.012870	3812.235606	16603.786038
81.535500	0.127149	0.070986	0.125455	0.193905	6488.199636	35213.578339	3809.042692	16564.644220
82.036000	0.129709	0.069705	0.124126	0.195768	6494.027462	34980.652924	3801.895036	16505.997945
82.536000	0.128782	0.069485	0.121235	0.195270	6490.435961	35001.169379	3796.567461	16521.647605
83.036000	0.129931	0.069158	0.132034	0.196021	6493.762632	34921.664908	3819.127517	16498.038524
83.536500	0.128994	0.068302	0.124138	0.196867	6478.891133	34796.487782	3799.470735	16471.487014
84.036500	0.126990	0.067808	0.126164	0.199391	6441.419516	34575.819900	3798.363356	16392.628029
84.534000	0.128033	0.067963	0.126924	0.198584	6456.680700	34645.961865	3801.854463	16417.794866
85.034500	0.129350	0.067888	0.123006	0.199022	6463.954069	34608.517004	3792.181065	16404.126743
85.537500	0.127202	0.067999	0.131156	0.200019	6437.994571	34543.985907	3808.115559	16373.070719
86.035000	0.126773	0.067676	0.124127	0.202900	6410.866219	34311.536916	3786.110888	16283.731916
86.535500	0.128943	0.067244	0.128875	0.201740	6438.151690	34364.163491	3799.166516	16319.620606
87.036000	0.127192	0.066987	0.130527	0.202220	6419.854258	34310.943724	3801.780909	16304.778038
87.536000	0.127288	0.067350	0.126040	0.206185	6388.322081	34051.644303	3783.103625	16182.580874
88.036500	0.128165	0.066268	0.128024	0.206241	6394.989850	33970.185642	3787.332084	16180.872504
88.536500	0.129219	0.067011	0.129066	0.204216	6420.102585	34168.701906	3794.096648	16243.116150
89.037000	0.128398	0.066178	0.132702	0.205454	6403.294176	34020.089657	3799.421297	16205.030678
89.535000	0.129335	0.066738	0.129782	0.205678	6409.101102	34044.129820	3792.446209	16198.131804
90.040000	0.125729	0.065584	0.131374	0.209401	6349.801226	33696.628428	3787.750120	16084.301987
90.535500	0.129143	0.065069	0.131763	0.206424	6401.460331	33871.582474	3795.180892	16175.261984
91.035500	0.128594	0.065023	0.131306	0.206761	6394.251243	33844.299216	3793.422264	16164.928359
91.535500	0.125254	0.064590	0.127578	0.210991	6333.267231	33514.034068	3775.977227	16035.967982
92.035500	0.128471	0.065879	0.130617	0.211952	6351.327255	33537.132531	3780.502538	16006.838023
92.542000	0.128863	0.063678	0.131931	0.207948	6386.796941	33664.536749	3792.178139	16128.607440
93.036500	0.129116	0.064702	0.131896	0.208910	6381.049008	33668.899286	3789.979906	16099.251728
93.534000	0.125928	0.064730	0.132566	0.212568	6326.062441	33413.031927	3783.415572	15988.209151
94.037000	0.127857	0.063488	0.128507	0.213602	6333.205816	33253.666036	3772.332917	15957.001824
94.543000	0.129981	0.064003	0.130847	0.209837	6380.551811	33554.033031	3785.633412	16071.018801
95.035000	0.129370	0.063159	0.130731	0.210291	6371.943772	33462.689699	3784.385844	16057.236732
95.536000	0.127898	0.061987	0.131816	0.210457	6358.742080	33368.707340	3786.400595	16052.184630
96.035500	0.128096	0.062580	0.131970	0.211952	6348.318725	33305.484834	3783.458556	16006.845515
