sample name	sample
index	1435
start time	 05-10-2021  12:46:08 PM


Wavelength (nm)	Absorbance
494.344910	-0.022919
494.563924	-0.022919
494.782919	-0.022919
495.001897	0.042205
495.220856	-0.028700
495.439797	-0.031402
495.658719	-0.043106
495.877624	-0.034723
496.096510	-0.041097
496.315378	-0.033551
496.534227	-0.021393
496.753059	-0.013125
496.971872	-0.004831
497.190667	0.080256
497.409444	0.117090
497.628203	0.131174
497.846943	0.137759
498.065665	0.141477
498.284369	0.143231
498.503055	0.146357
498.721723	0.146553
498.940372	0.148801
499.159003	0.148193
499.377616	0.147567
499.596210	0.148569
499.814787	0.148321
500.033345	0.149633
500.251885	0.150349
500.470406	0.149206
500.688910	0.151272
500.907395	0.149243
501.125862	0.149143
501.344311	0.150132
501.562742	0.149996
501.781154	0.150030
501.999548	0.148554
502.217924	0.148386
502.436282	0.148149
502.654621	0.148420
502.872942	0.149965
503.091245	0.149659
503.309530	0.149520
503.527797	0.149154
503.746045	0.148677
503.964275	0.149689
504.182487	0.149261
504.400681	0.150663
504.618856	0.149726
504.837013	0.150182
505.055152	0.152186
505.273273	0.152265
505.491376	0.153480
505.709460	0.154479
505.927526	0.155066
506.145574	0.155419
506.363604	0.154534
506.581615	0.154709
506.799608	0.154946
507.017583	0.153815
507.235540	0.154115
507.453478	0.153825
507.671399	0.154324
507.889301	0.154050
508.107185	0.154304
508.325050	0.154854
508.542898	0.155231
508.760727	0.154309
508.978538	0.154959
509.196330	0.155130
509.414105	0.155090
509.631861	0.155042
509.849599	0.155390
510.067319	0.156007
510.285021	0.156148
510.502704	0.157336
510.720369	0.157589
510.938016	0.157810
511.155645	0.157069
511.373255	0.157222
511.590848	0.156733
511.808422	0.156366
512.025977	0.155964
512.243515	0.156169
512.461034	0.155630
512.678536	0.155620
512.896018	0.154932
513.113483	0.156710
513.330930	0.157592
513.548358	0.159013
513.765768	0.159695
513.983160	0.160003
514.200533	0.160286
514.417889	0.160431
514.635226	0.161266
514.852545	0.161488
515.069845	0.160517
515.287128	0.159998
515.504392	0.159935
515.721638	0.160300
515.938866	0.161440
516.156075	0.160973
516.373267	0.161336
516.590440	0.161524
516.807594	0.161970
517.024731	0.162575
517.241850	0.163213
517.458950	0.163493
517.676032	0.163303
517.893095	0.162719
518.110141	0.163617
518.327168	0.164727
518.544177	0.163758
518.761168	0.163975
518.978141	0.164804
519.195095	0.164804
519.412031	0.164889
519.628949	0.165915
519.845849	0.166166
520.062731	0.165816
520.279594	0.163961
520.496439	0.164992
520.713266	0.165126
520.930074	0.164865
521.146865	0.165337
521.363637	0.165540
521.580391	0.165295
521.797127	0.165551
522.013844	0.166334
522.230543	0.167333
522.447224	0.168109
522.663887	0.168786
522.880532	0.169316
523.097158	0.169273
523.313766	0.168323
523.530356	0.168765
523.746928	0.169647
523.963481	0.169874
524.180017	0.170137
524.396534	0.170491
524.613032	0.170990
524.829513	0.171199
525.045975	0.171876
525.262420	0.173034
525.478845	0.173139
525.695253	0.172887
525.911643	0.172612
526.128014	0.172612
526.344367	0.172600
526.560702	0.173097
526.777018	0.173397
526.993316	0.173065
527.209597	0.173329
527.425858	0.173338
527.642102	0.173873
527.858328	0.174780
528.074535	0.175640
528.290724	0.175364
528.506894	0.174963
528.723047	0.174574
528.939181	0.175462
529.155297	0.175486
529.371395	0.176496
529.587475	0.176451
529.803536	0.177155
530.019579	0.177462
530.235604	0.177521
530.451611	0.177961
530.667600	0.178358
530.883570	0.178446
531.099522	0.179234
531.315456	0.178842
531.531372	0.178626
531.747269	0.178345
531.963148	0.177748
532.179009	0.178243
532.394852	0.178699
532.610676	0.179538
532.826482	0.179965
533.042271	0.180042
533.258040	0.180491
533.473792	0.181111
533.689525	0.181413
533.905240	0.182476
534.120937	0.183257
534.336616	0.183237
534.552277	0.182830
534.767919	0.182916
534.983543	0.182959
535.199149	0.183215
535.414736	0.184131
535.630306	0.184386
535.845857	0.184296
536.061390	0.183805
536.276904	0.184103
536.492401	0.184311
536.707879	0.184329
536.923339	0.184942
537.138781	0.185265
537.354204	0.184426
537.569610	0.184534
537.784997	0.184693
538.000366	0.185718
538.215716	0.185942
538.431049	0.186347
538.646363	0.187088
538.861659	0.187319
539.076937	0.187544
539.292196	0.187750
539.507438	0.188043
539.722661	0.188771
539.937866	0.189259
540.153052	0.189195
540.368221	0.189278
540.583371	0.188920
540.798503	0.188810
541.013617	0.188918
541.228712	0.189565
541.443789	0.190137
541.658848	0.190495
541.873889	0.190041
542.088912	0.190637
542.303916	0.191547
542.518902	0.192071
542.733870	0.192508
542.948820	0.193028
543.163752	0.193975
543.378665	0.194328
543.593560	0.194131
543.808437	0.194631
544.023295	0.195259
544.238136	0.195529
544.452958	0.195598
544.667762	0.195938
544.882548	0.195062
545.097315	0.194917
545.312064	0.195103
545.526795	0.195455
545.741508	0.195085
545.956203	0.195502
546.170879	0.195576
546.385537	0.196341
546.600177	0.196280
546.814799	0.197665
547.029402	0.198066
547.243988	0.197656
547.458555	0.197548
547.673103	0.198517
547.887634	0.198502
548.102146	0.198256
548.316640	0.198094
548.531116	0.198638
548.745574	0.198575
548.960013	0.198765
549.174435	0.199245
549.388838	0.200502
549.603222	0.200214
549.817589	0.200314
550.031937	0.200544
550.246267	0.200974
550.460579	0.200619
550.674873	0.200729
550.889148	0.200728
551.103405	0.201119
551.317644	0.200564
551.531865	0.201072
551.746068	0.201592
551.960252	0.202492
552.174418	0.202886
552.388566	0.203617
552.602696	0.204021
552.816807	0.203448
553.030900	0.203568
553.244975	0.203950
553.459032	0.204205
553.673070	0.203994
553.887091	0.203978
554.101093	0.203838
554.315077	0.203940
554.529042	0.204108
554.742990	0.204852
554.956919	0.204976
555.170830	0.205101
555.384722	0.205222
555.598597	0.205718
555.812453	0.205695
556.026291	0.206374
556.240111	0.205966
556.453913	0.206171
556.667696	0.205957
556.881461	0.206327
557.095208	0.206922
557.308937	0.206706
557.522647	0.206599
557.736339	0.206778
557.950013	0.206542
558.163669	0.206758
558.377307	0.206674
558.590926	0.207200
558.804527	0.206955
559.018110	0.206379
559.231675	0.206715
559.445221	0.206620
559.658749	0.206304
559.872259	0.206131
560.085751	0.206500
560.299225	0.206401
560.512680	0.206277
560.726117	0.206592
560.939536	0.206818
561.152937	0.206851
561.366319	0.207359
561.579683	0.207921
561.793029	0.208327
562.006357	0.208843
562.219667	0.209470
562.432958	0.209621
562.646231	0.209751
562.859486	0.210055
563.072723	0.210698
563.285941	0.210627
563.499141	0.210639
563.712323	0.210773
563.925487	0.210744
564.138632	0.210849
564.351760	0.211627
564.564869	0.211657
564.777960	0.211837
564.991032	0.211405
565.204087	0.211738
565.417123	0.212083
565.630141	0.212204
565.843140	0.212427
566.056122	0.212367
566.269085	0.212098
566.482030	0.212529
566.694957	0.212488
566.907866	0.213193
567.120756	0.213190
567.333628	0.213061
567.546482	0.213049
567.759318	0.212727
567.972135	0.212954
568.184935	0.212860
568.397716	0.212802
568.610478	0.212643
568.823223	0.212356
569.035949	0.212614
569.248657	0.212472
569.461347	0.212583
569.674019	0.213022
569.886672	0.212957
570.099308	0.213584
570.311925	0.213802
570.524523	0.214279
570.737104	0.214036
570.949666	0.214038
571.162210	0.214393
571.374736	0.214941
571.587244	0.214992
571.799733	0.215164
572.012205	0.215282
572.224658	0.215471
572.437092	0.215384
572.649509	0.216174
572.861907	0.216245
573.074287	0.216553
573.286649	0.216739
573.498993	0.216888
573.711318	0.217257
573.923625	0.217307
574.135914	0.216942
574.348185	0.217476
574.560438	0.217464
574.772672	0.218088
574.984888	0.218077
575.197086	0.217733
575.409266	0.218184
575.621427	0.218056
575.833570	0.217659
576.045695	0.218299
576.257802	0.218420
576.469890	0.218286
576.681961	0.218021
576.894013	0.218365
577.106046	0.218745
577.318062	0.218589
577.530059	0.219087
577.742039	0.219883
577.954000	0.219943
578.165942	0.219631
578.377867	0.219954
578.589773	0.220118
578.801661	0.220145
579.013531	0.220120
579.225382	0.220435
579.437216	0.220367
579.649031	0.220273
579.860828	0.220371
580.072606	0.220762
580.284367	0.220901
580.496109	0.221157
580.707833	0.221645
580.919539	0.221916
581.131227	0.222085
581.342896	0.221991
581.554547	0.222556
581.766180	0.222849
581.977795	0.223082
582.189391	0.222943
582.400969	0.223186
582.612529	0.223321
582.824071	0.223811
583.035595	0.223737
583.247100	0.224310
583.458587	0.224024
583.670056	0.223940
583.881506	0.224271
584.092939	0.224809
584.304353	0.224900
584.515749	0.224922
584.727127	0.224556
584.938486	0.224884
585.149828	0.225182
585.361151	0.225536
585.572456	0.226000
585.783742	0.226281
585.995011	0.226698
586.206261	0.226661
586.417493	0.227133
586.628706	0.227487
586.839902	0.227715
587.051079	0.227811
587.262238	0.228140
587.473379	0.228137
587.684502	0.228019
587.895606	0.228158
588.106692	0.228305
588.317760	0.228005
588.528810	0.228273
588.739841	0.228960
588.950855	0.228975
589.161850	0.228958
589.372827	0.229077
589.583785	0.229356
589.794726	0.229306
590.005648	0.229987
590.216552	0.230478
590.427437	0.230853
590.638305	0.230476
590.849154	0.230577
591.059985	0.230917
591.270798	0.231090
591.481592	0.231159
591.692369	0.231425
591.903127	0.231380
592.113867	0.231255
592.324588	0.231054
592.535292	0.230919
592.745977	0.231088
592.956644	0.231200
593.167293	0.231369
593.377923	0.231172
593.588536	0.231013
593.799130	0.230723
594.009706	0.231089
594.220263	0.230625
594.430803	0.230600
594.641324	0.230800
594.851827	0.230669
595.062312	0.230445
595.272778	0.230986
595.483227	0.231299
595.693657	0.231381
595.904069	0.231218
596.114462	0.231603
596.324838	0.231845
596.535195	0.231771
596.745534	0.232089
596.955855	0.232221
597.166157	0.232248
597.376441	0.232249
597.586707	0.232599
597.796955	0.232937
598.007185	0.233285
598.217396	0.233687
598.427589	0.233925
598.637764	0.233986
598.847921	0.234072
599.058060	0.234468
599.268180	0.234665
599.478282	0.235068
599.688366	0.234863
599.898431	0.235256
600.108479	0.235193
600.318508	0.235299
600.528519	0.235322
600.738511	0.235814
600.948486	0.235681
601.158442	0.235724
601.368380	0.235420
601.578300	0.235718
601.788202	0.235762
601.998085	0.236024
602.207950	0.235941
602.417797	0.235987
602.627626	0.235888
602.837436	0.236074
603.047228	0.236304
603.257002	0.236612
603.466758	0.236857
603.676496	0.236517
603.886215	0.236602
604.095916	0.236759
604.305599	0.237064
604.515264	0.237447
604.724910	0.237390
604.934538	0.237407
605.144148	0.237444
605.353740	0.237420
605.563314	0.237839
605.772869	0.237929
605.982406	0.238384
606.191925	0.238522
606.401425	0.238549
606.610908	0.238708
606.820372	0.238919
607.029818	0.239056
607.239246	0.239480
607.448655	0.240402
607.658047	0.240869
607.867420	0.241104
608.076775	0.241346
608.286111	0.241414
608.495430	0.241740
608.704730	0.241988
608.914012	0.242038
609.123275	0.242211
609.332521	0.241615
609.541748	0.241533
609.750957	0.241576
609.960148	0.241230
610.169321	0.240951
610.378475	0.240848
610.587611	0.240940
610.796729	0.241186
611.005829	0.241044
611.214910	0.241421
611.423974	0.241630
611.633019	0.241629
611.842045	0.242141
612.051054	0.242788
612.260044	0.243168
612.469017	0.243089
612.677970	0.243208
612.886906	0.243449
613.095824	0.243310
613.304723	0.243216
613.513604	0.243165
613.722467	0.243145
613.931311	0.243119
614.140138	0.242973
614.348946	0.243595
614.557736	0.243704
614.766507	0.243867
614.975261	0.244218
615.183996	0.244535
615.392713	0.244768
615.601412	0.245132
615.810092	0.245690
616.018754	0.246062
616.227399	0.245933
616.436024	0.245985
616.644632	0.246197
616.853222	0.246100
617.061793	0.246274
617.270346	0.246285
617.478880	0.246475
617.687397	0.246351
617.895895	0.246415
618.104375	0.246670
618.312837	0.246906
618.521281	0.246851
618.729706	0.247398
618.938113	0.247218
619.146502	0.247551
619.354873	0.247561
619.563226	0.247847
619.771560	0.248033
619.979876	0.248180
620.188174	0.248195
620.396453	0.248558
620.604715	0.248289
620.812958	0.248779
621.021183	0.248824
621.229390	0.248796
621.437578	0.248573
621.645748	0.248689
621.853900	0.248471
622.062034	0.248620
622.270150	0.248641
622.478247	0.248559
622.686326	0.248489
622.894387	0.248585
623.102430	0.248834
623.310454	0.249234
623.518461	0.249434
623.726449	0.249549
623.934418	0.249592
624.142370	0.249367
624.350303	0.249852
624.558218	0.250287
624.766115	0.250475
624.973994	0.250325
625.181855	0.250274
625.389697	0.250123
625.597521	0.250321
625.805327	0.250444
626.013114	0.250671
626.220883	0.250482
626.428634	0.250003
626.636367	0.249952
626.844082	0.250303
627.051778	0.250495
627.259457	0.250829
627.467117	0.250849
627.674758	0.250850
627.882382	0.250823
628.089987	0.250924
628.297574	0.251318
628.505143	0.251428
628.712694	0.251523
628.920226	0.251679
629.127740	0.251732
629.335236	0.252246
629.542714	0.252554
629.750174	0.253035
629.957615	0.253152
630.165038	0.253359
630.372443	0.253649
630.579829	0.253817
630.787198	0.253900
630.994548	0.253668
631.201880	0.253593
631.409194	0.253594
631.616489	0.253216
631.823766	0.253267
632.031025	0.253248
632.238266	0.253394
632.445489	0.253517
632.652693	0.253722
632.859879	0.254002
633.067047	0.253831
633.274197	0.254325
633.481329	0.254718
633.688442	0.255301
633.895537	0.255689
634.102614	0.255848
634.309672	0.255546
634.516713	0.255691
634.723735	0.256007
634.930739	0.256373
635.137724	0.256049
635.344692	0.256377
635.551641	0.256507
635.758572	0.256755
635.965485	0.256873
636.172379	0.257405
636.379256	0.257574
636.586114	0.257611
636.792954	0.257890
636.999775	0.258378
637.206579	0.258251
637.413364	0.258414
637.620131	0.258199
637.826880	0.258339
638.033610	0.258768
638.240323	0.258808
638.447017	0.259058
638.653692	0.259197
638.860350	0.259405
639.066990	0.259925
639.273611	0.260028
639.480214	0.260455
639.686798	0.260899
639.893365	0.260784
640.099913	0.261018
640.306443	0.261171
640.512955	0.261194
640.719449	0.261513
640.925924	0.261670
641.132381	0.261594
641.338820	0.261275
641.545241	0.261197
641.751644	0.261300
641.958028	0.261561
642.164394	0.261733
642.370742	0.261922
642.577071	0.261676
642.783383	0.261663
642.989676	0.261973
643.195951	0.262396
643.402207	0.262368
643.608446	0.262592
643.814666	0.262526
644.020868	0.262578
644.227052	0.263014
644.433218	0.263199
644.639365	0.263286
644.845494	0.263609
645.051605	0.264016
645.257698	0.264122
645.463772	0.264308
645.669828	0.264225
645.875866	0.264504
646.081886	0.264513
646.287888	0.264615
646.493871	0.264713
646.699836	0.264776
646.905783	0.264385
647.111712	0.264602
647.317622	0.264578
647.523514	0.264941
647.729388	0.264776
647.935244	0.264790
648.141082	0.265064
648.346901	0.265110
648.552702	0.264873
648.758485	0.265273
648.964250	0.265222
649.169996	0.265440
649.375724	0.265375
649.581434	0.265521
649.787126	0.265473
649.992800	0.265690
650.198455	0.265982
650.404092	0.266352
650.609711	0.266324
650.815311	0.266622
651.020894	0.266583
651.226458	0.267029
651.432004	0.267273
651.637532	0.267680
651.843041	0.267647
652.048532	0.267605
652.254006	0.267325
652.459460	0.267558
652.664897	0.267391
652.870315	0.267629
653.075716	0.267651
653.281097	0.267928
653.486461	0.268111
653.691807	0.268199
653.897134	0.268715
654.102443	0.269316
654.307734	0.269603
654.513006	0.270258
654.718261	0.270605
654.923497	0.270811
655.128715	0.270870
655.333915	0.271064
655.539096	0.271498
655.744259	0.271597
655.949404	0.271707
656.154531	0.271685
656.359640	0.271787
656.564730	0.271595
656.769802	0.271501
656.974856	0.271608
657.179892	0.271535
657.384909	0.271512
657.589908	0.271471
657.794889	0.271541
657.999852	0.271851
658.204797	0.271971
658.409723	0.272373
658.614631	0.272931
658.819521	0.273037
659.024393	0.273119
659.229246	0.273410
659.434081	0.273552
659.638898	0.274043
659.843697	0.274175
660.048478	0.274256
660.253240	0.274278
660.457984	0.274449
660.662710	0.274675
660.867417	0.275178
661.072107	0.275210
661.276778	0.275458
661.481431	0.275384
661.686066	0.275527
661.890682	0.275730
662.095281	0.276027
662.299861	0.276084
662.504422	0.276287
662.708966	0.276127
662.913491	0.276175
663.117999	0.276142
663.322488	0.276150
663.526958	0.276334
663.731411	0.276264
663.935845	0.276267
664.140261	0.276300
664.344659	0.276299
664.549038	0.276699
664.753400	0.277015
664.957743	0.277374
665.162068	0.277603
665.366375	0.277697
665.570663	0.278000
665.774933	0.278190
665.979185	0.278399
666.183419	0.278858
666.387635	0.278780
666.591832	0.278832
666.796011	0.279091
667.000172	0.279207
667.204315	0.279333
667.408439	0.279427
667.612545	0.279619
667.816634	0.279727
668.020703	0.279725
668.224755	0.279903
668.428788	0.279753
668.632803	0.279756
668.836800	0.279826
669.040779	0.280074
669.244739	0.280288
669.448681	0.280335
669.652605	0.280644
669.856511	0.280876
670.060399	0.281037
670.264268	0.281553
670.468119	0.281763
670.671952	0.282191
670.875767	0.282351
671.079563	0.282635
671.283341	0.282997
671.487101	0.283104
671.690843	0.283238
671.894567	0.283583
672.098272	0.283794
672.301959	0.284024
672.505628	0.284136
672.709278	0.284329
672.912911	0.284404
673.116525	0.284546
673.320121	0.284750
673.523699	0.284743
673.727258	0.284660
673.930799	0.285016
674.134322	0.285128
674.337827	0.285294
674.541314	0.285328
674.744782	0.285709
674.948232	0.285940
675.151664	0.285899
675.355078	0.286327
675.558474	0.286655
675.761851	0.286656
675.965210	0.286950
676.168551	0.287081
676.371873	0.287251
676.575178	0.287230
676.778464	0.287208
676.981732	0.287261
677.184981	0.287353
677.388213	0.287668
677.591426	0.287839
677.794621	0.287820
677.997798	0.288054
678.200956	0.288475
678.404097	0.288839
678.607219	0.289262
678.810323	0.289856
679.013408	0.289899
679.216476	0.290069
679.419525	0.290377
679.622556	0.290740
679.825569	0.290705
680.028563	0.290739
680.231540	0.290912
680.434498	0.290977
680.637438	0.291015
680.840359	0.291272
681.043263	0.291217
681.246148	0.291350
681.449015	0.291432
681.651864	0.291757
681.854694	0.291967
682.057506	0.291915
682.260301	0.291809
682.463076	0.291993
682.665834	0.291995
682.868573	0.292288
683.071295	0.292160
683.273998	0.292264
683.476682	0.292380
683.679349	0.292455
683.881997	0.292736
684.084627	0.293041
684.287239	0.292953
684.489833	0.293520
684.692408	0.293568
684.894965	0.294095
685.097504	0.294178
685.300025	0.294384
685.502527	0.294239
685.705012	0.294331
685.907478	0.294460
686.109925	0.294791
686.312355	0.294615
686.514766	0.294671
686.717159	0.294498
686.919534	0.294712
687.121891	0.294886
687.324230	0.295449
687.526550	0.295303
687.728852	0.295327
687.931136	0.295293
688.133401	0.295373
688.335649	0.295701
688.537878	0.295669
688.740089	0.295671
688.942281	0.295821
689.144456	0.295735
689.346612	0.296027
689.548750	0.296196
689.750870	0.296542
689.952971	0.296778
690.155055	0.297016
690.357120	0.297340
690.559167	0.297754
690.761195	0.297790
690.963206	0.297890
691.165198	0.298096
691.367172	0.298437
691.569128	0.298412
691.771065	0.298426
691.972984	0.298424
692.174885	0.298728
692.376768	0.298839
692.578633	0.298934
692.780479	0.299373
692.982308	0.299652
693.184118	0.299839
693.385909	0.300222
693.587683	0.300628
693.789438	0.300699
693.991175	0.300615
694.192894	0.300805
694.394595	0.301205
694.596277	0.301392
694.797941	0.301576
694.999587	0.301929
695.201215	0.301856
695.402824	0.301845
695.604416	0.301941
695.805989	0.302240
696.007543	0.302169
696.209080	0.301985
696.410598	0.301862
696.612099	0.301965
696.813580	0.301641
697.015044	0.301866
697.216490	0.302187
697.417917	0.302312
697.619326	0.302414
697.820717	0.302758
698.022089	0.303153
698.223444	0.303415
698.424780	0.303391
698.626098	0.303777
698.827397	0.303752
699.028679	0.303687
699.229942	0.303880
699.431187	0.303730
699.632414	0.303421
699.833622	0.303160
700.034813	0.302945
700.235985	0.302999
700.437139	0.302881
700.638274	0.303007
700.839392	0.303080
701.040491	0.303183
701.241572	0.303733
701.442635	0.304110
701.643679	0.304473
701.844706	0.304789
702.045714	0.304789
702.246704	0.304802
702.447675	0.304926
702.648629	0.305208
702.849564	0.305270
703.050481	0.305137
703.251380	0.305165
703.452260	0.305056
703.653122	0.305190
703.853966	0.305422
704.054792	0.305722
704.255600	0.305733
704.456389	0.305539
704.657160	0.305582
704.857913	0.305671
705.058648	0.305845
705.259365	0.306021
705.460063	0.305665
705.660743	0.305805
705.861405	0.305778
706.062048	0.305714
706.262674	0.305942
706.463281	0.306058
706.663870	0.305945
706.864441	0.305558
707.064993	0.305790
707.265527	0.306015
707.466043	0.305936
707.666541	0.305868
707.867021	0.306149
708.067482	0.305748
708.267925	0.305859
708.468350	0.305641
708.668757	0.305737
708.869145	0.305443
709.069516	0.305351
709.269868	0.305397
709.470201	0.305494
709.670517	0.305506
709.870814	0.305760
710.071093	0.305635
710.271354	0.305692
710.471597	0.305687
710.671821	0.305877
710.872028	0.306049
711.072216	0.306072
711.272385	0.306139
711.472537	0.306079
711.672670	0.306162
711.872785	0.306098
712.072882	0.306387
712.272961	0.306925
712.473021	0.306780
712.673063	0.306940
712.873087	0.306936
713.073093	0.307058
713.273081	0.307241
713.473050	0.307472
713.673001	0.307513
713.872934	0.307734
714.072849	0.307536
714.272745	0.307763
714.472623	0.307978
714.672483	0.308125
714.872325	0.308062
715.072148	0.308185
715.271954	0.308365
715.471741	0.308660
715.671509	0.308722
715.871260	0.308757
716.070992	0.308982
716.270707	0.308848
716.470403	0.308796
716.670080	0.308841
716.869740	0.308703
717.069381	0.308689
717.269004	0.308606
717.468609	0.308413
717.668195	0.308245
717.867764	0.307852
718.067314	0.307774
718.266846	0.307791
718.466360	0.307660
718.665855	0.307716
718.865332	0.307399
719.064791	0.307160
719.264232	0.307004
719.463655	0.307000
719.663059	0.306868
719.862445	0.306753
720.061813	0.306483
720.261163	0.306497
720.460494	0.306537
720.659807	0.306564
720.859102	0.306613
721.058379	0.306840
721.257638	0.306704
721.456878	0.306950
721.656100	0.306853
721.855304	0.307051
722.054490	0.307121
722.253657	0.306980
722.452806	0.306763
722.651937	0.306754
722.851050	0.306362
723.050145	0.306270
723.249221	0.306149
723.448279	0.305943
723.647319	0.305664
723.846340	0.305252
724.045344	0.304942
724.244329	0.304795
724.443296	0.304444
724.642245	0.304158
724.841175	0.304172
725.040088	0.303941
725.238982	0.303896
725.437857	0.303843
725.636715	0.303773
725.835554	0.303691
726.034376	0.303596
726.233179	0.303697
726.431963	0.303913
726.630730	0.303796
726.829478	0.303570
727.028208	0.303331
727.226920	0.302917
727.425614	0.303047
727.624289	0.303052
727.822946	0.303145
728.021585	0.302807
728.220206	0.302540
728.418808	0.302256
728.617392	0.302320
728.815958	0.302328
729.014506	0.302418
729.213036	0.302016
729.411547	0.301357
729.610040	0.301209
729.808515	0.301122
730.006972	0.301187
730.205410	0.301076
730.403831	0.300694
730.602233	0.300508
730.800616	0.300017
730.998982	0.299792
731.197329	0.299788
731.395658	0.299511
731.593969	0.299416
731.792262	0.299022
731.990536	0.298952
732.188793	0.299032
732.387031	0.298944
732.585250	0.299336
732.783452	0.299265
732.981635	0.299321
733.179800	0.299214
733.377947	0.299047
733.576076	0.299058
733.774186	0.299016
733.972278	0.298963
734.170352	0.298805
734.368408	0.298445
734.566446	0.298305
734.764465	0.297979
734.962466	0.297707
735.160449	0.297656
735.358413	0.297404
735.556360	0.297013
735.754288	0.296703
735.952198	0.296427
736.150090	0.296459
736.347963	0.296127
736.545818	0.296008
736.743655	0.296004
736.941474	0.295647
737.139275	0.295444
737.337057	0.295503
737.534821	0.295158
737.732567	0.295037
737.930295	0.294893
738.128005	0.294846
738.325696	0.294480
738.523369	0.294280
738.721024	0.294286
738.918660	0.294115
739.116279	0.293972
739.313879	0.293947
739.511461	0.294049
739.709024	0.293802
739.906570	0.293963
740.104097	0.294176
740.301606	0.293932
740.499097	0.293904
740.696569	0.294034
740.894024	0.293948
741.091460	0.293826
741.288878	0.293475
741.486277	0.293320
741.683659	0.293134
741.881022	0.292946
742.078367	0.292879
742.275694	0.292302
742.473002	0.292050
742.670293	0.291564
742.867565	0.291506
743.064819	0.291588
743.262054	0.291308
743.459272	0.290963
743.656471	0.290752
743.853652	0.290519
744.050815	0.290606
744.247959	0.290396
744.445085	0.290698
744.642194	0.290427
744.839283	0.290190
745.036355	0.290217
745.233408	0.290346
745.430444	0.290455
745.627461	0.290624
745.824459	0.290829
746.021440	0.290671
746.218402	0.290331
746.415346	0.290130
746.612272	0.289807
746.809180	0.289730
747.006069	0.289762
747.202940	0.289490
747.399793	0.289071
747.596628	0.288620
747.793444	0.288757
747.990243	0.288848
748.187023	0.288796
748.383784	0.288872
748.580528	0.288628
748.777253	0.288341
748.973960	0.288117
749.170649	0.288207
749.367320	0.288333
749.563973	0.288000
749.760607	0.287538
749.957223	0.287581
750.153821	0.287408
750.350400	0.287356
750.546962	0.286928
750.743505	0.286811
750.940030	0.286643
751.136536	0.286023
751.333025	0.285753
751.529495	0.285664
751.725947	0.285323
751.922381	0.285066
752.118796	0.284815
752.315194	0.284881
752.511573	0.284801
752.707934	0.284426
752.904276	0.284364
753.100601	0.284290
753.296907	0.284243
753.493195	0.284092
753.689465	0.283900
753.885716	0.283800
754.081949	0.283737
754.278164	0.283711
754.474361	0.283803
754.670540	0.283967
754.866700	0.283615
755.062843	0.283457
755.258967	0.283551
755.455072	0.283416
755.651160	0.283515
755.847229	0.283224
756.043280	0.282833
756.239313	0.282526
756.435328	0.282202
756.631324	0.282547
756.827302	0.282359
757.023262	0.282130
757.219204	0.282109
757.415127	0.281574
757.611033	0.281503
757.806920	0.281131
758.002788	0.280866
758.198639	0.281020
758.394471	0.280476
758.590286	0.280236
758.786081	0.280096
758.981859	0.280011
759.177619	0.280259
759.373360	0.279993
759.569083	0.279960
759.764788	0.280051
759.960474	0.279825
760.156143	0.279845
760.351793	0.279912
760.547425	0.279817
760.743038	0.279657
760.938634	0.279226
761.134211	0.279140
761.329770	0.279389
761.525311	0.279000
761.720833	0.278473
761.916338	0.278393
762.111824	0.278259
762.307292	0.278031
762.502741	0.277752
762.698173	0.277755
762.893586	0.277757
763.088981	0.277531
763.284358	0.277801
763.479716	0.278278
763.675057	0.278244
763.870379	0.278201
764.065683	0.278147
764.260968	0.278325
764.456236	0.278214
764.651485	0.278053
764.846716	0.278255
765.041929	0.278319
765.237123	0.278365
765.432299	0.278307
765.627457	0.278221
765.822597	0.278486
766.017719	0.278556
766.212822	0.278529
766.407907	0.278810
766.602974	0.278482
766.798023	0.278236
766.993054	0.277802
767.188066	0.277676
767.383060	0.277748
767.578036	0.277200
767.772993	0.276831
767.967933	0.276481
768.162854	0.275953
768.357757	0.275955
768.552642	0.275495
768.747508	0.275300
768.942356	0.275103
769.137186	0.274846
769.331998	0.274825
769.526792	0.274788
769.721567	0.274837
769.916324	0.274842
770.111063	0.274596
770.305784	0.274864
770.500486	0.274805
770.695171	0.275034
770.889837	0.275020
771.084484	0.274870
771.279114	0.274800
771.473725	0.274943
771.668318	0.275041
771.862893	0.274999
772.057450	0.274926
772.251988	0.275114
772.446509	0.274841
772.641011	0.274664
772.835494	0.274571
773.029960	0.274785
773.224407	0.274480
773.418836	0.274147
773.613247	0.274166
773.807640	0.273771
774.002014	0.273500
774.196370	0.273416
774.390708	0.273565
774.585028	0.273401
774.779330	0.273065
774.973613	0.273168
775.167878	0.273184
775.362125	0.272915
775.556354	0.273058
775.750564	0.273033
775.944756	0.272819
776.138930	0.272809
776.333086	0.273285
776.527223	0.273420
776.721343	0.273260
776.915444	0.273377
777.109526	0.273842
777.303591	0.273877
777.497637	0.273947
777.691666	0.274165
777.885676	0.273996
778.079667	0.273811
778.273641	0.273741
778.467596	0.274106
778.661533	0.273997
778.855452	0.273854
779.049352	0.273830
779.243235	0.273850
779.437099	0.273918
779.630945	0.273793
779.824773	0.273977
780.018582	0.274116
780.212373	0.273666
780.406146	0.273677
780.599901	0.273566
780.793638	0.273741
780.987356	0.273566
781.181056	0.273487
781.374738	0.273486
781.568402	0.273190
781.762047	0.272970
781.955674	0.273007
782.149283	0.272897
782.342874	0.272812
782.536447	0.272745
782.730001	0.272669
782.923537	0.273020
783.117055	0.273047
783.310555	0.273297
783.504036	0.273377
783.697499	0.273542
783.890944	0.273657
784.084371	0.273886
784.277780	0.274068
784.471170	0.274432
784.664542	0.274260
784.857896	0.274484
785.051231	0.274539
785.244549	0.274574
785.437848	0.274626
785.631129	0.274862
785.824392	0.274794
786.017636	0.274748
786.210863	0.274851
786.404071	0.274482
786.597260	0.274573
786.790432	0.274852
786.983585	0.275294
787.176721	0.275750
787.369838	0.275973
787.562936	0.276320
787.756017	0.276759
787.949079	0.276311
788.142123	0.276774
788.335149	0.276812
788.528156	0.276618
788.721146	0.276457
788.914117	0.276225
789.107070	0.275872
789.300005	0.275770
789.492921	0.275553
789.685819	0.276042
789.878699	0.276201
790.071561	0.276211
790.264405	0.276437
790.457230	0.276389
790.650037	0.276384
790.842826	0.276837
791.035597	0.276669
791.228349	0.276965
791.421084	0.277277
791.613800	0.277172
791.806497	0.277199
791.999177	0.276918
792.191838	0.276866
792.384481	0.277086
792.577106	0.277042
792.769713	0.277368
792.962301	0.277183
793.154871	0.277034
793.347423	0.277205
793.539957	0.277579
793.732473	0.277948
793.924970	0.278437
794.117449	0.278513
794.309910	0.278627
794.502353	0.278990
794.694777	0.279011
794.887183	0.279539
795.079571	0.279757
795.271941	0.279847
795.464293	0.279985
795.656626	0.279834
795.848941	0.280040
796.041238	0.280499
796.233516	0.280381
796.425777	0.280672
796.618019	0.280597
796.810243	0.280712
797.002449	0.280837
797.194636	0.281142
797.386805	0.281551
797.578956	0.281714
797.771089	0.281833
797.963204	0.281990
798.155300	0.282371
798.347378	0.282489
798.539438	0.282737
798.731480	0.282934
798.923503	0.283380
799.115509	0.283597
799.307496	0.283764
799.499465	0.283830
799.691415	0.284234
799.883348	0.284201
800.075262	0.284456
800.267158	0.284810
800.459035	0.284962
800.650895	0.284671
800.842736	0.284676
801.034559	0.284858
801.226364	0.284963
801.418150	0.285059
801.609919	0.285217
801.801669	0.285285
801.993401	0.285574
802.185114	0.285822
802.376810	0.286257
802.568487	0.286789
802.760146	0.287081
802.951787	0.287508
803.143409	0.287750
803.335014	0.288122
803.526600	0.288507
803.718168	0.288528
803.909717	0.288661
804.101249	0.288622
804.292762	0.288771
804.484257	0.289022
804.675734	0.289061
804.867192	0.289413
805.058632	0.289707
805.250054	0.289755
805.441458	0.290205
805.632844	0.290269
805.824211	0.290738
806.015561	0.290977
806.206891	0.291235
806.398204	0.291574
806.589499	0.292019
806.780775	0.292229
806.972033	0.292537
807.163273	0.292726
807.354495	0.293460
807.545698	0.293605
807.736883	0.294007
807.928050	0.294577
808.119199	0.294912
808.310329	0.294955
808.501441	0.294966
808.692535	0.295380
808.883611	0.295543
809.074669	0.295434
809.265708	0.295735
809.456729	0.295850
809.647732	0.295956
809.838717	0.296154
810.029683	0.296730
810.220632	0.297141
810.411562	0.297618
810.602474	0.298101
810.793367	0.298551
810.984242	0.298896
811.175100	0.299307
811.365938	0.299333
811.556759	0.299566
811.747562	0.299566
811.938346	0.300131
812.129112	0.300283
812.319860	0.300477
812.510589	0.301018
812.701300	0.301479
812.891994	0.301567
813.082668	0.302177
813.273325	0.302649
813.463964	0.302977
813.654584	0.303141
813.845186	0.303563
814.035769	0.303955
814.226335	0.304077
814.416882	0.304235
814.607411	0.304921
814.797922	0.305068
814.988415	0.305209
815.178889	0.305559
815.369345	0.305866
815.559783	0.306204
815.750203	0.306291
815.940605	0.306774
816.130988	0.306983
816.321353	0.307080
816.511700	0.307420
816.702028	0.308439
816.892339	0.308826
817.082631	0.309303
817.272905	0.309393
817.463161	0.309836
817.653398	0.309895
817.843617	0.310181
818.033819	0.310412
818.224001	0.310619
818.414166	0.310406
818.604312	0.310488
818.794440	0.310657
818.984550	0.310648
819.174642	0.310698
819.364716	0.311083
819.554771	0.311342
819.744808	0.311545
819.934827	0.311893
820.124827	0.312018
820.314810	0.312289
820.504774	0.312678
820.694720	0.313288
820.884647	0.313654
821.074557	0.314159
821.264448	0.314643
821.454321	0.315073
821.644176	0.315411
821.834012	0.315884
822.023831	0.316173
822.213631	0.316154
822.403413	0.316516
822.593176	0.316903
822.782922	0.317128
822.972649	0.317530
823.162358	0.317807
823.352049	0.318263
823.541721	0.318504
823.731376	0.319300
823.921012	0.319955
824.110629	0.320217
824.300229	0.320905
824.489811	0.320903
824.679374	0.321042
824.868919	0.321385
825.058445	0.321530
825.247954	0.321815
825.437444	0.321644
825.626916	0.322151
825.816370	0.322372
826.005806	0.322551
826.195223	0.323012
826.384622	0.323474
826.574003	0.323804
826.763366	0.324265
826.952711	0.324713
827.142037	0.325275
827.331345	0.325409
827.520635	0.326050
827.709906	0.326094
827.899160	0.326551
828.088395	0.326954
828.277612	0.327347
828.466810	0.327637
828.655991	0.327828
828.845153	0.327710
829.034297	0.327739
829.223423	0.327721
829.412531	0.328306
829.601620	0.328929
829.790691	0.329280
829.979744	0.329629
830.168779	0.329926
830.357795	0.330094
830.546793	0.330865
830.735773	0.331478
830.924735	0.331947
831.113679	0.332046
831.302604	0.332340
831.491511	0.332513
831.680400	0.333043
831.869271	0.333428
832.058123	0.334270
832.246957	0.334545
832.435773	0.334920
832.624571	0.335206
832.813351	0.335665
833.002112	0.335767
833.190855	0.336413
833.379580	0.336539
833.568287	0.337100
833.756975	0.337142
833.945645	0.337739
834.134297	0.337804
834.322931	0.338170
834.511547	0.338863
834.700144	0.339372
834.888723	0.339416
835.077284	0.339672
835.265826	0.339841
835.454351	0.340211
835.642857	0.340207
835.831345	0.340714
836.019815	0.341385
836.208266	0.341319
836.396699	0.341248
836.585114	0.341756
836.773511	0.342212
836.961890	0.342666
837.150250	0.343266
837.338592	0.344419
837.526916	0.344970
837.715222	0.345343
837.903510	0.345939
838.091779	0.346526
838.280030	0.347062
838.468263	0.347875
838.656477	0.348451
838.844674	0.348832
839.032852	0.348794
839.221012	0.349111
839.409153	0.349628
839.597277	0.349992
839.785382	0.350563
839.973469	0.350858
840.161538	0.351148
840.349589	0.351346
840.537621	0.351709
840.725635	0.351917
840.913631	0.352415
841.101609	0.352863
841.289568	0.353343
841.477509	0.354043
841.665432	0.354740
841.853337	0.355140
842.041224	0.355588
842.229092	0.356217
842.416942	0.357007
842.604774	0.357616
842.792588	0.357682
842.980383	0.358229
843.168160	0.358387
843.355919	0.358574
843.543660	0.358778
843.731382	0.359562
843.919087	0.360067
844.106773	0.360158
844.294441	0.360826
844.482090	0.361552
844.669722	0.361768
844.857335	0.362166
845.044930	0.362739
845.232507	0.363071
845.420065	0.363514
845.607605	0.363619
845.795127	0.364275
845.982631	0.364582
846.170117	0.364892
846.357584	0.365555
846.545033	0.366309
846.732464	0.366660
846.919877	0.367587
847.107272	0.368154
847.294648	0.368884
847.482006	0.369307
847.669346	0.369430
847.856667	0.369980
848.043971	0.370029
848.231256	0.370034
848.418523	0.370317
848.605771	0.370378
848.793002	0.370215
848.980214	0.370644
849.167408	0.370840
849.354584	0.371365
849.541742	0.371350
849.728881	0.371954
849.916002	0.372546
850.103105	0.372614
850.290190	0.373146
850.477256	0.373406
850.664304	0.373407
850.851334	0.374162
851.038346	0.374482
851.225340	0.375087
851.412315	0.375378
851.599272	0.375926
851.786211	0.376790
851.973132	0.377183
852.160034	0.378192
852.346918	0.379107
852.533784	0.379511
852.720632	0.379889
852.907462	0.380609
853.094273	0.381307
853.281066	0.381542
853.467841	0.381977
853.654598	0.382141
853.841336	0.381987
854.028056	0.381825
854.214758	0.381678
854.401442	0.382270
854.588107	0.382473
854.774755	0.382475
854.961384	0.382785
855.147995	0.383112
855.334587	0.383828
855.521162	0.384536
855.707718	0.385351
855.894256	0.385889
856.080775	0.385924
856.267277	0.386197
856.453760	0.386719
856.640225	0.387085
856.826672	0.387575
857.013101	0.387734
857.199511	0.387995
857.385903	0.388019
857.572277	0.388388
857.758633	0.389040
857.944970	0.389633
858.131290	0.390084
858.317591	0.390291
858.503873	0.390528
858.690138	0.390897
858.876384	0.391205
859.062612	0.391523
859.248822	0.391816
859.435014	0.391970
859.621188	0.392037
859.807343	0.392356
859.993480	0.393222
860.179599	0.393420
860.365699	0.393885
860.551781	0.393799
860.737846	0.393983
860.923891	0.394426
861.109919	0.394832
861.295929	0.395243
861.481920	0.395505
861.667893	0.395429
861.853848	0.396326
862.039784	0.396400
862.225702	0.397247
862.411603	0.398072
862.597484	0.398296
862.783348	0.398780
862.969193	0.399163
863.155021	0.399530
863.340830	0.400143
863.526620	0.400050
863.712393	0.400299
863.898147	0.400734
864.083883	0.401178
864.269601	0.401829
864.455301	0.402145
864.640982	0.402984
864.826645	0.403808
865.012290	0.404050
865.197917	0.404086
865.383526	0.405246
865.569116	0.405266
865.754688	0.405303
865.940242	0.405473
866.125777	0.406149
866.311295	0.406332
866.496794	0.406186
866.682275	0.406076
866.867737	0.406929
867.053182	0.406322
867.238608	0.406605
867.424016	0.406766
867.609406	0.407421
867.794778	0.407081
867.980131	0.406775
868.165466	0.406963
868.350783	0.407719
868.536082	0.407793
868.721362	0.408111
868.906625	0.408585
869.091869	0.409141
869.277094	0.409000
869.462302	0.409513
869.647491	0.410422
869.832662	0.411018
870.017815	0.410949
870.202950	0.410946
870.388066	0.411517
870.573165	0.411550
870.758245	0.411758
870.943306	0.411760
871.128350	0.411754
871.313375	0.411847
871.498382	0.412282
871.683371	0.413276
871.868342	0.413744
872.053294	0.414349
872.238229	0.414959
872.423144	0.415500
872.608042	0.416099
872.792922	0.416657
872.977783	0.416637
873.162626	0.416783
873.347451	0.416570
873.532258	0.417228
873.717046	0.416926
873.901816	0.417452
874.086568	0.417183
874.271302	0.417703
874.456017	0.418388
874.640715	0.418560
874.825394	0.418615
875.010055	0.418949
875.194697	0.418743
875.379322	0.419143
875.563928	0.418914
875.748516	0.419535
875.933085	0.419556
876.117637	0.419346
876.302170	0.420128
876.486685	0.420705
876.671182	0.421322
876.855661	0.422359
877.040121	0.422502
877.224563	0.423211
877.408987	0.422885
877.593393	0.423245
877.777780	0.423577
877.962150	0.423377
878.146501	0.423432
878.330833	0.422761
878.515148	0.422190
878.699444	0.422560
878.883722	0.422402
879.067982	0.422729
879.252224	0.423105
879.436447	0.423018
879.620653	0.422965
879.804840	0.423217
879.989008	0.423972
880.173159	0.423909
880.357291	0.424150
880.541405	0.424296
880.725501	0.424979
880.909579	0.424620
881.093638	0.424411
881.277680	0.424775
881.461703	0.424724
881.645707	0.424804
881.829694	0.425239
882.013662	0.425367
882.197612	0.425384
882.381544	0.425279
882.565458	0.425378
882.749353	0.425997
882.933230	0.425675
883.117089	0.425215
883.300930	0.425239
883.484753	0.425294
883.668557	0.425361
883.852343	0.425570
884.036111	0.425426
884.219861	0.425683
884.403592	0.426010
884.587305	0.426284
884.771000	0.426680
884.954677	0.426541
885.138335	0.427362
885.321976	0.427688
885.505598	0.427835
885.689201	0.427861
885.872787	0.427479
886.056354	0.426989
886.239904	0.427504
886.423434	0.427725
886.606947	0.427531
886.790442	0.427011
886.973918	0.427240
887.157376	0.427467
887.340816	0.427571
887.524237	0.427647
887.707641	0.427620
887.891026	0.426925
888.074393	0.427061
888.257741	0.427718
888.441072	0.427602
888.624384	0.427132
888.807678	0.426908
888.990954	0.427148
889.174211	0.427452
889.357451	0.427629
889.540672	0.428371
889.723875	0.428175
889.907059	0.427541
890.090226	0.427627
890.273374	0.427795
890.456504	0.427694
890.639616	0.427571
890.822709	0.427670
891.005785	0.427617
891.188842	0.427484
891.371881	0.427774
891.554901	0.427788
891.737904	0.427442
891.920888	0.426691
892.103854	0.426378
892.286802	0.426519
892.469731	0.426045
892.652643	0.425801
892.835536	0.425219
893.018410	0.424895
893.201267	0.424771
893.384106	0.424676
893.566926	0.424773
893.749728	0.425106
893.932511	0.425122
894.115277	0.425662
894.298024	0.426089
894.480753	0.426070
894.663464	0.425537
894.846157	0.426142
895.028831	0.426421
895.211487	0.426439
895.394125	0.425891
895.576745	0.424731
895.759346	0.423936
895.941930	0.423901
896.124495	0.424303
896.307041	0.424790
896.489570	0.423971
896.672080	0.423097
896.854573	0.422989
897.037046	0.422908
897.219502	0.423597
897.401940	0.423640
897.584359	0.423292
897.766760	0.422582
897.949143	0.422045
898.131507	0.422183
898.313854	0.422934
898.496182	0.422944
898.678492	0.422880
898.860783	0.422131
899.043057	0.422324
899.225312	0.421441
899.407549	0.421487
899.589768	0.421404
899.771968	0.421468
899.954151	0.420753
900.136315	0.420222
900.318461	0.419515
900.500588	0.419677
900.682698	0.419014
900.864789	0.418579
901.046862	0.418398
901.228917	0.418136
901.410953	0.417384
901.592971	0.416763
901.774972	0.416139
901.956953	0.416083
902.138917	0.416048
902.320862	0.416054
902.502790	0.416530
902.684699	0.415556
902.866589	0.414923
903.048462	0.414463
903.230316	0.413973
903.412152	0.414678
903.593970	0.414028
903.775770	0.412984
903.957551	0.412249
904.139314	0.411313
904.321059	0.411724
904.502786	0.411655
904.684494	0.411819
904.866185	0.411554
905.047857	0.410850
905.229510	0.410750
905.411146	0.410724
905.592763	0.410651
905.774363	0.410633
905.955943	0.409995
906.137506	0.409902
906.319051	0.409042
906.500577	0.408584
906.682085	0.407886
906.863575	0.407330
907.045046	0.407192
907.226500	0.406639
907.407935	0.406024
907.589352	0.405159
907.770750	0.404647
907.952131	0.404032
908.133493	0.404010
908.314837	0.403355
908.496163	0.402943
908.677470	0.402227
908.858760	0.401589
909.040031	0.401776
909.221284	0.401571
909.402518	0.400675
909.583735	0.400460
909.764933	0.399933
909.946113	0.399415
910.127275	0.399080
910.308418	0.397591
910.489544	0.396768
910.670651	0.396176
910.851740	0.395481
911.032810	0.394813
911.213863	0.393926
911.394897	0.392841
911.575913	0.391358
911.756911	0.390740
911.937890	0.390796
912.118851	0.390595
912.299794	0.389475
912.480719	0.389100
912.661626	0.388264
912.842514	0.387937
913.023384	0.387628
913.204236	0.388152
913.385070	0.387554
913.565886	0.386581
913.746683	0.386305
913.927462	0.384982
914.108223	0.384561
914.288965	0.383823
914.469690	0.383117
914.650396	0.382029
914.831084	0.380730
915.011754	0.380465
915.192405	0.380338
915.373038	0.379056
915.553653	0.379532
915.734250	0.378674
915.914829	0.378607
916.095389	0.378791
916.275931	0.379097
916.456455	0.379149
916.636961	0.378344
916.817448	0.377852
916.997917	0.377797
917.178368	0.376792
917.358801	0.375845
917.539216	0.374044
917.719612	0.372603
917.899990	0.371146
918.080350	0.370154
918.260692	0.368847
918.441015	0.368081
918.621320	0.366685
918.801607	0.366197
918.981876	0.365550
919.162127	0.365882
919.342359	0.364769
919.522573	0.364784
919.702769	0.363941
919.882947	0.363854
920.063106	0.363086
920.243247	0.362449
920.423370	0.360675
920.603475	0.360523
920.783562	0.359061
920.963630	0.358578
921.143680	0.357417
921.323712	0.356320
921.503725	0.355005
921.683721	0.354064
921.863698	0.353998
922.043657	0.353564
922.223598	0.352334
922.403520	0.351535
922.583424	0.350601
922.763311	0.349273
922.943178	0.349013
923.123028	0.348766
923.302859	0.347825
923.482673	0.346242
923.662467	0.345973
923.842244	0.344594
924.022003	0.344201
924.201743	0.343561
924.381465	0.342821
924.561169	0.341801
924.740854	0.340671
924.920522	0.339833
925.100171	0.338731
925.279802	0.338082
925.459414	0.337257
925.639009	0.336431
925.818585	0.335752
925.998143	0.335245
926.177683	0.334710
926.357205	0.334111
926.536708	0.332747
926.716193	0.332311
926.895660	0.330929
927.075109	0.330205
927.254539	0.329865
927.433951	0.328386
927.613345	0.327369
927.792721	0.326789
927.972079	0.325263
928.151418	0.324466
928.330739	0.323726
928.510042	0.323160
928.689327	0.322561
928.868593	0.321516
929.047841	0.320638
929.227071	0.319938
929.406283	0.318585
929.585476	0.317933
929.764652	0.317957
929.943809	0.317316
930.122948	0.316218
930.302068	0.315080
930.481171	0.313458
930.660255	0.312718
930.839321	0.311773
931.018369	0.310469
931.197398	0.309730
931.376409	0.308116
931.555402	0.307232
931.734377	0.306252
931.913334	0.304764
932.092272	0.303951
932.271192	0.302350
932.450094	0.300432
932.628978	0.298781
932.807844	0.297606
932.986691	0.295969
933.165520	0.294470
933.344331	0.293126
933.523123	0.292775
933.701898	0.292412
933.880654	0.292189
934.059392	0.292083
934.238111	0.291923
934.416813	0.290154
934.595496	0.289579
934.774161	0.288766
934.952808	0.287446
935.131437	0.286381
935.310047	0.285022
935.488639	0.283584
935.667213	0.281990
935.845769	0.279820
936.024306	0.277979
936.202825	0.276545
936.381326	0.274866
936.559809	0.273266
936.738274	0.272042
936.916720	0.271091
937.095148	0.270100
937.273558	0.269705
937.451950	0.269680
937.630323	0.270610
937.808678	0.269001
937.987015	0.267949
938.165334	0.267300
938.343635	0.266468
938.521917	0.265321
938.700181	0.264785
938.878427	0.262894
939.056655	0.262808
939.234864	0.261033
939.413055	0.261347
939.591228	0.260681
939.769383	0.260048
939.947519	0.257448
940.125638	0.255247
940.303738	0.255299
940.481820	0.254152
940.659883	0.251650
940.837929	0.250310
941.015956	0.249513
941.193965	0.247432
941.371955	0.246781
941.549928	0.247441
941.727882	0.245512
941.905818	0.242775
942.083736	0.243197
942.261636	0.242285
942.439517	0.240960
942.617380	0.240225
942.795225	0.238965
942.973052	0.237697
943.150860	0.236372
943.328651	0.235986
943.506423	0.234579
943.684176	0.232175
943.861912	0.231907
944.039629	0.231525
944.217328	0.228567
944.395009	0.227883
944.572672	0.226457
944.750317	0.225218
944.927943	0.225406
945.105551	0.223101
945.283141	0.222334
945.460712	0.220204
945.638265	0.219200
945.815801	0.218287
945.993317	0.217120
946.170816	0.215689
946.348297	0.213486
946.525759	0.211035
946.703203	0.210848
946.880629	0.209569
947.058036	0.207290
947.235425	0.206409
947.412797	0.204691
947.590149	0.203496
947.767484	0.202458
947.944800	0.201381
948.122099	0.201119
948.299379	0.200128
948.476640	0.198297
948.653884	0.197746
948.831109	0.196334
949.008316	0.196305
949.185505	0.195833
949.362676	0.195200
949.539828	0.194432
949.716962	0.192377
949.894078	0.191801
950.071176	0.190763
950.248256	0.190278
950.425317	0.188416
950.602360	0.188281
950.779385	0.186398
950.956391	0.185043
951.133380	0.184155
951.310350	0.183921
951.487302	0.181415
951.664235	0.181750
951.841151	0.181396
952.018048	0.180956
952.194927	0.178570
952.371788	0.177859
952.548631	0.176344
952.725455	0.174497
952.902261	0.173080
953.079049	0.172825
953.255819	0.170074
953.432570	0.168973
953.609303	0.166587
953.786018	0.164468
953.962715	0.163128
954.139394	0.163213
954.316054	0.164207
954.492696	0.164201
954.669320	0.163950
954.845926	0.165324
955.022513	0.161591
955.199083	0.161153
955.375634	0.160252
955.552166	0.159993
955.728681	0.157185
955.905177	0.153812
956.081655	0.152506
956.258115	0.151447
956.434557	0.148789
956.610980	0.150760
956.787385	0.151214
956.963772	0.151948
957.140141	0.150706
957.316492	0.149466
957.492824	0.149415
957.669138	0.150346
957.845434	0.149925
958.021712	0.148912
958.197971	0.149776
958.374212	0.147992
958.550435	0.147322
958.726640	0.146902
958.902826	0.149399
959.078995	0.148973
959.255145	0.146029
959.431277	0.144728
959.607390	0.143816
959.783486	0.141303
959.959563	0.140812
960.135622	0.140950
960.311662	0.141601
960.487685	0.139904
960.663689	0.139611
960.839675	0.140734
961.015643	0.141335
961.191593	0.143276
961.367524	0.142189
961.543437	0.141588
961.719332	0.141958
961.895209	0.140561
962.071067	0.139310
962.246907	0.138989
962.422730	0.137117
962.598533	0.136773
962.774319	0.134124
962.950086	0.135482
963.125835	0.134622
963.301566	0.134088
963.477279	0.135735
963.652973	0.136407
963.828650	0.137264
964.004308	0.138414
964.179947	0.137546
964.355569	0.137702
964.531172	0.136051
964.706757	0.136329
964.882324	0.137403
965.057873	0.136117
965.233403	0.135146
965.408916	0.133107
965.584410	0.133000
965.759885	0.132569
965.935343	0.133374
966.110782	0.132107
966.286203	0.132706
966.461606	0.129907
966.636991	0.130272
966.812357	0.130268
966.987705	0.132523
967.163035	0.130958
967.338347	0.131001
967.513641	0.130668
967.688916	0.132536
967.864173	0.131597
968.039412	0.130644
968.214632	0.127928
968.389835	0.128858
968.565019	0.126892
968.740185	0.127890
968.915333	0.127056
969.090462	0.124861
969.265573	0.123453
969.440667	0.124691
969.615741	0.126194
969.790798	0.127388
969.965836	0.126992
970.140856	0.126531
970.315858	0.125159
970.490842	0.125769
970.665808	0.127935
970.840755	0.128987
971.015684	0.127899
971.190595	0.129214
971.365487	0.130017
971.540362	0.129764
971.715218	0.129208
971.890056	0.131301
972.064875	0.130258
972.239677	0.131408
972.414460	0.131055
972.589225	0.131682
972.763972	0.130696
972.938700	0.129914
973.113411	0.130852
973.288103	0.132988
973.462777	0.132255
973.637432	0.135392
973.812070	0.136288
973.986689	0.136202
974.161290	0.138098
974.335873	0.138074
974.510437	0.138078
974.684984	0.136423
974.859512	0.136588
975.034022	0.136775
975.208513	0.133691
975.382987	0.131969
975.557442	0.131816
975.731879	0.128386
975.906298	0.127548
976.080698	0.127761
976.255080	0.128341
976.429445	0.127991
976.603790	0.127458
976.778118	0.130077
976.952427	0.128661
977.126719	0.127803
977.300992	0.129720
977.475246	0.130207
977.649483	0.128972
977.823701	0.128719
977.997901	0.127342
978.172083	0.129049
978.346247	0.128863
978.520392	0.131858
978.694519	0.131570
978.868628	0.132241
979.042719	0.130603
979.216791	0.131803
979.390845	0.133314
979.564882	0.134453
979.738899	0.134811
979.912899	0.133423
980.086880	0.131383
980.260843	0.132927
980.434788	0.130195
980.608715	0.131593
980.782623	0.130833
980.956514	0.128140
981.130386	0.128365
981.304240	0.128585
981.478075	0.127969
981.651892	0.128733
981.825692	0.129452
981.999472	0.130771
982.173235	0.131523
982.346980	0.131599
982.520706	0.133245
982.694414	0.133045
982.868104	0.130801
983.041775	0.130329
983.215428	0.131793
983.389064	0.131703
983.562680	0.131827
983.736279	0.131470
983.909860	0.131348
984.083422	0.130999
984.256966	0.129354
984.430491	0.128852
984.603999	0.131024
984.777488	0.130303
984.950959	0.129992
985.124412	0.130591
985.297847	0.130430
985.471263	0.132205
985.644661	0.131696
985.818041	0.132432
985.991403	0.133397
986.164747	0.132815
986.338072	0.132966
986.511379	0.132514
986.684668	0.131414
986.857938	0.130752
987.031191	0.130150
987.204425	0.131852
987.377641	0.132989
987.550839	0.132543
987.724018	0.130092
987.897179	0.130794
988.070322	0.130185
988.243447	0.129720
988.416554	0.128476
988.589642	0.126937
988.762712	0.126207
988.935764	0.126085
989.108798	0.127670
989.281813	0.131909
989.454811	0.130484
989.627790	0.131827
989.800751	0.132897
989.973693	0.134592
990.146617	0.136183
990.319524	0.135625
990.492412	0.137224
990.665281	0.136965
990.838133	0.135609
991.010966	0.135970
991.183781	0.136071
991.356578	0.137504
991.529356	0.136987
991.702117	0.137558
991.874859	0.137777
992.047583	0.135725
992.220288	0.136443
992.392976	0.135002
992.565645	0.135730
992.738296	0.135835
992.910929	0.133633
993.083543	0.136309
993.256139	0.136851
993.428718	0.137410
993.601277	0.138277
993.773819	0.136637
993.946342	0.138588
994.118848	0.136869
994.291335	0.136145
994.463803	0.136917
994.636254	0.134833
994.808686	0.134347
994.981100	0.134456
995.153496	0.133783
995.325874	0.134617
995.498233	0.132106
995.670574	0.132562
995.842897	0.131451
996.015202	0.132529
996.187488	0.133032
996.359757	0.131466
996.532007	0.129461
996.704239	0.129674
996.876452	0.129660
997.048648	0.129480
997.220825	0.129076
997.392984	0.130716
997.565124	0.129647
997.737247	0.129268
997.909351	0.129413
998.081437	0.130714
998.253505	0.129984
998.425554	0.128788
998.597586	0.131096
998.769599	0.132993
998.941594	0.132677
999.113571	0.131681
999.285529	0.132749
999.457469	0.131572
999.629391	0.132517
999.801295	0.132032
999.973181	0.132020
1000.145048	0.132528
1000.316897	0.130562
1000.488728	0.130824
1000.660541	0.131964
1000.832335	0.131573
1001.004111	0.134330
1001.175869	0.132684
1001.347609	0.133269
1001.519331	0.133317
1001.691034	0.133831
1001.862719	0.134724
1002.034386	0.134828
1002.206035	0.134221
1002.377665	0.133137
1002.549277	0.131397
1002.720871	0.129755
1002.892447	0.131120
1003.064004	0.131217
1003.235544	0.129464
1003.407065	0.128369
1003.578568	0.126900
1003.750052	0.128611
1003.921519	0.129604
1004.092967	0.129509
1004.264397	0.131567
1004.435809	0.130110
1004.607202	0.130280
1004.778577	0.130411
1004.949934	0.130938
1005.121273	0.133224
1005.292594	0.132334
1005.463896	0.133050
1005.635180	0.134129
1005.806446	0.135208
1005.977694	0.136110
1006.148923	0.134880
1006.320135	0.134885
1006.491328	0.135700
1006.662503	0.136316
1006.833659	0.135368
1007.004798	0.134371
1007.175918	0.133972
1007.347020	0.135399
1007.518103	0.135756
1007.689169	0.135768
1007.860216	0.135907
1008.031245	0.136227
1008.202256	0.132504
1008.373248	0.132819
1008.544223	0.133321
1008.715179	0.133475
1008.886117	0.132496
1009.057036	0.132380
1009.227938	0.133432
1009.398821	0.134122
1009.569686	0.133907
1009.740533	0.136549
1009.911361	0.135415
1010.082172	0.135183
1010.252964	0.134369
1010.423738	0.133616
1010.594493	0.133856
1010.765231	0.133713
1010.935950	0.132945
1011.106651	0.132646
1011.277334	0.131471
1011.447998	0.132214
1011.618645	0.131666
1011.789273	0.131568
1011.959882	0.132409
1012.130474	0.131292
1012.301048	0.131318
1012.471603	0.129777
1012.642140	0.129745
1012.812658	0.131331
1012.983159	0.133314
1013.153641	0.132504
1013.324105	0.131885
1013.494551	0.130059
1013.664979	0.130195
1013.835388	0.130140
1014.005779	0.131642
1014.176152	0.131227
1014.346507	0.129015
1014.516843	0.127526
1014.687162	0.129398
1014.857462	0.129379
1015.027744	0.129268
1015.198007	0.129364
1015.368252	0.129777
1015.538480	0.128592
1015.708689	0.126968
1015.878879	0.128793
1016.049052	0.129185
1016.219206	0.127629
1016.389342	0.129886
1016.559460	0.130333
1016.729559	0.130169
1016.899641	0.129521
1017.069704	0.131588
1017.239749	0.133547
1017.409775	0.131826
1017.579784	0.131062
1017.749774	0.129503
1017.919746	0.128805
1018.089700	0.127902
1018.259635	0.127765
1018.429553	0.126364
1018.599452	0.126091
1018.769333	0.125594
1018.939195	0.126166
1019.109040	0.127914
1019.278866	0.130446
1019.448674	0.130566
1019.618464	0.131754
1019.788235	0.133122
1019.957989	0.134216
1020.127724	0.133730
1020.297441	0.134253
1020.467139	0.135249
1020.636820	0.134617
1020.806482	0.135212
1020.976126	0.136679
1021.145752	0.135976
1021.315359	0.134425
1021.484948	0.133621
1021.654519	0.132576
1021.824072	0.130882
1021.993607	0.129925
1022.163123	0.128578
1022.332621	0.127225
1022.502101	0.126969
1022.671563	0.127938
1022.841007	0.127861
1023.010432	0.130558
1023.179839	0.132611
1023.349228	0.134293
1023.518598	0.133864
1023.687951	0.133251
1023.857285	0.133864
1024.026601	0.133324
1024.195899	0.133713
1024.365178	0.134701
1024.534439	0.133877
1024.703682	0.131919
1024.872907	0.131823
1025.042114	0.131359
1025.211302	0.131907
1025.380472	0.130458
1025.549624	0.129858
1025.718758	0.129679
1025.887873	0.127949
1026.056970	0.127656
1026.226049	0.128214
1026.395110	0.125270
1026.564153	0.125528
1026.733177	0.127102
1026.902183	0.128006
1027.071171	0.125080
1027.240141	0.123095
1027.409092	0.123777
1027.578026	0.121975
1027.746940	0.121385
1027.915837	0.123874
1028.084716	0.122468
1028.253576	0.122287
1028.422418	0.121212
1028.591242	0.123976
1028.760048	0.124435
1028.928835	0.124952
1029.097604	0.125248
1029.266355	0.124008
1029.435088	0.123772
1029.603803	0.124712
1029.772499	0.124045
1029.941177	0.126725
1030.109837	0.125683
1030.278478	0.126275
1030.447102	0.127264
1030.615707	0.128265
1030.784294	0.129676
1030.952863	0.130496
1031.121413	0.130917
1031.289945	0.130562
1031.458460	0.128592
1031.626955	0.128773
1031.795433	0.128605
1031.963892	0.126670
1032.132334	0.127349
1032.300756	0.128333
1032.469161	0.128200
1032.637548	0.130058
1032.805916	0.129079
1032.974266	0.129365
1033.142598	0.129761
1033.310911	0.130567
1033.479207	0.131998
1033.647484	0.130465
1033.815743	0.129421
1033.983983	0.128959
1034.152206	0.126267
1034.320410	0.127088
1034.488596	0.125909
1034.656764	0.125771
1034.824914	0.124838
1034.993045	0.123623
1035.161158	0.124543
1035.329253	0.125239
1035.497330	0.126006
1035.665388	0.127461
1035.833428	0.128697
1036.001450	0.129848
1036.169454	0.131215
1036.337440	0.131592
1036.505407	0.130416
1036.673356	0.130076
1036.841287	0.128973
1037.009200	0.126996
1037.177094	0.128014
1037.344970	0.125545
1037.512828	0.124788
1037.680668	0.125657
1037.848489	0.125574
1038.016293	0.127156
1038.184078	0.127316
1038.351845	0.127086
1038.519593	0.129218
1038.687324	0.127911
1038.855036	0.126687
1039.022730	0.127942
1039.190406	0.124813
1039.358063	0.125479
1039.525702	0.125826
1039.693323	0.126721
1039.860926	0.129548
1040.028511	0.128991
1040.196077	0.129631
1040.363625	0.133382
1040.531155	0.132366
1040.698667	0.132502
1040.866161	0.131673
1041.033636	0.128633
1041.201093	0.127526
1041.368532	0.126509
1041.535952	0.125231
1041.703355	0.126149
1041.870739	0.125012
1042.038105	0.125493
1042.205452	0.126618
1042.372782	0.126602
1042.540093	0.128778
1042.707386	0.128768
1042.874661	0.125693
1043.041918	0.126730
1043.209156	0.125237
1043.376376	0.125140
1043.543578	0.125937
1043.710762	0.125225
1043.877927	0.126865
1044.045074	0.126772
1044.212203	0.128983
1044.379314	0.130006
1044.546407	0.128827
1044.713481	0.128442
1044.880537	0.127243
1045.047575	0.126605
1045.214595	0.124384
1045.381596	0.124562
1045.548579	0.124076
1045.715544	0.121646
1045.882491	0.123371
1046.049420	0.120741
1046.216330	0.120056
1046.383222	0.120743
1046.550096	0.119661
1046.716951	0.121034
1046.883789	0.120335
1047.050608	0.121650
1047.217409	0.121902
1047.384192	0.121825
1047.550956	0.125413
1047.717703	0.125328
1047.884431	0.125641
1048.051140	0.126982
1048.217832	0.128524
1048.384505	0.127685
1048.551161	0.128792
1048.717798	0.130190
1048.884416	0.128983
1049.051017	0.130326
1049.217599	0.131505
1049.384163	0.132512
1049.550709	0.131288
1049.717237	0.129932
1049.883746	0.129959
1050.050237	0.127792
1050.216710	0.127220
1050.383165	0.127304
1050.549601	0.125103
1050.716019	0.124176
1050.882420	0.124284
1051.048801	0.124984
1051.215165	0.124800
1051.381510	0.124746
1051.547837	0.125290
1051.714146	0.124909
1051.880437	0.125015
1052.046709	0.125228
1052.212964	0.126766
1052.379200	0.125463
1052.545417	0.125459
1052.711617	0.126013
1052.877798	0.125842
1053.043961	0.127135
1053.210106	0.124580
1053.376233	0.123731
1053.542341	0.125412
1053.708432	0.125685
1053.874504	0.125347
1054.040557	0.125802
1054.206593	0.125640
1054.372610	0.124730
1054.538609	0.124087
1054.704590	0.126958
1054.870553	0.128437
1055.036497	0.127949
1055.202424	0.125437
1055.368331	0.125109
1055.534221	0.123128
1055.700093	0.123899
1055.865946	0.125346
1056.031781	0.124744
1056.197598	0.123971
1056.363397	0.121593
1056.529177	0.120691
1056.694939	0.121850
1056.860683	0.122058
1057.026409	0.122755
1057.192116	0.122195
1057.357806	0.120092
1057.523477	0.121237
1057.689130	0.120846
1057.854764	0.122680
1058.020381	0.122670
1058.185979	0.124796
1058.351559	0.123556
1058.517120	0.124063
1058.682664	0.122904
1058.848189	0.124083
1059.013696	0.121752
1059.179185	0.121657
1059.344656	0.122869
1059.510108	0.121367
1059.675542	0.119360
1059.840958	0.120528
1060.006356	0.120728
1060.171735	0.122141
1060.337096	0.121641
1060.502439	0.122171
1060.667764	0.123168
1060.833071	0.121969
1060.998359	0.122400
1061.163629	0.123959
1061.328881	0.125540
1061.494115	0.124810
1061.659330	0.126309
1061.824527	0.128359
1061.989706	0.129416
1062.154867	0.128466
1062.320010	0.127092
1062.485134	0.128177
1062.650240	0.125158
1062.815328	0.123774
1062.980398	0.123410
1063.145449	0.119559
1063.310482	0.116996
1063.475497	0.115638
1063.640494	0.115155
1063.805473	0.114552
1063.970433	0.115559
1064.135375	0.116909
1064.300299	0.115773
1064.465204	0.117130
1064.630092	0.119060
1064.794961	0.121974
1064.959812	0.121894
1065.124645	0.123976
1065.289459	0.125236
1065.454256	0.123601
1065.619034	0.121707
1065.783793	0.123807
1065.948535	0.122864
1066.113258	0.123488
1066.277964	0.120813
1066.442651	0.122416
1066.607319	0.120465
1066.771970	0.122190
1066.936602	0.123679
1067.101216	0.126206
1067.265812	0.125341
1067.430389	0.128362
1067.594949	0.129081
1067.759490	0.129570
1067.924013	0.127040
1068.088518	0.127536
1068.253004	0.128688
1068.417472	0.127758
1068.581922	0.127430
1068.746354	0.125987
1068.910768	0.124082
1069.075163	0.122478
1069.239540	0.122405
1069.403899	0.123423
1069.568240	0.123813
1069.732562	0.122518
1069.896866	0.124042
1070.061152	0.123659
1070.225420	0.128112
1070.389670	0.126271
1070.553901	0.127270
1070.718114	0.126876
1070.882309	0.128056
1071.046486	0.128659
1071.210644	0.128590
1071.374784	0.128365
1071.538906	0.129361
1071.703010	0.128114
1071.867096	0.128953
1072.031163	0.128811
1072.195212	0.131278
1072.359243	0.130849
1072.523256	0.129549
1072.687250	0.128051
1072.851226	0.128083
1073.015184	0.128046
1073.179124	0.126284
1073.343045	0.127336
1073.506949	0.128890
1073.670834	0.127135
1073.834701	0.127751
1073.998549	0.126861
1074.162380	0.127775
1074.326192	0.128691
1074.489986	0.126803
1074.653761	0.126020
1074.817519	0.123036
1074.981258	0.121648
1075.144979	0.122784
1075.308682	0.124335
1075.472367	0.127059
1075.636033	0.128836
1075.799681	0.125963
1075.963311	0.128339
1076.126923	0.131291
1076.290516	0.134552
1076.454092	0.135692
1076.617649	0.134917
1076.781187	0.134227
1076.944708	0.133894
1077.108210	0.132183
1077.271695	0.132351
1077.435160	0.131909
1077.598608	0.131249
1077.762038	0.130349
1077.925449	0.130870
1078.088842	0.129176
1078.252217	0.127264
1078.415573	0.127400
1078.578912	0.128280
1078.742232	0.127561
1078.905534	0.126011
1079.068817	0.125062
1079.232083	0.125850
1079.395330	0.124094
1079.558559	0.127558
1079.721770	0.128905
1079.884962	0.129536
1080.048136	0.128415
1080.211293	0.128995
1080.374430	0.131225
1080.537550	0.132267
1080.700651	0.132135
1080.863735	0.132098
1081.026800	0.131987
1081.189846	0.130714
1081.352875	0.130461
1081.515885	0.131583
1081.678877	0.133119
1081.841851	0.136111
1082.004807	0.134391
1082.167744	0.134528
1082.330663	0.135055
1082.493564	0.135593
1082.656447	0.134055
1082.819312	0.133501
1082.982158	0.133948
1083.144986	0.134912
1083.307796	0.129229
1083.470587	0.130714
1083.633361	0.130354
1083.796116	0.129122
1083.958853	0.125910
1084.121571	0.125290
1084.284272	0.124024
1084.446954	0.121243
1084.609618	0.118127
1084.772264	0.118759
1084.934892	0.116502
1085.097501	0.116297
1085.260092	0.116972
1085.422665	0.118402
1085.585220	0.123449
1085.747756	0.123246
1085.910274	0.124363
1086.072774	0.124781
1086.235256	0.125076
1086.397720	0.126282
1086.560165	0.126114
1086.722592	0.125411
1086.885001	0.124597
1087.047392	0.119759
1087.209764	0.123664
1087.372119	0.123572
1087.534455	0.123500
1087.696772	0.124741
1087.859072	0.126118
1088.021353	0.125764
1088.183616	0.125749
1088.345861	0.129851
1088.508088	0.132829
1088.670296	0.129807
1088.832486	0.130655
1088.994658	0.131580
1089.156812	0.130284
1089.318948	0.128659
1089.481065	0.126498
1089.643164	0.129405
1089.805245	0.128436
1089.967308	0.128408
1090.129352	0.126994
1090.291378	0.126456
1090.453386	0.128257
1090.615376	0.128023
1090.777347	0.130631
1090.939301	0.132510
1091.101236	0.129840
1091.263153	0.128205
1091.425051	0.127378
1091.586932	0.130986
1091.748794	0.131658
1091.910638	0.131702
1092.072463	0.131606
1092.234271	0.129827
1092.396060	0.131727
1092.557831	0.134435
1092.719584	0.130215
1092.881319	0.132077
1093.043035	0.127583
1093.204733	0.127345
1093.366413	0.127507
1093.528075	0.128404
1093.689718	0.129601
1093.851343	0.127678
1094.012950	0.125110
1094.174539	0.128097
1094.336110	0.126758
1094.497662	0.130217
1094.659196	0.130068
1094.820712	0.127904
1094.982210	0.128230
1095.143689	0.125560
1095.305151	0.127061
1095.466594	0.128425
1095.628018	0.127983
1095.789425	0.127424
1095.950813	0.129288
1096.112183	0.127551
1096.273535	0.129809
1096.434869	0.126061
1096.596184	0.129268
1096.757482	0.129950
1096.918761	0.129206
1097.080021	0.129230
1097.241264	0.128369
1097.402488	0.122880
1097.563694	0.122367
1097.724882	0.121098
1097.886052	0.125718
1098.047203	0.121548
1098.208336	0.116677
1098.369451	0.117385
1098.530548	0.119187
1098.691627	0.124328
1098.852687	0.124760
1099.013729	0.126216
1099.174753	0.127477
1099.335758	0.129920
1099.496746	0.130406
1099.657715	0.132670
1099.818666	0.130159
1099.979599	0.131138
1100.140513	0.123679
1100.301409	0.120725
1100.462287	0.122195
1100.623147	0.118822
1100.783989	0.113255
1100.944812	0.111782
1101.105617	0.110088
1101.266404	0.107786
1101.427173	0.105836
1101.587923	0.111200
1101.748656	0.115951
1101.909370	0.116698
1102.070066	0.116992
1102.230743	0.118506
1102.391403	0.120173
1102.552044	0.122035
1102.712667	0.126328
1102.873271	0.130237
1103.033858	0.128363
1103.194426	0.129356
1103.354976	0.122875
1103.515508	0.125017
1103.676021	0.124656
1103.836517	0.125445
1103.996994	0.124560
1104.157453	0.122521
1104.317893	0.118224
1104.478316	0.120470
1104.638720	0.118535
1104.799106	0.121064
1104.959474	0.120171
1105.119823	0.120340
1105.280155	0.119409
1105.440468	0.125105
1105.600763	0.126007
1105.761039	0.126074
1105.921298	0.126007
1106.081538	0.124203
1106.241760	0.124796
1106.401964	0.124546
1106.562149	0.123268
1106.722316	0.125391
1106.882465	0.120781
1107.042596	0.121898
1107.202709	0.122389
1107.362803	0.120125
1107.522879	0.122939
1107.682937	0.125012
1107.842977	0.121821
1108.002999	0.126912
1108.163002	0.124539
1108.322987	0.126244
1108.482954	0.129142
1108.642902	0.130655
1108.802833	0.131229
1108.962745	0.132972
1109.122639	0.128576
1109.282515	0.132849
1109.442372	0.132130
1109.602211	0.136131
1109.762032	0.135249
1109.921835	0.132333
1110.081620	0.131738
1110.241386	0.130876
1110.401134	0.128797
1110.560864	0.134693
1110.720576	0.133714
1110.880269	0.127806
1111.039945	0.121991
1111.199602	0.125173
1111.359240	0.125649
1111.518861	0.121613
1111.678463	0.119905
1111.838047	0.116371
1111.997613	0.112415
1112.157161	0.107995
1112.316690	0.117734
1112.476202	0.121089
1112.635695	0.114720
1112.795169	0.114912
1112.954626	0.116878
1113.114064	0.117811
1113.273484	0.119924
1113.432886	0.116022
1113.592270	0.120588
1113.751635	0.112820
1113.910983	0.117037
1114.070312	0.116514
1114.229622	0.110798
1114.388915	0.108717
1114.548189	0.108951
1114.707445	0.111653
1114.866683	0.114867
1115.025903	0.115366
1115.185104	0.113501
1115.344287	0.110537
1115.503452	0.117816
1115.662599	0.121212
1115.821727	0.121109
1115.980838	0.119290
1116.139930	0.116346
1116.299004	0.115368
1116.458059	0.112329
1116.617097	0.116259
1116.776116	0.116342
1116.935117	0.113370
1117.094099	0.112261
1117.253064	0.110448
1117.412010	0.111209
1117.570938	0.114943
1117.729848	0.118425
1117.888740	0.118356
1118.047613	0.115468
1118.206468	0.116814
1118.365305	0.118789
1118.524124	0.116116
1118.682924	0.120902
1118.841707	0.124849
1119.000471	0.121875
1119.159216	0.121325
1119.317944	0.124924
1119.476653	0.128863
1119.635344	0.125243
1119.794017	0.123538
1119.952672	0.124939
1120.111308	0.125061
1120.269927	0.120239
1120.428527	0.115399
1120.587108	0.114393
1120.745672	0.110512
1120.904217	0.106048
1121.062744	0.107237
1121.221253	0.107163
1121.379744	0.107735
1121.538216	0.105633
1121.696671	0.107739
1121.855107	0.109636
1122.013524	0.109653
1122.171924	0.109114
1122.330305	0.109926
1122.488668	0.108184
1122.647013	0.103108
1122.805340	0.105453
1122.963648	0.107575
1123.121938	0.103288
1123.280210	0.104929
1123.438464	0.104244
1123.596700	0.104223
1123.754917	0.103768
1123.913116	0.102858
1124.071297	0.107887
1124.229459	0.104271
1124.387604	0.098623
1124.545730	0.100542
1124.703838	0.100516
1124.861928	0.104449
1125.019999	0.110795
1125.178052	0.109841
1125.336088	0.112288
1125.494104	0.116671
1125.652103	0.116677
1125.810083	0.125354
1125.968045	0.128782
1126.125989	0.131489
1126.283915	0.130827
1126.441823	0.122142
1126.599712	0.125169
1126.757583	0.128659
1126.915436	0.119877
1127.073270	0.121390
1127.231087	0.116499
1127.388885	0.117000
1127.546665	0.113175
1127.704426	0.105166
1127.862170	0.108618
1128.019895	0.110435
1128.177602	0.108087
1128.335291	0.110586
1128.492961	0.113084
1128.650614	0.112849
1128.808248	0.114781
1128.965864	0.116839
1129.123461	0.118653
1129.281041	0.121640
1129.438602	0.115381
1129.596145	0.116890
1129.753670	0.116674
1129.911176	0.116399
1130.068665	0.117841
1130.226135	0.105779
1130.383587	0.101604
1130.541020	0.103417
1130.698436	0.098869
1130.855833	0.106433
1131.013212	0.101848
1131.170573	0.095969
1131.327915	0.096442
1131.485239	0.096841
1131.642545	0.105407
1131.799833	0.108076
1131.957103	0.109952
1132.114354	0.114933
1132.271588	0.104194
1132.428803	0.099332
1132.585999	0.104873
1132.743178	0.103688
1132.900338	0.103171
1133.057480	0.102927
1133.214604	0.103633
1133.371710	0.106850
1133.528797	0.104213
1133.685866	0.106230
1133.842917	0.115158
1133.999950	0.115970
1134.156964	0.117593
1134.313960	0.120706
1134.470938	0.120146
1134.627898	0.116358
1134.784840	0.113897
1134.941763	0.111377
1135.098668	0.112472
1135.255555	0.112444
1135.412424	0.114453
1135.569274	0.107575
1135.726107	0.101254
1135.882921	0.100147
1136.039716	0.104927
1136.196494	0.103359
1136.353253	0.105153
1136.509995	0.108475
1136.666717	0.106770
1136.823422	0.102955
1136.980109	0.106138
1137.136777	0.108365
1137.293427	0.107695
1137.450059	0.106455
1137.606672	0.107403
1137.763267	0.105767
1137.919844	0.102191
1138.076403	0.103003
1138.232944	0.100810
1138.389466	0.105661
1138.545971	0.105373
1138.702457	0.102012
1138.858924	0.102597
1139.015374	0.102561
1139.171805	0.100966
1139.328218	0.102419
1139.484613	0.097050
1139.640990	0.098519
1139.797348	0.091894
1139.953688	0.088183
1140.110010	0.090283
1140.266314	0.089660
1140.422600	0.091190
1140.578867	0.089578
1140.735116	0.085170
1140.891347	0.089689
1141.047559	0.093973
1141.203754	0.096845
1141.359930	0.095312
1141.516088	0.098455
1141.672228	0.098806
1141.828349	0.093322
1141.984452	0.094417
1142.140537	0.097900
1142.296604	0.090060
1142.452653	0.088468
1142.608683	0.087074
1142.764695	0.090477
1142.920689	0.084135
1143.076665	0.083168
1143.232622	0.082776
1143.388562	0.087688
1143.544483	0.089234
1143.700385	0.100645
1143.856270	0.096855
1144.012136	0.094383
1144.167985	0.096368
1144.323814	0.097504
1144.479626	0.097623
1144.635420	0.100921
1144.791195	0.100846
1144.946952	0.102456
1145.102691	0.096470
1145.258411	0.097851
1145.414113	0.106289
1145.569798	0.103139
1145.725463	0.105764
1145.881111	0.114443
1146.036741	0.113541
1146.192352	0.111363
1146.347945	0.112016
1146.503519	0.109648
1146.659076	0.108532
1146.814614	0.106922
1146.970134	0.106202
1147.125636	0.106398
1147.281120	0.099752
1147.436585	0.102258
1147.592032	0.102926
1147.747461	0.093897
1147.902872	0.090230
1148.058265	0.089806
1148.213639	0.082205
1148.368995	0.083476
1148.524333	0.082347
1148.679653	0.079547
1148.834954	0.078025
1148.990237	0.076358
1149.145502	0.084457
1149.300749	0.090729
1149.455977	0.091268
1149.611188	0.090846
1149.766380	0.093726
1149.921553	0.089444
1150.076709	0.087447
1150.231846	0.084440
1150.386966	0.082196
1150.542066	0.079579
1150.697149	0.077970
1150.852214	0.082338
1151.007260	0.086646
1151.162288	0.089440
1151.317298	0.097765
1151.472289	0.105818
1151.627263	0.104303
1151.782218	0.104200
1151.937155	0.102951
1152.092073	0.103803
1152.246974	0.098823
1152.401856	0.104838
1152.556720	0.094842
1152.711566	0.087920
1152.866393	0.079223
1153.021203	0.087105
1153.175994	0.085768
1153.330767	0.082611
1153.485521	0.084558
1153.640258	0.086023
1153.794976	0.080110
1153.949676	0.087535
1154.104358	0.092724
1154.259021	0.099031
1154.413667	0.091396
1154.568294	0.095734
1154.722903	0.096842
1154.877493	0.090676
1155.032066	0.090604
1155.186620	0.092617
1155.341156	0.090219
1155.495674	0.089392
1155.650173	0.084214
1155.804654	0.092305
1155.959118	0.089873
1156.113562	0.100077
1156.267989	0.102191
1156.422397	0.103342
1156.576788	0.101168
1156.731160	0.096976
1156.885513	0.094763
1157.039849	0.095749
1157.194166	0.083703
1157.348465	0.089315
1157.502746	0.077730
1157.657009	0.081390
1157.811253	0.079542
1157.965479	0.080178
1158.119687	0.082514
1158.273877	0.083989
1158.428048	0.080761
1158.582201	0.086272
1158.736337	0.074805
1158.890453	0.073825
1159.044552	0.080640
1159.198632	0.074193
1159.352694	0.070081
1159.506738	0.071374
1159.660764	0.069558
1159.814771	0.073506
1159.968761	0.067960
1160.122732	0.070844
1160.276685	0.071468
1160.430619	0.054744
1160.584535	0.058747
1160.738434	0.056063
1160.892313	0.056187
1161.046175	0.057901
1161.200019	0.054791
1161.353844	0.056668
1161.507651	0.061556
1161.661440	0.062837
1161.815210	0.068034
1161.968962	0.063099
1162.122697	0.070654
1162.276412	0.065774
1162.430110	0.058946
1162.583789	0.063334
1162.737451	0.069627
1162.891094	0.059824
1163.044718	0.060108
1163.198325	0.059658
1163.351913	0.060148
1163.505483	0.051947
1163.659035	0.053524
1163.812569	0.062338
1163.966084	0.050652
1164.119581	0.052592
1164.273060	0.057095
1164.426521	0.062378
1164.579964	0.056108
1164.733388	0.062739
1164.886794	0.070580
1165.040182	0.074252
1165.193551	0.068089
1165.346903	0.083588
1165.500236	0.074083
1165.653551	0.078118
1165.806848	0.071884
1165.960126	0.075525
1166.113386	0.067142
1166.266628	0.063515
1166.419852	0.057547
1166.573058	0.053360
1166.726245	0.055666
1166.879414	0.061144
1167.032565	0.064194
1167.185698	0.067342
1167.338812	0.070595
1167.491909	0.082110
1167.644987	0.082577
1167.798046	0.083011
1167.951088	0.090598
1168.104111	0.074585
1168.257117	0.071425
1168.410103	0.066939
1168.563072	0.058286
1168.716023	0.060442
1168.868955	0.054306
1169.021869	0.050871
1169.174765	0.048605
1169.327642	0.042197
1169.480501	0.042485
1169.633343	0.045554
1169.786165	0.048595
1169.938970	0.060189
1170.091757	0.060795
1170.244525	0.062140
1170.397275	0.065003
1170.550007	0.069447
1170.702720	0.076614
1170.855415	0.077107
1171.008092	0.069782
1171.160751	0.060914
1171.313392	0.051342
1171.466014	0.018581
1171.618619	0.025552
1171.771205	0.025552
1171.923772	0.025552
