sample name	sample
index	789
start time	 03-31-2021  02:08:01 PM
880	0.667312
Peak Time (s)	92.536
Peak Height 	0.6673
calc peak height	90,93
Baseline Time (s)	11.036
Baseline Value 	-0.00156
subtract baseline	10,4
Abs	0.454654
Peak Time (s)	92.036
Peak Height 	0.4547
calc peak height	90,93
Baseline Time (s)	8.535
Baseline Value 	9.5795E-4
subtract baseline	10,3
PK_550	0.063900
Peak Time (s)	90.035
Peak Height 	0.0639
calc peak height	90,93
Baseline Time (s)	8.535
Baseline Value 	-3.7768E-4
subtract baseline	10,2
PK_880	0.432444
Peak Time (s)	92.036
Peak Height 	0.4324
calc peak height	90,93
Baseline Time (s)	9.536
Baseline Value 	5.4679E-5
subtract baseline	10,1


Time (s)	A880-A510	A880-A775	A880-A975	A880	I510	I775	I975	I880	
0.035000	-0.001457	0.000501	-0.005642	0.001729	6762.064509	40658.430541	4071.087323	22249.538818
0.535000	-0.000801	0.000131	-0.003214	0.002777	6758.785863	40536.213501	4074.190673	22203.441699
1.036000	-0.001822	-0.000254	-0.003454	0.002426	6753.173014	40533.282199	4074.442218	22218.879140
1.538500	-0.000501	-0.000323	-0.002762	0.000499	6780.443416	40693.611781	4080.358608	22303.848759
2.037000	-0.000070	0.000730	0.005883	0.001158	6778.514164	40727.590504	4098.622727	22274.726408
2.537000	0.000357	0.000989	-0.004417	0.001466	6779.522937	40723.401113	4074.435540	22261.164409
3.040000	0.003403	0.001698	0.000673	-0.000899	6825.386431	40990.295053	4091.371840	22365.690589
3.537500	0.001176	0.000557	-0.002411	-0.000087	6799.558805	40820.511503	4082.485008	22329.745052
4.035500	0.001109	-0.000016	-0.000748	-0.000001	6798.264452	40763.446182	4086.071978	22325.952784
4.535500	0.000767	0.000024	-0.004371	-0.000609	6800.511103	40819.553158	4079.223584	22352.829710
5.035500	0.001177	0.000760	0.001112	0.000249	6796.722513	40808.991815	4089.749425	22314.887658
5.538500	-0.000514	0.001008	-0.001083	0.003828	6752.385690	40521.285775	4076.626697	22157.304994
6.041500	-0.000572	0.000747	-0.003406	0.000353	6781.070706	40798.869709	4079.231691	22310.291667
6.536500	0.001162	0.000108	-0.001316	-0.000307	6801.298822	40800.658918	4085.475212	22339.472134
7.036500	-0.000577	-0.000478	-0.004976	-0.000677	6789.724102	40781.976442	4078.009135	22355.869686
7.537000	-0.002023	0.000372	0.000892	-0.000274	6774.134747	40820.737182	4090.442675	22338.029828
8.037500	-0.001617	-0.000357	-0.000951	-0.000599	6780.288175	40785.647971	4086.972827	22352.423740
8.535000	-0.000537	0.000000	0.000000	-0.000182	6785.878988	40780.437136	4088.190873	22333.934713
9.035500	-0.001067	-0.000115	-0.002549	-0.000279	6782.222170	40778.902335	4082.606192	22338.220539
9.535500	0.000000	-0.000438	0.002014	0.002973	6763.849637	40470.389725	4085.587842	22194.811748
10.035000	0.003130	0.000373	0.002151	0.000381	6812.165816	40763.979425	4091.824666	22309.042631
10.536000	-0.001064	-0.000746	-0.000073	-0.000829	6786.888699	40771.880135	4089.503148	22362.579140
11.036000	0.000874	0.000343	-0.001610	0.000000	6796.259556	40794.403167	4084.105615	22325.888895
11.536000	0.000137	0.000246	0.001309	0.003298	6762.275236	40501.256639	4083.243550	22180.541260
12.037000	0.002238	0.000896	-0.001787	0.000319	6805.116762	40814.740105	4082.979680	22311.790827
12.537000	0.004915	0.001196	0.003621	0.001042	6821.736777	40778.061839	4093.681343	22279.864212
13.037500	0.001000	0.000065	-0.000697	0.000794	6790.617259	40701.606883	4084.376921	22290.813047
13.537000	0.001163	0.000214	0.003141	0.000653	6793.187042	40726.661018	4093.473607	22297.028850
14.035500	-0.001865	0.000159	-0.000756	0.002621	6751.184126	40552.012430	4080.093912	22210.281222
14.540000	0.000073	0.000008	-0.000976	0.002377	6769.471627	40560.106373	4080.150339	22221.046357
15.035500	0.001053	-0.000241	0.000831	0.000501	6793.541350	40700.493044	4088.529347	22303.738090
15.536000	-0.000684	-0.000863	-0.000865	-0.000115	6784.073307	40699.917906	4086.063423	22330.963529
16.036000	0.000517	0.000817	0.002823	0.001588	6779.843993	40697.944765	4090.599854	22255.774441
16.536500	-0.001546	0.000268	-0.003737	0.000959	6767.783390	40704.937906	4077.111902	22283.527128
17.037000	0.003771	0.000754	0.006397	-0.002236	6839.959948	41024.505937	4107.684400	22425.058949
17.537000	0.000456	0.000992	0.000346	0.001697	6778.414359	40703.722938	4084.696840	22250.988945
18.035000	0.000999	0.000251	-0.003848	0.001388	6785.592617	40666.385798	4075.893855	22264.591224
18.535000	0.001432	0.000421	0.002559	0.001911	6784.834444	40635.854225	4089.256182	22241.544050
19.035000	0.000376	0.000165	0.002794	0.001576	6778.761700	40642.719722	4090.560555	22256.319653
19.535500	-0.000166	0.000341	0.003224	0.001844	6771.941457	40634.740002	4090.931563	22244.485455
20.038500	-0.001849	0.000661	-0.003196	0.001991	6756.590992	40649.714090	4076.003025	22238.026027
20.536000	0.000124	0.001241	-0.001595	0.002746	6766.797543	40634.523057	4077.913495	22204.790245
21.036500	-0.001109	0.000315	0.003146	0.001833	6764.116492	40633.471493	4090.779187	22244.985331
21.536500	-0.000094	0.000463	-0.001801	0.001883	6772.216415	40641.883053	4079.400593	22242.764988
22.037000	0.003186	0.000858	-0.002800	0.002248	6796.806804	40644.543558	4076.317675	22226.706178
22.537000	-0.001349	0.000295	-0.001453	0.001575	6764.260567	40653.953671	4080.885883	22256.323052
23.038000	-0.000353	0.000972	-0.001417	0.002273	6766.761326	40652.133938	4079.385789	22225.597614
23.535500	0.001144	0.001053	0.000956	0.002556	6776.967383	40634.758642	4084.130110	22213.165711
24.035500	0.000516	0.000530	-0.004758	0.002048	6775.959253	40633.420187	4072.356839	22235.510474
24.538500	0.003224	0.000128	-0.003576	0.001767	6801.201043	40622.952100	4075.649523	22247.866544
25.036000	0.000357	-0.000047	0.001684	0.001544	6778.864619	40627.178809	4088.095905	22257.712298
25.536500	-0.000828	0.001234	0.002503	0.002281	6762.705683	40674.054585	4088.281779	22225.233849
26.036500	-0.000401	0.001017	-0.001044	0.002490	6764.543529	40637.287603	4079.740341	22216.055317
26.537000	0.000377	0.000776	0.001555	0.001866	6776.318453	40670.369213	4087.065540	22243.514300
27.040000	0.001232	0.000284	0.003117	-0.001456	6811.643717	40915.660032	4098.270585	22390.384077
27.535000	0.000655	0.000966	-0.000508	0.000675	6788.702137	40789.903281	4085.076334	22296.034835
28.035000	0.000086	0.000120	-0.003436	0.000719	6783.527640	40712.786357	4078.333339	22294.097343
28.535000	0.001203	0.000874	0.002363	0.001485	6786.497088	40711.778007	4089.782940	22260.315288
29.036000	-0.000974	0.000477	-0.002853	0.001023	6772.046203	40717.485903	4078.966100	22280.700486
29.536000	0.001993	0.000776	-0.003046	0.001592	6792.263795	40694.097527	4077.242485	22255.604305
30.036500	0.002333	0.001017	0.002118	0.001777	6793.577714	40698.974704	4088.554669	22247.452545
30.536000	0.000864	0.001135	0.001536	0.003399	6767.525527	40569.111070	4083.530710	22176.120576
31.036500	0.001149	0.000585	-0.001527	0.001956	6782.069794	40646.121151	4079.855673	22239.566820
31.537000	0.000664	0.000542	0.000574	0.001462	6782.141387	40685.067286	4085.750339	22261.313098
32.037500	0.001048	0.000742	-0.003544	0.001332	6786.474903	40713.564799	4076.705141	22267.042193
32.535000	0.000242	0.001397	-0.001435	0.001499	6778.270136	40755.817312	4081.099712	22259.683991
33.035000	0.001752	-0.000186	-0.001709	-0.001871	6819.599713	40910.925037	4088.146100	22408.826842
33.535500	0.001812	0.000469	-0.003872	0.002512	6782.961468	40588.141376	4073.306436	22215.070750
34.036000	-0.000798	0.000292	0.002799	0.002398	6761.978539	40582.715171	4088.690658	22220.088590
34.536000	-0.002096	-0.000472	0.002259	0.001678	6757.139475	40578.987007	4089.103065	22251.808913
35.036000	-0.001237	0.000438	0.001721	0.002574	6756.831463	40580.127671	4085.828404	22212.352120
35.536500	-0.000609	0.000707	0.001080	0.003142	6757.333206	40554.446285	4083.080363	22187.417840
36.036500	0.000459	0.000737	-0.001616	0.002775	6769.365004	40588.583817	4077.800642	22203.528302
36.537000	0.000133	0.000495	-0.005322	0.002462	6769.255959	40594.736077	4070.163495	22217.299426
37.037500	-0.000288	0.001050	-0.004400	0.002371	6766.482267	40650.421816	4072.435351	22221.270880
37.537500	0.000270	0.001560	-0.000016	0.003326	6763.156782	40612.060121	4080.175126	22179.328015
38.035500	0.000439	0.000014	-0.003802	0.002175	6774.242655	40578.023280	4074.223363	22229.925226
38.538500	0.000391	0.000550	0.002163	0.002821	6768.408752	40568.485321	4086.275600	22201.506010
39.035500	0.001843	0.000456	-0.000691	0.002393	6784.230969	40597.286187	4080.759585	22220.324875
39.536000	-0.000054	0.000516	-0.006525	0.002854	6764.397379	40562.817378	4066.592671	22200.068157
40.036500	-0.001059	0.001418	-0.003150	0.003213	6752.976368	40609.584169	4073.354824	22184.300342
40.536500	0.000615	0.000634	-0.000051	0.002835	6770.172140	40574.536451	4081.207987	22200.901178
41.037000	-0.001784	0.000524	-0.001974	0.002515	6752.741876	40592.600740	4077.578326	22214.935869
41.534500	-0.000279	0.000480	0.002666	0.002675	6764.010610	40575.041166	4087.755864	22207.927112
42.037500	-0.003017	0.000401	0.000881	0.002365	6743.700969	40594.958295	4084.394273	22221.555924
42.535000	0.002175	0.001051	0.002132	0.002825	6783.387962	40611.354922	4086.194076	22201.335454
43.034500	-0.000454	0.000699	0.002167	0.002231	6766.275197	40632.288532	4087.630685	22227.473593
43.535500	0.002568	0.000845	0.001174	-0.002049	6828.074053	41016.156249	4095.161830	22416.729172
44.035500	0.002060	0.000914	0.004326	0.001521	6793.426623	40712.158667	4094.200802	22258.719756
44.536500	-0.000647	-0.000114	-0.002990	0.000809	6776.598203	40684.825622	4079.137481	22290.113555
45.036500	0.001624	0.000515	0.002130	0.001624	6788.870274	40668.715521	4088.929585	22254.164947
45.537000	-0.000112	0.000370	-0.000271	0.001246	6777.429402	40688.930253	4084.318240	22270.859245
46.037000	0.001932	0.001190	-0.000820	0.002326	6785.547704	40666.432216	4080.617434	22223.265135
46.535000	-0.000332	0.000375	0.000122	0.001483	6773.580384	40668.875483	4084.673773	22260.413203
47.035000	0.000844	0.000551	0.001926	0.002947	6771.159914	40557.738985	4085.447704	22195.971507
47.538000	0.001741	0.000654	-0.002645	0.002202	6784.985733	40630.867385	4076.769898	22228.729761
48.035500	0.001764	0.000353	0.000405	0.001172	6793.882120	40693.896933	4086.027808	22274.133703
48.536000	0.001503	0.000353	0.001068	0.001275	6790.798933	40684.951672	4087.303710	22269.574832
49.035500	0.002320	0.000929	-0.001116	-0.001006	6817.073162	40932.668162	4087.523857	22370.446093
49.536500	0.001204	0.000369	-0.000203	-0.000111	6800.004716	40806.312560	4087.567201	22330.818299
50.037000	0.000510	0.000852	0.004470	0.005370	6748.053705	40375.392423	4085.722091	22089.785088
50.536500	-0.017280	0.001874	0.013477	0.296349	4902.537495	22244.729819	3613.162302	12824.299057
51.037000	-0.029755	0.000331	-0.006302	0.016170	6420.826419	39417.730301	4037.774737	21623.765501
51.534500	-0.014799	-0.026680	0.015973	-0.152782	8160.589075	53436.490911	4558.641925	30425.673681
52.035000	0.025694	-0.039975	0.059764	-0.217724	9545.346320	59786.525732	4974.703592	34830.837569
52.535000	0.047557	-0.028566	0.078606	-0.180542	9322.682882	56523.309876	4897.022600	32228.394001
53.035500	0.054098	-0.021121	0.088786	-0.153077	9030.972516	54118.831219	4826.759435	30444.220250
53.536000	0.086065	-0.001452	0.113925	-0.045843	8090.574828	44812.459419	4528.690172	24464.665694
54.036500	0.115793	0.010653	0.133609	-0.040841	8381.723272	45499.512530	4577.948510	24220.201088
54.536500	0.145135	0.022459	0.164259	0.006155	8172.167204	42203.507540	4523.214127	22055.533296
55.036500	0.180029	0.038266	0.196940	0.060061	7955.811743	38923.706201	4455.149350	19844.559473
55.537000	0.211522	0.053517	0.226265	0.137802	7467.438346	34129.867538	4311.794299	17102.551934
56.037500	0.242839	0.066619	0.263872	0.214444	7036.697833	29913.635455	4207.301260	14839.567022
56.534500	0.265948	0.079965	0.286749	0.297043	6535.444492	25969.186464	4064.550033	12808.799231
57.035000	0.283797	0.088943	0.298812	0.360614	6194.254081	23273.959008	3956.251013	11488.725373
57.535500	0.300473	0.094086	0.319317	0.410587	5967.441864	21300.543660	3899.830954	10578.502574
58.035500	0.316308	0.101577	0.340406	0.450639	5813.073802	19989.696566	3865.497316	9920.939569
58.535500	0.326784	0.106719	0.348893	0.481382	5690.331250	19025.886065	3827.067455	9455.787960
59.036500	0.331723	0.108225	0.354875	0.504674	5584.019677	18249.231187	3798.509036	9124.645188
59.536500	0.340115	0.108397	0.362100	0.520579	5541.776389	17712.139072	3784.613186	8908.520480
60.036500	0.352117	0.113421	0.363637	0.535461	5525.780453	17385.373535	3763.781633	8713.346568
60.537500	0.347655	0.112352	0.381480	0.551500	5414.901710	16835.612060	3766.561313	8510.347574
61.037500	0.355378	0.113621	0.374227	0.524208	5607.503613	17765.721720	3798.216540	8860.316574
61.537500	0.363864	0.117047	0.372101	0.530882	5617.896632	17656.803561	3784.133473	8772.682713
62.037500	0.361723	0.114719	0.373116	0.529613	5612.891457	17621.518939	3787.762824	8789.251662
62.535000	0.364656	0.114526	0.369300	0.530288	5625.876591	17592.623351	3780.647771	8780.429196
63.044500	0.369252	0.114607	0.378544	0.532990	5636.826788	17505.732242	3791.035144	8745.289276
63.536500	0.371677	0.114500	0.380010	0.535395	5636.939044	17422.933863	3789.534603	8714.190962
64.036500	0.372664	0.111384	0.377864	0.536175	5638.142288	17295.498701	3784.879845	8704.147041
64.536500	0.373930	0.110689	0.383525	0.539650	5625.370154	17160.372523	3788.354117	8659.599918
65.037000	0.376605	0.112747	0.377410	0.543700	5617.453290	17096.262223	3772.342385	8608.132383
65.537500	0.376581	0.109781	0.387048	0.544796	5611.023274	16966.460918	3785.773308	8594.282240
66.037500	0.376230	0.109150	0.382952	0.548650	5587.032703	16824.524340	3773.264269	8545.865603
66.535000	0.379551	0.109879	0.384639	0.552718	5582.792816	16719.828275	3769.563239	8495.229890
67.035500	0.380767	0.108458	0.392651	0.555471	5574.100535	16590.072985	3777.766960	8461.237127
67.535000	0.382871	0.108035	0.397428	0.559978	5560.566424	16438.385769	3778.190935	8406.037821
68.036000	0.389337	0.109026	0.396144	0.564302	5572.625347	16336.821196	3769.441365	8353.611649
68.536500	0.386907	0.108053	0.394247	0.566240	5548.090839	16248.727003	3763.522497	8330.283281
69.036500	0.389745	0.106541	0.393074	0.567852	5554.954068	16154.872288	3759.256099	8310.961951
69.536500	0.388529	0.106027	0.402825	0.570071	5535.777759	16073.293638	3770.855442	8284.470603
70.037000	0.390940	0.103428	0.391172	0.569229	5553.928793	16021.126167	3754.268874	8294.506886
70.534500	0.390344	0.103299	0.400644	0.570228	5545.013137	15987.764221	3767.233596	8282.608854
71.034500	0.392997	0.104207	0.394588	0.574788	5534.396150	15880.279220	3751.030361	8228.628775
71.535000	0.393103	0.100790	0.399126	0.574665	5535.664613	15784.081581	3758.094772	8230.070301
72.035500	0.394262	0.101253	0.401347	0.578358	5521.616456	15690.485779	3755.855897	8186.754946
72.536000	0.397118	0.100870	0.404907	0.580464	5525.768792	15618.851292	3758.068021	8162.219954
73.036000	0.394028	0.096824	0.398233	0.580158	5510.402516	15511.957983	3748.434077	8165.779334
73.536000	0.397133	0.097707	0.409962	0.582526	5514.461273	15469.788326	3762.645851	8138.314127
74.036500	0.399410	0.096494	0.402724	0.584869	5514.099949	15369.339386	3748.104623	8111.284486
74.536500	0.399368	0.096975	0.403840	0.588408	5494.448428	15283.618055	3744.477974	8070.734778
75.036500	0.399448	0.096178	0.405755	0.590288	5484.630771	15209.071438	3744.529581	8049.319958
75.538000	0.402403	0.093432	0.409354	0.592340	5489.548543	15076.613583	3746.842767	8026.061375
76.035000	0.401083	0.091704	0.409500	0.592945	5479.070147	15012.721602	3746.155077	8019.219447
76.535000	0.402397	0.089588	0.411755	0.594849	5475.875001	14903.456987	3746.681165	7997.767958
77.035500	0.406246	0.092377	0.411667	0.600391	5466.708399	14829.180397	3738.303051	7935.843947
77.536000	0.406300	0.092261	0.420333	0.602847	5453.773118	14760.266730	3747.550064	7908.664143
78.036500	0.409297	0.091925	0.415279	0.604839	5459.177118	14698.186774	3737.068169	7886.718882
78.536500	0.404985	0.088507	0.415911	0.605199	5434.160038	14598.199520	3737.468854	7882.765116
79.036500	0.409001	0.086307	0.418255	0.607287	5444.452263	14485.774665	3737.847746	7859.901613
79.537000	0.409819	0.084564	0.420745	0.608198	5443.953583	14416.708800	3740.185118	7849.951963
80.040000	0.406890	0.082040	0.416099	0.609963	5418.983886	14306.019394	3730.748547	7830.753094
80.534500	0.408988	0.082533	0.418084	0.613084	5413.578947	14238.722743	3729.090740	7796.979226
81.035000	0.409618	0.081946	0.424942	0.613655	5413.888540	14209.195016	3738.318905	7790.824310
81.535500	0.412063	0.080509	0.428357	0.616526	5411.642086	14100.080677	3739.124251	7760.014225
82.036000	0.413451	0.081748	0.433012	0.621242	5394.154162	14012.766500	3739.032432	7709.834715
82.536000	0.412284	0.077318	0.421413	0.621222	5388.163388	13903.056916	3722.121522	7710.054694
83.036000	0.411250	0.076833	0.425229	0.628616	5344.590123	13709.789152	3716.986430	7632.472423
83.536500	0.411804	0.077546	0.429228	0.627584	5352.723051	13752.294755	3724.219898	7643.224444
84.036500	0.414858	0.075114	0.432207	0.627618	5368.293729	13692.277954	3728.492390	7642.865521
84.540000	0.414714	0.073866	0.433142	0.630490	5352.746964	13592.754730	3725.679195	7613.022139
85.034500	0.419409	0.073236	0.439667	0.633343	5362.229336	13509.380150	3731.023829	7583.567879
85.535000	0.417394	0.071636	0.430112	0.634425	5346.303855	13445.619127	3715.663501	7572.446081
86.035500	0.417688	0.070067	0.444304	0.637087	5334.207134	13345.827486	3732.330234	7545.205664
86.535500	0.420262	0.070518	0.432944	0.639916	5332.905024	13290.144603	3711.883202	7516.433513
87.035500	0.417229	0.067986	0.434620	0.645485	5289.525293	13102.809938	3706.389135	7460.351672
87.536000	0.423720	0.069054	0.447742	0.645376	5322.734146	13129.821686	3725.264687	7461.440111
88.036500	0.420387	0.067426	0.439395	0.647214	5296.671237	13050.503618	3710.682662	7443.080970
88.537000	0.423578	0.066000	0.432821	0.648967	5303.887144	12978.317082	3699.014119	7425.643591
89.036500	0.423340	0.066868	0.441344	0.657484	5260.325787	12806.782647	3699.022089	7341.922917
89.537500	0.421947	0.063451	0.444018	0.652854	5276.328690	12833.793809	3709.246053	7387.234390
90.035000	0.425666	0.063900	0.446051	0.656894	5274.734527	12754.057927	3706.419638	7347.666752
90.535000	0.424093	0.062976	0.449670	0.658910	5257.013840	12689.290531	3708.676242	7328.068741
91.035500	0.427948	0.061685	0.444953	0.660707	5267.158482	12621.733722	3699.559210	7310.668634
91.535500	0.428292	0.061233	0.454114	0.663719	5254.017415	12546.501700	3708.162566	7281.669103
92.036000	0.432444	0.060382	0.454654	0.666831	5259.132523	12461.177765	3704.547933	7251.914218
92.536000	0.429078	0.058414	0.454214	0.667312	5240.273762	12408.808328	3703.259190	7247.328789
93.036500	0.432115	0.056944	0.455659	0.670237	5240.822393	12315.636601	3701.194243	7219.594119
93.537000	0.431708	0.057622	0.451344	0.672905	5225.863243	12273.737375	3691.543687	7194.446383
94.037000	0.429074	0.054517	0.449819	0.673217	5211.632868	12202.242214	3689.031630	7191.518306
94.534000	0.431621	0.054225	0.459253	0.676676	5207.252759	12124.435691	3697.244147	7159.180366
95.035000	0.435068	0.054850	0.456479	0.680444	5205.705385	12059.733719	3688.257613	7124.234167
95.535500	0.433765	0.054000	0.460253	0.681341	5195.174666	12023.962967	3692.193283	7115.959556
