sample name	sample
index	696
start time	 03-22-2021  12:40:39 PM


Wavelength (nm)	Absorbance
494.344910	-0.269405
494.563924	-0.269405
494.782919	-0.269405
495.001897	NaN
495.220856	0.346396
495.439797	0.324663
495.658719	0.473084
495.877624	0.366509
496.096510	0.194749
496.315378	0.271168
496.534227	0.096219
496.753059	0.012519
496.971872	-0.017619
497.190667	0.049954
497.409444	0.052133
497.628203	0.051992
497.846943	0.054521
498.065665	0.054520
498.284369	0.054398
498.503055	0.053996
498.721723	0.054799
498.940372	0.054764
499.159003	0.054046
499.377616	0.053549
499.596210	0.053246
499.814787	0.052911
500.033345	0.052056
500.251885	0.051813
500.470406	0.052473
500.688910	0.052856
500.907395	0.052761
501.125862	0.054297
501.344311	0.054691
501.562742	0.054959
501.781154	0.054687
501.999548	0.055577
502.217924	0.055788
502.436282	0.056100
502.654621	0.054831
502.872942	0.054274
503.091245	0.053535
503.309530	0.053773
503.527797	0.053857
503.746045	0.053908
503.964275	0.053537
504.182487	0.053070
504.400681	0.053087
504.618856	0.053484
504.837013	0.053967
505.055152	0.053682
505.273273	0.054285
505.491376	0.053588
505.709460	0.053540
505.927526	0.053575
506.145574	0.054212
506.363604	0.053561
506.581615	0.053244
506.799608	0.052351
507.017583	0.052561
507.235540	0.051641
507.453478	0.052589
507.671399	0.053186
507.889301	0.053453
508.107185	0.052361
508.325050	0.052328
508.542898	0.052511
508.760727	0.053293
508.978538	0.052369
509.196330	0.053180
509.414105	0.053014
509.631861	0.053009
509.849599	0.053255
510.067319	0.054279
510.285021	0.054867
510.502704	0.054869
510.720369	0.054568
510.938016	0.055434
511.155645	0.054731
511.373255	0.054634
511.590848	0.054054
511.808422	0.054493
512.025977	0.053692
512.243515	0.052623
512.461034	0.052549
512.678536	0.052697
512.896018	0.052234
513.113483	0.053138
513.330930	0.053354
513.548358	0.052877
513.765768	0.051761
513.983160	0.052236
514.200533	0.052758
514.417889	0.052654
514.635226	0.052435
514.852545	0.052536
515.069845	0.051275
515.287128	0.051275
515.504392	0.051780
515.721638	0.052037
515.938866	0.052313
516.156075	0.052394
516.373267	0.052494
516.590440	0.052457
516.807594	0.052814
517.024731	0.053045
517.241850	0.052577
517.458950	0.052426
517.676032	0.052339
517.893095	0.051836
518.110141	0.051598
518.327168	0.051597
518.544177	0.052027
518.761168	0.051693
518.978141	0.052172
519.195095	0.052573
519.412031	0.052574
519.628949	0.052543
519.845849	0.052315
520.062731	0.052319
520.279594	0.052466
520.496439	0.052508
520.713266	0.052861
520.930074	0.052851
521.146865	0.052901
521.363637	0.053154
521.580391	0.053537
521.797127	0.053817
522.013844	0.053681
522.230543	0.053792
522.447224	0.053723
522.663887	0.053783
522.880532	0.053645
523.097158	0.053460
523.313766	0.053816
523.530356	0.053177
523.746928	0.053672
523.963481	0.053805
524.180017	0.053649
524.396534	0.054066
524.613032	0.053441
524.829513	0.053382
525.045975	0.053451
525.262420	0.053503
525.478845	0.054148
525.695253	0.054343
525.911643	0.054352
526.128014	0.054319
526.344367	0.054296
526.560702	0.054672
526.777018	0.055345
526.993316	0.055274
527.209597	0.054775
527.425858	0.054855
527.642102	0.054709
527.858328	0.055031
528.074535	0.055053
528.290724	0.054928
528.506894	0.055287
528.723047	0.054770
528.939181	0.055000
529.155297	0.055181
529.371395	0.055409
529.587475	0.055280
529.803536	0.055639
530.019579	0.056179
530.235604	0.056081
530.451611	0.056214
530.667600	0.056501
530.883570	0.056549
531.099522	0.056962
531.315456	0.056262
531.531372	0.056635
531.747269	0.056706
531.963148	0.056252
532.179009	0.056012
532.394852	0.055520
532.610676	0.055390
532.826482	0.055332
533.042271	0.055191
533.258040	0.055547
533.473792	0.055261
533.689525	0.054712
533.905240	0.054594
534.120937	0.054969
534.336616	0.055314
534.552277	0.055687
534.767919	0.055841
534.983543	0.055764
535.199149	0.056164
535.414736	0.056346
535.630306	0.056869
535.845857	0.057060
536.061390	0.056977
536.276904	0.057321
536.492401	0.057293
536.707879	0.057225
536.923339	0.057805
537.138781	0.057237
537.354204	0.056807
537.569610	0.056796
537.784997	0.057285
538.000366	0.057404
538.215716	0.057432
538.431049	0.057291
538.646363	0.057273
538.861659	0.056754
539.076937	0.056822
539.292196	0.057352
539.507438	0.057137
539.722661	0.056965
539.937866	0.057078
540.153052	0.057176
540.368221	0.057168
540.583371	0.057608
540.798503	0.057615
541.013617	0.057769
541.228712	0.057635
541.443789	0.057947
541.658848	0.057711
541.873889	0.057744
542.088912	0.057596
542.303916	0.057611
542.518902	0.057452
542.733870	0.057855
542.948820	0.058231
543.163752	0.058672
543.378665	0.058789
543.593560	0.059755
543.808437	0.059737
544.023295	0.059831
544.238136	0.059998
544.452958	0.060014
544.667762	0.059795
544.882548	0.059792
545.097315	0.059705
545.312064	0.059579
545.526795	0.058755
545.741508	0.058989
545.956203	0.058713
546.170879	0.058752
546.385537	0.058648
546.600177	0.058868
546.814799	0.058531
547.029402	0.058480
547.243988	0.058715
547.458555	0.058965
547.673103	0.058935
547.887634	0.059016
548.102146	0.058764
548.316640	0.059193
548.531116	0.058917
548.745574	0.059072
548.960013	0.058896
549.174435	0.058333
549.388838	0.058063
549.603222	0.058014
549.817589	0.057866
550.031937	0.058202
550.246267	0.058049
550.460579	0.058429
550.674873	0.058759
550.889148	0.058624
551.103405	0.058936
551.317644	0.059317
551.531865	0.059480
551.746068	0.059750
551.960252	0.059712
552.174418	0.059573
552.388566	0.059869
552.602696	0.059684
552.816807	0.059843
553.030900	0.060028
553.244975	0.060060
553.459032	0.059858
553.673070	0.060071
553.887091	0.060272
554.101093	0.060598
554.315077	0.060443
554.529042	0.060802
554.742990	0.060671
554.956919	0.060421
555.170830	0.060377
555.384722	0.060220
555.598597	0.060163
555.812453	0.059931
556.026291	0.059859
556.240111	0.059779
556.453913	0.059568
556.667696	0.059947
556.881461	0.060352
557.095208	0.060569
557.308937	0.061275
557.522647	0.061166
557.736339	0.061303
557.950013	0.061262
558.163669	0.061630
558.377307	0.061625
558.590926	0.061893
558.804527	0.062057
559.018110	0.061840
559.231675	0.061425
559.445221	0.061560
559.658749	0.061834
559.872259	0.061906
560.085751	0.061572
560.299225	0.061720
560.512680	0.061639
560.726117	0.061492
560.939536	0.061858
561.152937	0.062268
561.366319	0.062585
561.579683	0.062521
561.793029	0.062631
562.006357	0.062830
562.219667	0.062852
562.432958	0.062800
562.646231	0.063102
562.859486	0.063417
563.072723	0.063206
563.285941	0.063234
563.499141	0.063114
563.712323	0.063051
563.925487	0.063228
564.138632	0.063386
564.351760	0.063552
564.564869	0.063524
564.777960	0.062749
564.991032	0.062801
565.204087	0.062728
565.417123	0.063269
565.630141	0.063355
565.843140	0.063143
566.056122	0.063267
566.269085	0.063264
566.482030	0.063096
566.694957	0.063538
566.907866	0.063588
567.120756	0.063481
567.333628	0.062958
567.546482	0.063193
567.759318	0.063223
567.972135	0.063173
568.184935	0.063128
568.397716	0.063157
568.610478	0.063192
568.823223	0.063617
569.035949	0.063497
569.248657	0.063589
569.461347	0.063637
569.674019	0.063977
569.886672	0.063824
570.099308	0.063759
570.311925	0.063751
570.524523	0.063514
570.737104	0.063120
570.949666	0.063192
571.162210	0.063355
571.374736	0.063222
571.587244	0.063082
571.799733	0.063324
572.012205	0.063553
572.224658	0.063615
572.437092	0.063649
572.649509	0.063754
572.861907	0.063939
573.074287	0.064067
573.286649	0.064075
573.498993	0.063931
573.711318	0.063975
573.923625	0.064256
574.135914	0.064421
574.348185	0.064690
574.560438	0.064711
574.772672	0.065077
574.984888	0.065162
575.197086	0.065173
575.409266	0.065216
575.621427	0.065222
575.833570	0.065013
576.045695	0.064976
576.257802	0.064943
576.469890	0.065119
576.681961	0.064669
576.894013	0.064710
577.106046	0.064477
577.318062	0.064578
577.530059	0.064447
577.742039	0.064141
577.954000	0.064337
578.165942	0.064206
578.377867	0.063958
578.589773	0.064310
578.801661	0.064060
579.013531	0.064523
579.225382	0.064552
579.437216	0.064498
579.649031	0.064983
579.860828	0.064777
580.072606	0.065312
580.284367	0.065439
580.496109	0.065389
580.707833	0.065354
580.919539	0.065415
581.131227	0.065659
581.342896	0.065772
581.554547	0.065649
581.766180	0.065894
581.977795	0.065635
582.189391	0.065860
582.400969	0.065907
582.612529	0.066541
582.824071	0.066573
583.035595	0.066330
583.247100	0.066504
583.458587	0.066420
583.670056	0.066291
583.881506	0.066580
584.092939	0.066849
584.304353	0.066844
584.515749	0.066539
584.727127	0.066519
584.938486	0.066791
585.149828	0.066923
585.361151	0.067132
585.572456	0.066903
585.783742	0.066724
585.995011	0.066426
586.206261	0.066595
586.417493	0.066736
586.628706	0.066919
586.839902	0.066899
587.051079	0.067077
587.262238	0.067034
587.473379	0.067425
587.684502	0.067740
587.895606	0.067628
588.106692	0.067487
588.317760	0.067589
588.528810	0.067627
588.739841	0.067659
588.950855	0.067513
589.161850	0.067703
589.372827	0.067636
589.583785	0.067380
589.794726	0.067561
590.005648	0.067798
590.216552	0.068077
590.427437	0.068092
590.638305	0.067977
590.849154	0.068112
591.059985	0.068146
591.270798	0.068559
591.481592	0.068685
591.692369	0.068824
591.903127	0.068800
592.113867	0.068402
592.324588	0.068076
592.535292	0.068265
592.745977	0.068303
592.956644	0.068384
593.167293	0.068160
593.377923	0.068095
593.588536	0.068224
593.799130	0.068063
594.009706	0.068335
594.220263	0.068709
594.430803	0.068676
594.641324	0.068733
594.851827	0.068628
595.062312	0.068886
595.272778	0.069349
595.483227	0.069156
595.693657	0.069248
595.904069	0.069230
596.114462	0.069362
596.324838	0.069195
596.535195	0.069077
596.745534	0.069157
596.955855	0.069172
597.166157	0.068780
597.376441	0.069040
597.586707	0.069506
597.796955	0.069477
598.007185	0.069344
598.217396	0.069614
598.427589	0.069833
598.637764	0.069873
598.847921	0.069815
599.058060	0.070190
599.268180	0.070348
599.478282	0.070454
599.688366	0.070584
599.898431	0.070726
600.108479	0.070839
600.318508	0.070935
600.528519	0.070998
600.738511	0.070821
600.948486	0.070730
601.158442	0.070684
601.368380	0.070521
601.578300	0.070593
601.788202	0.070340
601.998085	0.070385
602.207950	0.070291
602.417797	0.070412
602.627626	0.070550
602.837436	0.070622
603.047228	0.070526
603.257002	0.070383
603.466758	0.070336
603.676496	0.070539
603.886215	0.070602
604.095916	0.070728
604.305599	0.070699
604.515264	0.070728
604.724910	0.070793
604.934538	0.070807
605.144148	0.070987
605.353740	0.071343
605.563314	0.071406
605.772869	0.071492
605.982406	0.071568
606.191925	0.071640
606.401425	0.071661
606.610908	0.071774
606.820372	0.071981
607.029818	0.072126
607.239246	0.071824
607.448655	0.071846
607.658047	0.071627
607.867420	0.071420
608.076775	0.071265
608.286111	0.071657
608.495430	0.071644
608.704730	0.071617
608.914012	0.071624
609.123275	0.071457
609.332521	0.071398
609.541748	0.071717
609.750957	0.071940
609.960148	0.071904
610.169321	0.071703
610.378475	0.071576
610.587611	0.071648
610.796729	0.071669
611.005829	0.071893
611.214910	0.072265
611.423974	0.072107
611.633019	0.071845
611.842045	0.072136
612.051054	0.072032
612.260044	0.072180
612.469017	0.072218
612.677970	0.071928
612.886906	0.071976
613.095824	0.071589
613.304723	0.071701
613.513604	0.071763
613.722467	0.071738
613.931311	0.071921
614.140138	0.071769
614.348946	0.071588
614.557736	0.071781
614.766507	0.071736
614.975261	0.071975
615.183996	0.071867
615.392713	0.071863
615.601412	0.071758
615.810092	0.071484
616.018754	0.071502
616.227399	0.071508
616.436024	0.071294
616.644632	0.071168
616.853222	0.071147
617.061793	0.071235
617.270346	0.071663
617.478880	0.071783
617.687397	0.072250
617.895895	0.072329
618.104375	0.072556
618.312837	0.072955
618.521281	0.073424
618.729706	0.073400
618.938113	0.073452
619.146502	0.073328
619.354873	0.073384
619.563226	0.073333
619.771560	0.073670
619.979876	0.073732
620.188174	0.073589
620.396453	0.073629
620.604715	0.073799
620.812958	0.073950
621.021183	0.073997
621.229390	0.074016
621.437578	0.074114
621.645748	0.073871
621.853900	0.073688
622.062034	0.073976
622.270150	0.074033
622.478247	0.074001
622.686326	0.073842
622.894387	0.073884
623.102430	0.073892
623.310454	0.073647
623.518461	0.073802
623.726449	0.073877
623.934418	0.073803
624.142370	0.073669
624.350303	0.073693
624.558218	0.073832
624.766115	0.073879
624.973994	0.074090
625.181855	0.074448
625.389697	0.074530
625.597521	0.074629
625.805327	0.074547
626.013114	0.074509
626.220883	0.074685
626.428634	0.074782
626.636367	0.074868
626.844082	0.074680
627.051778	0.074509
627.259457	0.074560
627.467117	0.074860
627.674758	0.074731
627.882382	0.074998
628.089987	0.075284
628.297574	0.075416
628.505143	0.075319
628.712694	0.075547
628.920226	0.075623
629.127740	0.075654
629.335236	0.075448
629.542714	0.075697
629.750174	0.075535
629.957615	0.075123
630.165038	0.074973
630.372443	0.075022
630.579829	0.074874
630.787198	0.074814
630.994548	0.074759
631.201880	0.074672
631.409194	0.074631
631.616489	0.074615
631.823766	0.074751
632.031025	0.074800
632.238266	0.074689
632.445489	0.074667
632.652693	0.074667
632.859879	0.074582
633.067047	0.074586
633.274197	0.074707
633.481329	0.074817
633.688442	0.074928
633.895537	0.074872
634.102614	0.075150
634.309672	0.075272
634.516713	0.075435
634.723735	0.075593
634.930739	0.075579
635.137724	0.075484
635.344692	0.075541
635.551641	0.075494
635.758572	0.075776
635.965485	0.075556
636.172379	0.075806
636.379256	0.075895
636.586114	0.076094
636.792954	0.076416
636.999775	0.076596
637.206579	0.076480
637.413364	0.076618
637.620131	0.076623
637.826880	0.076947
638.033610	0.076819
638.240323	0.076857
638.447017	0.076623
638.653692	0.076452
638.860350	0.076514
639.066990	0.076762
639.273611	0.076673
639.480214	0.076798
639.686798	0.076681
639.893365	0.076753
640.099913	0.076792
640.306443	0.076919
640.512955	0.076997
640.719449	0.077050
640.925924	0.076938
641.132381	0.077006
641.338820	0.076929
641.545241	0.076938
641.751644	0.076937
641.958028	0.076995
642.164394	0.077181
642.370742	0.077307
642.577071	0.077510
642.783383	0.077646
642.989676	0.077633
643.195951	0.077630
643.402207	0.077794
643.608446	0.077905
643.814666	0.077790
644.020868	0.077764
644.227052	0.077861
644.433218	0.077774
644.639365	0.077905
644.845494	0.078173
645.051605	0.078107
645.257698	0.078193
645.463772	0.078069
645.669828	0.078315
645.875866	0.078325
646.081886	0.078350
646.287888	0.078285
646.493871	0.078166
646.699836	0.078041
646.905783	0.078030
647.111712	0.078035
647.317622	0.078231
647.523514	0.078110
647.729388	0.078267
647.935244	0.078258
648.141082	0.078345
648.346901	0.078466
648.552702	0.078638
648.758485	0.078888
648.964250	0.079009
649.169996	0.079024
649.375724	0.079075
649.581434	0.078927
649.787126	0.078801
649.992800	0.078647
650.198455	0.078438
650.404092	0.078270
650.609711	0.078035
650.815311	0.077840
651.020894	0.077630
651.226458	0.077528
651.432004	0.077501
651.637532	0.077696
651.843041	0.077673
652.048532	0.077901
652.254006	0.077911
652.459460	0.078023
652.664897	0.077996
652.870315	0.078148
653.075716	0.078140
653.281097	0.078285
653.486461	0.078132
653.691807	0.078334
653.897134	0.078251
654.102443	0.078559
654.307734	0.078667
654.513006	0.078835
654.718261	0.079118
654.923497	0.079316
655.128715	0.079322
655.333915	0.079675
655.539096	0.079783
655.744259	0.080040
655.949404	0.079886
656.154531	0.080010
656.359640	0.079966
656.564730	0.079779
656.769802	0.079678
656.974856	0.079701
657.179892	0.079767
657.384909	0.079957
657.589908	0.079653
657.794889	0.079896
657.999852	0.079981
658.204797	0.080037
658.409723	0.080041
658.614631	0.080205
658.819521	0.080245
659.024393	0.080095
659.229246	0.080111
659.434081	0.080431
659.638898	0.080293
659.843697	0.080304
660.048478	0.080425
660.253240	0.080584
660.457984	0.080541
660.662710	0.080705
660.867417	0.080832
661.072107	0.080681
661.276778	0.080487
661.481431	0.080458
661.686066	0.080356
661.890682	0.080331
662.095281	0.080236
662.299861	0.080493
662.504422	0.080396
662.708966	0.080315
662.913491	0.080216
663.117999	0.080457
663.322488	0.080575
663.526958	0.080700
663.731411	0.080797
663.935845	0.080909
664.140261	0.080948
664.344659	0.081149
664.549038	0.081264
664.753400	0.081443
664.957743	0.081394
665.162068	0.081567
665.366375	0.081682
665.570663	0.081974
665.774933	0.082024
665.979185	0.082026
666.183419	0.081960
666.387635	0.081941
666.591832	0.082038
666.796011	0.082156
667.000172	0.082106
667.204315	0.082024
667.408439	0.081979
667.612545	0.082254
667.816634	0.082245
668.020703	0.082311
668.224755	0.082621
668.428788	0.082484
668.632803	0.082526
668.836800	0.082469
669.040779	0.082674
669.244739	0.082523
669.448681	0.082423
669.652605	0.082296
669.856511	0.082156
670.060399	0.082032
670.264268	0.082271
670.468119	0.082256
670.671952	0.082571
670.875767	0.082601
671.079563	0.082787
671.283341	0.082988
671.487101	0.083337
671.690843	0.083764
671.894567	0.083965
672.098272	0.084099
672.301959	0.084312
672.505628	0.084255
672.709278	0.084395
672.912911	0.084375
673.116525	0.084444
673.320121	0.084423
673.523699	0.084361
673.727258	0.084332
673.930799	0.084301
674.134322	0.084295
674.337827	0.084240
674.541314	0.084250
674.744782	0.084268
674.948232	0.083965
675.151664	0.083927
675.355078	0.083994
675.558474	0.084173
675.761851	0.084316
675.965210	0.084410
676.168551	0.084552
676.371873	0.084442
676.575178	0.084564
676.778464	0.084685
676.981732	0.084885
677.184981	0.084767
677.388213	0.084673
677.591426	0.084593
677.794621	0.084716
677.997798	0.084738
678.200956	0.084850
678.404097	0.084792
678.607219	0.085059
678.810323	0.085035
679.013408	0.085080
679.216476	0.085058
679.419525	0.085111
679.622556	0.085066
679.825569	0.084915
680.028563	0.084882
680.231540	0.084894
680.434498	0.084887
680.637438	0.084910
680.840359	0.084885
681.043263	0.084938
681.246148	0.085076
681.449015	0.085088
681.651864	0.085181
681.854694	0.085285
682.057506	0.085375
682.260301	0.085384
682.463076	0.085411
682.665834	0.085557
682.868573	0.085646
683.071295	0.085617
683.273998	0.085684
683.476682	0.085800
683.679349	0.085888
683.881997	0.086102
684.084627	0.086138
684.287239	0.086137
684.489833	0.086271
684.692408	0.086210
684.894965	0.086211
685.097504	0.086177
685.300025	0.086291
685.502527	0.086337
685.705012	0.086358
685.907478	0.086415
686.109925	0.086477
686.312355	0.086478
686.514766	0.086459
686.717159	0.086462
686.919534	0.086548
687.121891	0.086539
687.324230	0.086723
687.526550	0.086590
687.728852	0.086545
687.931136	0.086679
688.133401	0.086577
688.335649	0.086493
688.537878	0.086518
688.740089	0.086553
688.942281	0.086603
689.144456	0.086394
689.346612	0.086607
689.548750	0.086525
689.750870	0.086480
689.952971	0.086494
690.155055	0.086806
690.357120	0.086779
690.559167	0.086672
690.761195	0.086571
690.963206	0.086638
691.165198	0.086472
691.367172	0.086593
691.569128	0.086464
691.771065	0.086510
691.972984	0.086450
692.174885	0.086493
692.376768	0.086669
692.578633	0.086898
692.780479	0.086897
692.982308	0.086775
693.184118	0.086890
693.385909	0.086847
693.587683	0.086946
693.789438	0.087071
693.991175	0.087199
694.192894	0.087103
694.394595	0.087132
694.596277	0.087095
694.797941	0.087402
694.999587	0.087468
695.201215	0.087868
695.402824	0.087980
695.604416	0.088124
695.805989	0.088148
696.007543	0.088126
696.209080	0.088071
696.410598	0.088253
696.612099	0.088252
696.813580	0.088091
697.015044	0.088048
697.216490	0.088194
697.417917	0.088205
697.619326	0.088361
697.820717	0.088491
698.022089	0.088623
698.223444	0.088685
698.424780	0.088714
698.626098	0.088914
698.827397	0.089097
699.028679	0.088802
699.229942	0.088702
699.431187	0.088577
699.632414	0.088709
699.833622	0.088728
700.034813	0.088707
700.235985	0.088898
700.437139	0.088744
700.638274	0.088653
700.839392	0.088794
701.040491	0.088939
701.241572	0.089178
701.442635	0.089248
701.643679	0.089340
701.844706	0.089331
702.045714	0.089096
702.246704	0.089306
702.447675	0.089316
702.648629	0.089430
702.849564	0.089414
703.050481	0.089221
703.251380	0.089241
703.452260	0.089222
703.653122	0.089393
703.853966	0.089412
704.054792	0.089325
704.255600	0.089190
704.456389	0.089308
704.657160	0.089358
704.857913	0.089380
705.058648	0.089485
705.259365	0.089128
705.460063	0.089012
705.660743	0.089154
705.861405	0.089226
706.062048	0.089372
706.262674	0.089222
706.463281	0.089135
706.663870	0.089269
706.864441	0.089141
707.064993	0.089432
707.265527	0.089619
707.466043	0.089674
707.666541	0.089719
707.867021	0.089919
708.067482	0.090082
708.267925	0.090047
708.468350	0.090053
708.668757	0.090090
708.869145	0.090209
709.069516	0.090086
709.269868	0.089918
709.470201	0.089944
709.670517	0.089683
709.870814	0.089657
710.071093	0.089682
710.271354	0.089739
710.471597	0.089694
710.671821	0.089507
710.872028	0.089299
711.072216	0.089564
711.272385	0.089574
711.472537	0.089583
711.672670	0.089470
711.872785	0.089469
712.072882	0.089329
712.272961	0.089338
712.473021	0.089451
712.673063	0.089590
712.873087	0.089463
713.073093	0.089457
713.273081	0.089480
713.473050	0.089577
713.673001	0.089449
713.872934	0.089367
714.072849	0.089573
714.272745	0.089568
714.472623	0.089580
714.672483	0.089517
714.872325	0.089541
715.072148	0.089541
715.271954	0.089568
715.471741	0.089786
715.671509	0.089786
715.871260	0.089588
716.070992	0.089443
716.270707	0.089431
716.470403	0.089620
716.670080	0.089516
716.869740	0.089461
717.069381	0.089436
717.269004	0.089408
717.468609	0.089603
717.668195	0.089650
717.867764	0.089816
718.067314	0.089997
718.266846	0.089852
718.466360	0.089904
718.665855	0.090048
718.865332	0.090025
719.064791	0.090247
719.264232	0.090265
719.463655	0.090398
719.663059	0.090451
719.862445	0.090424
720.061813	0.090590
720.261163	0.090524
720.460494	0.090664
720.659807	0.090632
720.859102	0.090413
721.058379	0.090460
721.257638	0.090222
721.456878	0.090134
721.656100	0.090104
721.855304	0.089969
722.054490	0.090100
722.253657	0.089881
722.452806	0.089892
722.651937	0.089944
722.851050	0.089752
723.050145	0.089876
723.249221	0.089773
723.448279	0.089752
723.647319	0.089824
723.846340	0.089772
724.045344	0.089912
724.244329	0.090010
724.443296	0.090101
724.642245	0.090397
724.841175	0.090321
725.040088	0.090389
725.238982	0.090359
725.437857	0.090270
725.636715	0.090237
725.835554	0.090044
726.034376	0.089996
726.233179	0.089583
726.431963	0.089275
726.630730	0.089217
726.829478	0.089310
727.028208	0.089371
727.226920	0.089419
727.425614	0.089435
727.624289	0.089513
727.822946	0.089634
728.021585	0.089908
728.220206	0.090024
728.418808	0.090078
728.617392	0.090040
728.815958	0.090044
729.014506	0.089984
729.213036	0.089861
729.411547	0.089967
729.610040	0.089710
729.808515	0.089588
730.006972	0.089701
730.205410	0.089692
730.403831	0.089536
730.602233	0.089487
730.800616	0.089396
730.998982	0.089520
731.197329	0.089378
731.395658	0.089216
731.593969	0.089279
731.792262	0.088929
731.990536	0.088852
732.188793	0.088948
732.387031	0.088727
732.585250	0.088862
732.783452	0.088913
732.981635	0.088928
733.179800	0.089155
733.377947	0.089041
733.576076	0.089035
733.774186	0.089069
733.972278	0.088971
734.170352	0.089105
734.368408	0.088858
734.566446	0.088635
734.764465	0.088563
734.962466	0.088448
735.160449	0.088476
735.358413	0.088592
735.556360	0.088475
735.754288	0.088454
735.952198	0.088316
736.150090	0.088369
736.347963	0.088605
736.545818	0.088564
736.743655	0.088575
736.941474	0.088503
737.139275	0.088567
737.337057	0.088661
737.534821	0.088703
737.732567	0.088696
737.930295	0.088809
738.128005	0.088797
738.325696	0.088802
738.523369	0.088791
738.721024	0.088810
738.918660	0.088580
739.116279	0.088615
739.313879	0.088412
739.511461	0.088394
739.709024	0.088195
739.906570	0.087838
740.104097	0.087876
740.301606	0.087944
740.499097	0.088046
740.696569	0.088179
740.894024	0.088074
741.091460	0.088337
741.288878	0.088404
741.486277	0.088684
741.683659	0.088939
741.881022	0.088701
742.078367	0.088829
742.275694	0.088657
742.473002	0.088755
742.670293	0.088603
742.867565	0.088551
743.064819	0.088509
743.262054	0.088261
743.459272	0.088101
743.656471	0.088285
743.853652	0.087958
744.050815	0.088023
744.247959	0.087983
744.445085	0.087820
744.642194	0.087716
744.839283	0.087768
745.036355	0.087807
745.233408	0.087864
745.430444	0.087505
745.627461	0.087730
745.824459	0.087656
746.021440	0.087627
746.218402	0.087856
746.415346	0.087778
746.612272	0.087643
746.809180	0.087650
747.006069	0.087495
747.202940	0.087769
747.399793	0.087598
747.596628	0.087624
747.793444	0.087538
747.990243	0.087397
748.187023	0.087513
748.383784	0.087594
748.580528	0.087532
748.777253	0.087741
748.973960	0.087768
749.170649	0.087805
749.367320	0.087726
749.563973	0.087845
749.760607	0.087943
749.957223	0.087950
750.153821	0.087851
750.350400	0.088026
750.546962	0.087937
750.743505	0.087920
750.940030	0.087805
751.136536	0.087694
751.333025	0.087649
751.529495	0.087848
751.725947	0.087648
751.922381	0.087615
752.118796	0.087179
752.315194	0.086966
752.511573	0.086646
752.707934	0.086623
752.904276	0.086838
753.100601	0.086542
753.296907	0.086432
753.493195	0.086554
753.689465	0.086504
753.885716	0.086700
754.081949	0.086821
754.278164	0.087065
754.474361	0.086881
754.670540	0.086431
754.866700	0.086402
755.062843	0.086124
755.258967	0.085986
755.455072	0.085896
755.651160	0.085877
755.847229	0.085835
756.043280	0.085635
756.239313	0.085858
756.435328	0.086039
756.631324	0.086136
756.827302	0.086029
757.023262	0.086029
757.219204	0.085921
757.415127	0.085822
757.611033	0.085890
757.806920	0.086080
758.002788	0.085935
758.198639	0.085857
758.394471	0.085668
758.590286	0.085707
758.786081	0.085770
758.981859	0.085809
759.177619	0.085556
759.373360	0.085517
759.569083	0.085377
759.764788	0.085226
759.960474	0.085301
760.156143	0.085330
760.351793	0.085361
760.547425	0.085289
760.743038	0.085185
760.938634	0.085275
761.134211	0.085248
761.329770	0.085166
761.525311	0.085100
761.720833	0.084970
761.916338	0.084743
762.111824	0.084630
762.307292	0.084441
762.502741	0.084525
762.698173	0.084653
762.893586	0.084354
763.088981	0.084171
763.284358	0.084238
763.479716	0.084242
763.675057	0.084305
763.870379	0.084253
764.065683	0.084096
764.260968	0.083964
764.456236	0.083709
764.651485	0.083538
764.846716	0.083588
765.041929	0.083504
765.237123	0.083511
765.432299	0.083525
765.627457	0.083591
765.822597	0.083874
766.017719	0.084040
766.212822	0.084169
766.407907	0.084389
766.602974	0.084376
766.798023	0.084429
766.993054	0.084520
767.188066	0.084612
767.383060	0.084473
767.578036	0.084250
767.772993	0.084181
767.967933	0.084102
768.162854	0.084148
768.357757	0.084341
768.552642	0.084255
768.747508	0.084202
768.942356	0.084462
769.137186	0.084680
769.331998	0.084871
769.526792	0.085133
769.721567	0.085345
769.916324	0.085389
770.111063	0.085429
770.305784	0.085433
770.500486	0.085337
770.695171	0.085188
770.889837	0.085169
771.084484	0.085288
771.279114	0.085068
771.473725	0.084921
771.668318	0.084805
771.862893	0.084813
772.057450	0.085034
772.251988	0.085200
772.446509	0.085013
772.641011	0.084982
772.835494	0.084659
773.029960	0.084546
773.224407	0.084527
773.418836	0.084697
773.613247	0.084448
773.807640	0.084396
774.002014	0.084094
774.196370	0.084119
774.390708	0.083917
774.585028	0.083846
774.779330	0.083935
774.973613	0.083980
775.167878	0.083733
775.362125	0.083753
775.556354	0.083519
775.750564	0.083686
775.944756	0.083852
776.138930	0.084018
776.333086	0.084139
776.527223	0.083997
776.721343	0.083991
776.915444	0.084112
777.109526	0.084097
777.303591	0.084221
777.497637	0.084417
777.691666	0.084264
777.885676	0.084258
778.079667	0.084455
778.273641	0.084565
778.467596	0.084505
778.661533	0.084365
778.855452	0.084269
779.049352	0.084200
779.243235	0.083975
779.437099	0.083844
779.630945	0.083905
779.824773	0.083606
780.018582	0.083462
780.212373	0.083459
780.406146	0.083500
780.599901	0.083505
780.793638	0.083549
780.987356	0.083593
781.181056	0.083751
781.374738	0.083779
781.568402	0.083943
781.762047	0.083979
781.955674	0.083925
782.149283	0.083930
782.342874	0.084254
782.536447	0.084298
782.730001	0.084300
782.923537	0.084304
783.117055	0.083982
783.310555	0.084015
783.504036	0.083976
783.697499	0.084018
783.890944	0.084003
784.084371	0.083966
784.277780	0.084043
784.471170	0.084050
784.664542	0.084222
784.857896	0.084437
785.051231	0.084381
785.244549	0.084383
785.437848	0.084345
785.631129	0.084419
785.824392	0.084482
786.017636	0.084355
786.210863	0.084383
786.404071	0.084024
786.597260	0.084153
786.790432	0.084019
786.983585	0.084286
787.176721	0.084248
787.369838	0.084304
787.562936	0.084019
787.756017	0.084113
787.949079	0.084070
788.142123	0.084237
788.335149	0.084170
788.528156	0.084236
788.721146	0.083959
788.914117	0.083915
789.107070	0.083675
789.300005	0.083627
789.492921	0.083528
789.685819	0.083392
789.878699	0.083318
790.071561	0.083295
790.264405	0.083400
790.457230	0.083568
790.650037	0.083670
790.842826	0.083953
791.035597	0.083960
791.228349	0.083983
791.421084	0.084056
791.613800	0.084110
791.806497	0.084139
791.999177	0.084217
792.191838	0.084234
792.384481	0.084408
792.577106	0.084387
792.769713	0.084391
792.962301	0.084549
793.154871	0.084740
793.347423	0.084597
793.539957	0.084687
793.732473	0.084611
793.924970	0.084832
794.117449	0.084682
794.309910	0.084538
794.502353	0.084839
794.694777	0.084743
794.887183	0.084757
795.079571	0.085081
795.271941	0.085102
795.464293	0.085333
795.656626	0.085464
795.848941	0.085803
796.041238	0.086248
796.233516	0.086409
796.425777	0.086564
796.618019	0.086709
796.810243	0.086792
797.002449	0.087034
797.194636	0.087036
797.386805	0.086677
797.578956	0.086532
797.771089	0.086398
797.963204	0.086277
798.155300	0.086334
798.347378	0.086293
798.539438	0.086177
798.731480	0.085914
798.923503	0.085789
799.115509	0.085743
799.307496	0.085777
799.499465	0.085742
799.691415	0.085690
799.883348	0.085767
800.075262	0.085677
800.267158	0.085861
800.459035	0.085947
800.650895	0.086141
800.842736	0.086472
801.034559	0.086400
801.226364	0.086521
801.418150	0.086382
801.609919	0.086163
801.801669	0.086081
801.993401	0.085954
802.185114	0.085934
802.376810	0.085657
802.568487	0.085315
802.760146	0.085417
802.951787	0.085286
803.143409	0.085361
803.335014	0.085705
803.526600	0.085725
803.718168	0.085714
803.909717	0.085590
804.101249	0.085597
804.292762	0.085976
804.484257	0.085943
804.675734	0.085794
804.867192	0.085995
805.058632	0.085850
805.250054	0.086049
805.441458	0.086160
805.632844	0.086514
805.824211	0.086748
806.015561	0.086589
806.206891	0.086622
806.398204	0.086971
806.589499	0.087186
806.780775	0.087114
806.972033	0.087362
807.163273	0.087162
807.354495	0.086984
807.545698	0.086965
807.736883	0.087076
807.928050	0.087176
808.119199	0.087009
808.310329	0.086860
808.501441	0.086970
808.692535	0.086958
808.883611	0.087306
809.074669	0.087620
809.265708	0.087718
809.456729	0.087674
809.647732	0.087805
809.838717	0.087983
810.029683	0.088027
810.220632	0.088001
810.411562	0.087756
810.602474	0.087742
810.793367	0.087402
810.984242	0.087331
811.175100	0.087690
811.365938	0.087729
811.556759	0.087629
811.747562	0.087819
811.938346	0.087925
812.129112	0.087955
812.319860	0.087989
812.510589	0.088183
812.701300	0.088536
812.891994	0.088341
813.082668	0.088477
813.273325	0.088576
813.463964	0.088564
813.654584	0.088634
813.845186	0.088927
814.035769	0.088841
814.226335	0.088833
814.416882	0.088682
814.607411	0.088815
814.797922	0.088709
814.988415	0.088724
815.178889	0.088732
815.369345	0.088790
815.559783	0.088644
815.750203	0.088957
815.940605	0.088904
816.130988	0.088845
816.321353	0.088819
816.511700	0.088958
816.702028	0.089300
816.892339	0.089292
817.082631	0.089321
817.272905	0.089621
817.463161	0.089616
817.653398	0.089824
817.843617	0.090039
818.033819	0.090099
818.224001	0.090152
818.414166	0.090079
818.604312	0.090291
818.794440	0.090334
818.984550	0.090333
819.174642	0.090476
819.364716	0.090482
819.554771	0.090312
819.744808	0.090446
819.934827	0.090401
820.124827	0.090350
820.314810	0.090340
820.504774	0.090489
820.694720	0.090588
820.884647	0.090471
821.074557	0.090797
821.264448	0.091141
821.454321	0.091268
821.644176	0.091317
821.834012	0.091504
822.023831	0.091585
822.213631	0.091661
822.403413	0.091453
822.593176	0.091423
822.782922	0.091200
822.972649	0.091004
823.162358	0.091021
823.352049	0.091231
823.541721	0.091160
823.731376	0.090998
823.921012	0.090702
824.110629	0.090794
824.300229	0.090827
824.489811	0.090805
824.679374	0.091011
824.868919	0.091075
825.058445	0.091148
825.247954	0.091262
825.437444	0.091518
825.626916	0.091880
825.816370	0.092111
826.005806	0.092240
826.195223	0.092631
826.384622	0.092666
826.574003	0.092779
826.763366	0.092766
826.952711	0.093098
827.142037	0.093137
827.331345	0.093491
827.520635	0.093882
827.709906	0.094116
827.899160	0.094320
828.088395	0.094508
828.277612	0.094542
828.466810	0.094560
828.655991	0.094557
828.845153	0.094844
829.034297	0.094628
829.223423	0.094442
829.412531	0.094652
829.601620	0.094818
829.790691	0.094996
829.979744	0.095227
830.168779	0.095790
830.357795	0.096015
830.546793	0.095919
830.735773	0.096201
830.924735	0.096238
831.113679	0.096110
831.302604	0.095944
831.491511	0.096111
831.680400	0.096136
831.869271	0.095976
832.058123	0.095995
832.246957	0.096265
832.435773	0.096264
832.624571	0.096604
832.813351	0.097087
833.002112	0.097233
833.190855	0.097258
833.379580	0.097458
833.568287	0.097439
833.756975	0.097416
833.945645	0.097544
834.134297	0.097673
834.322931	0.097552
834.511547	0.097540
834.700144	0.097658
834.888723	0.097519
835.077284	0.097468
835.265826	0.097451
835.454351	0.097452
835.642857	0.097149
835.831345	0.097174
836.019815	0.097082
836.208266	0.097054
836.396699	0.097088
836.585114	0.097261
836.773511	0.097330
836.961890	0.097394
837.150250	0.097770
837.338592	0.098015
837.526916	0.097967
837.715222	0.098019
837.903510	0.097969
838.091779	0.098088
838.280030	0.098324
838.468263	0.098503
838.656477	0.098809
838.844674	0.098747
839.032852	0.098926
839.221012	0.099319
839.409153	0.099764
839.597277	0.099765
839.785382	0.099780
839.973469	0.099841
840.161538	0.099765
840.349589	0.099972
840.537621	0.100249
840.725635	0.100242
840.913631	0.100239
841.101609	0.100134
841.289568	0.100512
841.477509	0.100757
841.665432	0.100979
841.853337	0.101129
842.041224	0.101279
842.229092	0.101465
842.416942	0.101907
842.604774	0.102008
842.792588	0.102189
842.980383	0.102257
843.168160	0.102337
843.355919	0.102604
843.543660	0.102738
843.731382	0.102754
843.919087	0.102520
844.106773	0.102531
844.294441	0.102563
844.482090	0.102743
844.669722	0.102999
844.857335	0.103057
845.044930	0.102901
845.232507	0.102981
845.420065	0.103083
845.607605	0.103283
845.795127	0.103008
845.982631	0.103340
846.170117	0.103477
846.357584	0.103569
846.545033	0.103812
846.732464	0.104146
846.919877	0.104510
847.107272	0.104566
847.294648	0.104843
847.482006	0.105333
847.669346	0.105375
847.856667	0.105482
848.043971	0.105511
848.231256	0.105416
848.418523	0.105240
848.605771	0.105353
848.793002	0.105599
848.980214	0.105622
849.167408	0.105648
849.354584	0.105937
849.541742	0.106130
849.728881	0.106415
849.916002	0.106910
850.103105	0.107104
850.290190	0.107274
850.477256	0.107367
850.664304	0.107594
850.851334	0.107941
851.038346	0.107888
851.225340	0.107811
851.412315	0.107536
851.599272	0.107321
851.786211	0.107620
851.973132	0.107565
852.160034	0.107363
852.346918	0.107541
852.533784	0.107510
852.720632	0.107726
852.907462	0.108118
853.094273	0.108443
853.281066	0.108637
853.467841	0.108654
853.654598	0.108772
853.841336	0.109064
854.028056	0.109063
854.214758	0.109258
854.401442	0.109396
854.588107	0.109672
854.774755	0.109957
854.961384	0.110416
855.147995	0.110784
855.334587	0.111054
855.521162	0.111311
855.707718	0.111692
855.894256	0.112006
856.080775	0.112169
856.267277	0.111806
856.453760	0.111663
856.640225	0.111708
856.826672	0.111432
857.013101	0.111364
857.199511	0.111512
857.385903	0.111412
857.572277	0.111032
857.758633	0.111122
857.944970	0.111472
858.131290	0.111606
858.317591	0.111316
858.503873	0.111475
858.690138	0.111679
858.876384	0.111523
859.062612	0.111495
859.248822	0.111765
859.435014	0.111378
859.621188	0.111295
859.807343	0.111339
859.993480	0.111736
860.179599	0.111781
860.365699	0.111746
860.551781	0.111833
860.737846	0.111826
860.923891	0.111821
861.109919	0.112284
861.295929	0.112308
861.481920	0.112546
861.667893	0.112387
861.853848	0.112742
862.039784	0.112769
862.225702	0.112864
862.411603	0.113109
862.597484	0.113476
862.783348	0.113678
862.969193	0.113911
863.155021	0.113874
863.340830	0.114055
863.526620	0.114249
863.712393	0.114769
863.898147	0.114974
864.083883	0.115160
864.269601	0.115264
864.455301	0.115173
864.640982	0.115286
864.826645	0.115745
865.012290	0.116070
865.197917	0.116079
865.383526	0.115954
865.569116	0.116005
865.754688	0.115985
865.940242	0.115879
866.125777	0.116285
866.311295	0.116601
866.496794	0.116658
866.682275	0.116770
866.867737	0.116925
867.053182	0.116968
867.238608	0.117203
867.424016	0.117289
867.609406	0.117365
867.794778	0.117498
867.980131	0.117399
868.165466	0.117198
868.350783	0.116959
868.536082	0.116795
868.721362	0.117000
868.906625	0.116834
869.091869	0.116661
869.277094	0.116558
869.462302	0.116240
869.647491	0.116356
869.832662	0.116495
870.017815	0.116610
870.202950	0.116734
870.388066	0.116772
870.573165	0.117071
870.758245	0.117218
870.943306	0.117386
871.128350	0.117460
871.313375	0.117555
871.498382	0.117666
871.683371	0.117607
871.868342	0.117687
872.053294	0.117530
872.238229	0.117343
872.423144	0.117406
872.608042	0.117674
872.792922	0.117854
872.977783	0.117621
873.162626	0.117535
873.347451	0.117657
873.532258	0.117611
873.717046	0.117788
873.901816	0.117874
874.086568	0.117856
874.271302	0.117794
874.456017	0.117818
874.640715	0.118106
874.825394	0.118341
875.010055	0.118532
875.194697	0.118558
875.379322	0.118584
875.563928	0.118790
875.748516	0.118916
875.933085	0.118896
876.117637	0.118708
876.302170	0.118599
876.486685	0.118733
876.671182	0.118931
876.855661	0.118912
877.040121	0.118996
877.224563	0.119054
877.408987	0.119388
877.593393	0.119543
877.777780	0.119862
877.962150	0.120034
878.146501	0.119924
878.330833	0.119852
878.515148	0.119594
878.699444	0.119563
878.883722	0.119432
879.067982	0.119333
879.252224	0.119053
879.436447	0.118868
879.620653	0.118859
879.804840	0.118897
879.989008	0.118929
880.173159	0.119459
880.357291	0.119580
880.541405	0.119746
880.725501	0.119739
880.909579	0.119976
881.093638	0.120019
881.277680	0.120014
881.461703	0.119927
881.645707	0.120011
881.829694	0.120039
882.013662	0.120073
882.197612	0.120122
882.381544	0.120335
882.565458	0.120548
882.749353	0.120673
882.933230	0.120781
883.117089	0.120753
883.300930	0.120575
883.484753	0.120342
883.668557	0.120474
883.852343	0.120591
884.036111	0.120653
884.219861	0.120546
884.403592	0.120783
884.587305	0.120630
884.771000	0.120880
884.954677	0.120927
885.138335	0.121008
885.321976	0.121039
885.505598	0.121205
885.689201	0.120981
885.872787	0.120938
886.056354	0.120765
886.239904	0.120943
886.423434	0.120923
886.606947	0.121089
886.790442	0.121317
886.973918	0.121010
887.157376	0.120605
887.340816	0.120582
887.524237	0.120702
887.707641	0.120491
887.891026	0.120446
888.074393	0.120149
888.257741	0.120099
888.441072	0.119968
888.624384	0.119756
888.807678	0.119868
888.990954	0.119588
889.174211	0.119678
889.357451	0.119639
889.540672	0.119485
889.723875	0.119609
889.907059	0.119291
890.090226	0.119512
890.273374	0.119635
890.456504	0.119462
890.639616	0.119683
890.822709	0.119307
891.005785	0.119799
891.188842	0.119914
891.371881	0.119890
891.554901	0.120204
891.737904	0.119789
891.920888	0.119917
892.103854	0.119814
892.286802	0.119613
892.469731	0.119578
892.652643	0.119089
892.835536	0.118929
893.018410	0.118824
893.201267	0.118665
893.384106	0.118978
893.566926	0.118929
893.749728	0.119117
893.932511	0.119178
894.115277	0.119500
894.298024	0.119490
894.480753	0.119565
894.663464	0.119517
894.846157	0.119179
895.028831	0.119043
895.211487	0.119298
895.394125	0.119248
895.576745	0.119167
895.759346	0.119067
895.941930	0.119196
896.124495	0.119297
896.307041	0.119279
896.489570	0.119291
896.672080	0.119348
896.854573	0.118936
897.037046	0.118865
897.219502	0.119157
897.401940	0.118843
897.584359	0.118727
897.766760	0.118741
897.949143	0.118769
898.131507	0.118874
898.313854	0.118334
898.496182	0.117918
898.678492	0.117649
898.860783	0.117368
899.043057	0.117369
899.225312	0.117173
899.407549	0.116962
899.589768	0.116899
899.771968	0.116857
899.954151	0.116947
900.136315	0.117376
900.318461	0.117534
900.500588	0.117441
900.682698	0.117552
900.864789	0.117453
901.046862	0.117316
901.228917	0.117156
901.410953	0.117032
901.592971	0.116766
901.774972	0.116652
901.956953	0.116486
902.138917	0.116482
902.320862	0.115893
902.502790	0.115927
902.684699	0.115849
902.866589	0.116024
903.048462	0.115992
903.230316	0.116064
903.412152	0.115917
903.593970	0.115647
903.775770	0.115546
903.957551	0.115777
904.139314	0.115737
904.321059	0.115813
904.502786	0.115393
904.684494	0.115159
904.866185	0.114972
905.047857	0.114609
905.229510	0.114788
905.411146	0.114028
905.592763	0.113858
905.774363	0.113909
905.955943	0.113448
906.137506	0.113364
906.319051	0.113266
906.500577	0.113063
906.682085	0.113514
906.863575	0.113318
907.045046	0.113544
907.226500	0.113664
907.407935	0.113464
907.589352	0.113706
907.770750	0.113708
907.952131	0.113967
908.133493	0.114055
908.314837	0.113261
908.496163	0.113005
908.677470	0.112934
908.858760	0.112775
909.040031	0.112700
909.221284	0.112175
909.402518	0.112339
909.583735	0.111814
909.764933	0.111569
909.946113	0.111600
910.127275	0.111864
910.308418	0.112288
910.489544	0.112083
910.670651	0.111408
910.851740	0.111594
911.032810	0.110985
911.213863	0.111042
911.394897	0.110808
911.575913	0.110866
911.756911	0.110391
911.937890	0.109741
912.118851	0.109353
912.299794	0.109737
912.480719	0.109423
912.661626	0.109205
912.842514	0.109268
913.023384	0.108890
913.204236	0.108506
913.385070	0.108312
913.565886	0.107886
913.746683	0.107872
913.927462	0.107498
914.108223	0.107242
914.288965	0.107086
914.469690	0.106368
914.650396	0.106764
914.831084	0.106533
915.011754	0.106274
915.192405	0.106280
915.373038	0.106570
915.553653	0.106451
915.734250	0.106149
915.914829	0.106163
916.095389	0.106024
916.275931	0.105513
916.456455	0.105575
916.636961	0.105536
916.817448	0.105346
916.997917	0.104789
917.178368	0.104270
917.358801	0.104289
917.539216	0.104013
917.719612	0.103740
917.899990	0.103600
918.080350	0.103501
918.260692	0.103271
918.441015	0.103282
918.621320	0.102943
918.801607	0.102710
918.981876	0.102873
919.162127	0.102707
919.342359	0.102681
919.522573	0.102285
919.702769	0.101732
919.882947	0.101773
920.063106	0.100760
920.243247	0.100208
920.423370	0.099784
920.603475	0.098799
920.783562	0.098172
920.963630	0.098080
921.143680	0.098207
921.323712	0.097641
921.503725	0.096966
921.683721	0.097433
921.863698	0.097569
922.043657	0.097806
922.223598	0.097519
922.403520	0.097497
922.583424	0.096915
922.763311	0.096426
922.943178	0.096371
923.123028	0.096092
923.302859	0.095685
923.482673	0.094876
923.662467	0.094203
923.842244	0.094070
924.022003	0.093674
924.201743	0.093112
924.381465	0.092920
924.561169	0.092268
924.740854	0.091965
924.920522	0.091541
925.100171	0.091569
925.279802	0.091724
925.459414	0.090961
925.639009	0.091217
925.818585	0.091128
925.998143	0.090972
926.177683	0.091793
926.357205	0.091795
926.536708	0.091761
926.716193	0.091296
926.895660	0.090975
927.075109	0.091435
927.254539	0.090854
927.433951	0.090562
927.613345	0.089780
927.792721	0.089006
927.972079	0.088974
928.151418	0.088786
928.330739	0.088859
928.510042	0.088162
928.689327	0.087731
928.868593	0.087372
929.047841	0.087358
929.227071	0.087403
929.406283	0.087003
929.585476	0.086424
929.764652	0.085707
929.943809	0.084829
930.122948	0.084830
930.302068	0.084510
930.481171	0.083984
930.660255	0.083381
930.839321	0.082883
931.018369	0.082683
931.197398	0.082083
931.376409	0.081813
931.555402	0.081583
931.734377	0.081177
931.913334	0.080942
932.092272	0.081040
932.271192	0.080955
932.450094	0.080727
932.628978	0.080862
932.807844	0.080098
932.986691	0.080004
933.165520	0.080370
933.344331	0.080177
933.523123	0.079423
933.701898	0.078858
933.880654	0.078553
934.059392	0.078247
934.238111	0.077893
934.416813	0.078180
934.595496	0.077711
934.774161	0.077621
934.952808	0.076951
935.131437	0.076850
935.310047	0.076335
935.488639	0.076421
935.667213	0.076030
935.845769	0.075169
936.024306	0.074418
936.202825	0.074058
936.381326	0.072853
936.559809	0.072877
936.738274	0.072790
936.916720	0.072154
937.095148	0.071214
937.273558	0.070472
937.451950	0.070486
937.630323	0.070645
937.808678	0.070356
937.987015	0.070303
938.165334	0.070180
938.343635	0.069665
938.521917	0.069981
938.700181	0.069587
938.878427	0.069992
939.056655	0.069221
939.234864	0.069255
939.413055	0.068781
939.591228	0.068077
939.769383	0.067946
939.947519	0.067963
940.125638	0.066998
940.303738	0.066475
940.481820	0.065562
940.659883	0.065433
940.837929	0.064629
941.015956	0.064220
941.193965	0.064602
941.371955	0.063135
941.549928	0.061944
941.727882	0.061913
941.905818	0.063011
942.083736	0.062725
942.261636	0.061866
942.439517	0.062181
942.617380	0.062813
942.795225	0.062339
942.973052	0.062231
943.150860	0.062279
943.328651	0.062014
943.506423	0.061034
943.684176	0.061644
943.861912	0.061655
944.039629	0.060130
944.217328	0.058883
944.395009	0.058430
944.572672	0.058422
944.750317	0.058736
944.927943	0.058642
945.105551	0.057708
945.283141	0.057188
945.460712	0.057340
945.638265	0.058281
945.815801	0.058801
945.993317	0.058740
946.170816	0.058474
946.348297	0.058010
946.525759	0.057338
946.703203	0.057636
946.880629	0.056020
947.058036	0.055229
947.235425	0.054371
947.412797	0.053820
947.590149	0.053693
947.767484	0.054068
947.944800	0.053679
948.122099	0.053787
948.299379	0.054241
948.476640	0.055915
948.653884	0.056245
948.831109	0.056439
949.008316	0.055785
949.185505	0.056497
949.362676	0.054877
949.539828	0.054373
949.716962	0.054127
949.894078	0.053707
950.071176	0.052629
950.248256	0.051890
950.425317	0.051224
950.602360	0.051228
950.779385	0.051548
950.956391	0.052114
951.133380	0.050763
951.310350	0.049678
951.487302	0.048689
951.664235	0.049935
951.841151	0.050153
952.018048	0.049257
952.194927	0.048812
952.371788	0.046109
952.548631	0.045153
952.725455	0.048014
952.902261	0.048656
953.079049	0.048578
953.255819	0.047242
953.432570	0.047099
953.609303	0.046796
953.786018	0.046879
953.962715	0.047923
954.139394	0.048633
954.316054	0.046449
954.492696	0.045936
954.669320	0.047034
954.845926	0.047025
955.022513	0.046985
955.199083	0.047943
955.375634	0.048426
955.552166	0.047971
955.728681	0.047613
955.905177	0.048263
956.081655	0.048135
956.258115	0.047624
956.434557	0.046533
956.610980	0.045801
956.787385	0.045381
956.963772	0.045186
957.140141	0.045266
957.316492	0.045062
957.492824	0.043983
957.669138	0.045546
957.845434	0.042517
958.021712	0.043380
958.197971	0.044437
958.374212	0.045091
958.550435	0.045015
958.726640	0.045819
958.902826	0.047416
959.078995	0.047292
959.255145	0.046410
959.431277	0.049047
959.607390	0.048679
959.783486	0.045873
959.959563	0.045136
960.135622	0.044426
960.311662	0.044740
960.487685	0.044372
960.663689	0.045662
960.839675	0.044645
961.015643	0.046554
961.191593	0.047519
961.367524	0.049364
961.543437	0.048877
961.719332	0.050611
961.895209	0.050044
962.071067	0.050463
962.246907	0.051304
962.422730	0.053135
962.598533	0.051936
962.774319	0.050145
962.950086	0.050975
963.125835	0.051515
963.301566	0.051554
963.477279	0.051217
963.652973	0.051307
963.828650	0.050345
964.004308	0.050934
964.179947	0.049038
964.355569	0.049917
964.531172	0.048552
964.706757	0.049321
964.882324	0.048412
965.057873	0.046665
965.233403	0.046336
965.408916	0.044554
965.584410	0.044095
965.759885	0.045442
965.935343	0.046111
966.110782	0.047450
966.286203	0.048044
966.461606	0.047941
966.636991	0.051331
966.812357	0.050599
966.987705	0.052743
967.163035	0.052588
967.338347	0.050838
967.513641	0.050912
967.688916	0.050441
967.864173	0.051156
968.039412	0.052913
968.214632	0.049997
968.389835	0.049170
968.565019	0.050402
968.740185	0.050234
968.915333	0.050868
969.090462	0.050278
969.265573	0.050191
969.440667	0.049805
969.615741	0.049559
969.790798	0.052745
969.965836	0.053894
970.140856	0.053288
970.315858	0.052716
970.490842	0.052953
970.665808	0.053180
970.840755	0.054117
971.015684	0.052041
971.190595	0.052283
971.365487	0.049941
971.540362	0.050263
971.715218	0.050782
971.890056	0.052963
972.064875	0.054012
972.239677	0.055642
972.414460	0.054685
972.589225	0.054304
972.763972	0.053679
972.938700	0.054308
973.113411	0.054649
973.288103	0.052100
973.462777	0.050338
973.637432	0.051971
973.812070	0.048104
973.986689	0.047705
974.161290	0.048940
974.335873	0.049598
974.510437	0.050430
974.684984	0.050440
974.859512	0.052106
975.034022	0.052011
975.208513	0.050718
975.382987	0.054144
975.557442	0.054761
975.731879	0.054693
975.906298	0.055044
976.080698	0.054591
976.255080	0.054379
976.429445	0.053993
976.603790	0.054952
976.778118	0.053563
976.952427	0.051256
977.126719	0.051215
977.300992	0.051557
977.475246	0.049449
977.649483	0.049034
977.823701	0.049271
977.997901	0.049253
978.172083	0.050142
978.346247	0.050726
978.520392	0.050778
978.694519	0.051862
978.868628	0.053137
979.042719	0.054846
979.216791	0.055155
979.390845	0.055673
979.564882	0.054735
979.738899	0.052693
979.912899	0.052444
980.086880	0.053281
980.260843	0.052765
980.434788	0.050663
980.608715	0.048749
980.782623	0.048854
980.956514	0.047174
981.130386	0.047207
981.304240	0.046152
981.478075	0.045687
981.651892	0.046799
981.825692	0.046454
981.999472	0.048397
982.173235	0.049282
982.346980	0.050291
982.520706	0.050517
982.694414	0.051132
982.868104	0.052960
983.041775	0.054016
983.215428	0.052920
983.389064	0.054401
983.562680	0.050436
983.736279	0.050698
983.909860	0.049766
984.083422	0.052550
984.256966	0.052625
984.430491	0.052623
984.603999	0.053812
984.777488	0.053720
984.950959	0.053238
985.124412	0.056919
985.297847	0.056614
985.471263	0.055587
985.644661	0.054501
985.818041	0.055489
985.991403	0.056001
986.164747	0.054661
986.338072	0.054289
986.511379	0.053843
986.684668	0.051780
986.857938	0.053714
987.031191	0.055991
987.204425	0.053376
987.377641	0.051978
987.550839	0.051657
987.724018	0.051634
987.897179	0.051731
988.070322	0.052742
988.243447	0.053672
988.416554	0.052591
988.589642	0.052018
988.762712	0.053860
988.935764	0.054271
989.108798	0.055732
989.281813	0.056004
989.454811	0.055455
989.627790	0.053723
989.800751	0.053387
989.973693	0.052600
990.146617	0.050276
990.319524	0.050530
990.492412	0.050620
990.665281	0.048129
990.838133	0.048620
991.010966	0.048250
991.183781	0.048978
991.356578	0.049088
991.529356	0.048443
991.702117	0.050121
991.874859	0.049376
992.047583	0.049823
992.220288	0.050441
992.392976	0.049201
992.565645	0.051283
992.738296	0.051656
992.910929	0.051080
993.083543	0.052030
993.256139	0.050720
993.428718	0.050015
993.601277	0.049611
993.773819	0.048181
993.946342	0.049482
994.118848	0.047382
994.291335	0.045378
994.463803	0.045321
994.636254	0.044963
994.808686	0.046030
994.981100	0.048551
995.153496	0.047919
995.325874	0.048784
995.498233	0.046694
995.670574	0.048619
995.842897	0.050457
996.015202	0.051795
996.187488	0.050504
996.359757	0.048444
996.532007	0.046287
996.704239	0.046289
996.876452	0.046067
997.048648	0.047200
997.220825	0.048521
997.392984	0.048298
997.565124	0.046991
997.737247	0.047836
997.909351	0.049022
998.081437	0.048965
998.253505	0.050864
998.425554	0.052048
998.597586	0.052104
998.769599	0.050425
998.941594	0.049272
999.113571	0.049524
999.285529	0.051419
999.457469	0.051218
999.629391	0.051652
999.801295	0.051157
999.973181	0.051791
1000.145048	0.051451
1000.316897	0.050910
1000.488728	0.051707
1000.660541	0.051791
1000.832335	0.049386
1001.004111	0.049242
1001.175869	0.049112
1001.347609	0.047843
1001.519331	0.046822
1001.691034	0.046974
1001.862719	0.048125
1002.034386	0.046304
1002.206035	0.047192
1002.377665	0.047479
1002.549277	0.048498
1002.720871	0.049921
1002.892447	0.050906
1003.064004	0.052056
1003.235544	0.052380
1003.407065	0.051960
1003.578568	0.053494
1003.750052	0.052728
1003.921519	0.052348
1004.092967	0.053185
1004.264397	0.051434
1004.435809	0.050926
1004.607202	0.049330
1004.778577	0.050058
1004.949934	0.049503
1005.121273	0.048060
1005.292594	0.048222
1005.463896	0.047839
1005.635180	0.046278
1005.806446	0.046663
1005.977694	0.046534
1006.148923	0.046022
1006.320135	0.044444
1006.491328	0.045287
1006.662503	0.046642
1006.833659	0.047372
1007.004798	0.049327
1007.175918	0.049131
1007.347020	0.048437
1007.518103	0.047557
1007.689169	0.047457
1007.860216	0.047447
1008.031245	0.046417
1008.202256	0.046435
1008.373248	0.045851
1008.544223	0.044871
1008.715179	0.044858
1008.886117	0.046058
1009.057036	0.047126
1009.227938	0.047193
1009.398821	0.047688
1009.569686	0.048117
1009.740533	0.046912
1009.911361	0.047196
1010.082172	0.046919
1010.252964	0.048058
1010.423738	0.050439
1010.594493	0.050309
1010.765231	0.049784
1010.935950	0.049997
1011.106651	0.050977
1011.277334	0.052615
1011.447998	0.051829
1011.618645	0.052751
1011.789273	0.052011
1011.959882	0.049361
1012.130474	0.048472
1012.301048	0.047840
1012.471603	0.048174
1012.642140	0.046045
1012.812658	0.046306
1012.983159	0.047609
1013.153641	0.046906
1013.324105	0.046297
1013.494551	0.045984
1013.664979	0.047361
1013.835388	0.048870
1014.005779	0.049276
1014.176152	0.049272
1014.346507	0.047989
1014.516843	0.046432
1014.687162	0.047676
1014.857462	0.048415
1015.027744	0.048862
1015.198007	0.049068
1015.368252	0.048685
1015.538480	0.047577
1015.708689	0.048837
1015.878879	0.049499
1016.049052	0.049211
1016.219206	0.047445
1016.389342	0.046818
1016.559460	0.045862
1016.729559	0.044985
1016.899641	0.045072
1017.069704	0.045372
1017.239749	0.043022
1017.409775	0.043464
1017.579784	0.044200
1017.749774	0.044354
1017.919746	0.044973
1018.089700	0.045663
1018.259635	0.045423
1018.429553	0.044416
1018.599452	0.044939
1018.769333	0.045884
1018.939195	0.043849
1019.109040	0.044504
1019.278866	0.044587
1019.448674	0.043716
1019.618464	0.042775
1019.788235	0.042257
1019.957989	0.043454
1020.127724	0.042377
1020.297441	0.043575
1020.467139	0.044236
1020.636820	0.043601
1020.806482	0.043201
1020.976126	0.043174
1021.145752	0.044229
1021.315359	0.044305
1021.484948	0.045062
1021.654519	0.044354
1021.824072	0.044473
1021.993607	0.044808
1022.163123	0.045261
1022.332621	0.045159
1022.502101	0.045139
1022.671563	0.044618
1022.841007	0.044603
1023.010432	0.044446
1023.179839	0.045285
1023.349228	0.044581
1023.518598	0.044452
1023.687951	0.043999
1023.857285	0.045979
1024.026601	0.046477
1024.195899	0.046370
1024.365178	0.047406
1024.534439	0.047673
1024.703682	0.047312
1024.872907	0.048685
1025.042114	0.048555
1025.211302	0.047738
1025.380472	0.047350
1025.549624	0.046850
1025.718758	0.046826
1025.887873	0.045977
1026.056970	0.045077
1026.226049	0.045550
1026.395110	0.043244
1026.564153	0.043405
1026.733177	0.043584
1026.902183	0.041678
1027.071171	0.042309
1027.240141	0.042785
1027.409092	0.042020
1027.578026	0.041975
1027.746940	0.042043
1027.915837	0.043266
1028.084716	0.044870
1028.253576	0.044741
1028.422418	0.045114
1028.591242	0.047002
1028.760048	0.047140
1028.928835	0.046919
1029.097604	0.047581
1029.266355	0.048334
1029.435088	0.048391
1029.603803	0.047724
1029.772499	0.048381
1029.941177	0.048221
1030.109837	0.045345
1030.278478	0.043962
1030.447102	0.043148
1030.615707	0.042335
1030.784294	0.041004
1030.952863	0.040748
1031.121413	0.040270
1031.289945	0.041154
1031.458460	0.041595
1031.626955	0.043008
1031.795433	0.042586
1031.963892	0.043889
1032.132334	0.044617
1032.300756	0.045468
1032.469161	0.045849
1032.637548	0.044009
1032.805916	0.043331
1032.974266	0.043300
1033.142598	0.042508
1033.310911	0.043163
1033.479207	0.044674
1033.647484	0.044328
1033.815743	0.042547
1033.983983	0.042171
1034.152206	0.043435
1034.320410	0.043568
1034.488596	0.043031
1034.656764	0.041682
1034.824914	0.042940
1034.993045	0.040881
1035.161158	0.041337
1035.329253	0.043418
1035.497330	0.043284
1035.665388	0.043855
1035.833428	0.042046
1036.001450	0.042664
1036.169454	0.044115
1036.337440	0.043524
1036.505407	0.045176
1036.673356	0.043872
1036.841287	0.042086
1037.009200	0.041816
1037.177094	0.042591
1037.344970	0.043473
1037.512828	0.042971
1037.680668	0.042206
1037.848489	0.041386
1038.016293	0.040389
1038.184078	0.041395
1038.351845	0.041619
1038.519593	0.042366
1038.687324	0.040201
1038.855036	0.040522
1039.022730	0.040590
1039.190406	0.042808
1039.358063	0.044791
1039.525702	0.045650
1039.693323	0.045535
1039.860926	0.045555
1040.028511	0.045382
1040.196077	0.046506
1040.363625	0.046476
1040.531155	0.048677
1040.698667	0.047768
1040.866161	0.044897
1041.033636	0.043740
1041.201093	0.042419
1041.368532	0.041803
1041.535952	0.040834
1041.703355	0.040679
1041.870739	0.040367
1042.038105	0.037745
1042.205452	0.037420
1042.372782	0.038028
1042.540093	0.039256
1042.707386	0.039572
1042.874661	0.039897
1043.041918	0.039608
1043.209156	0.038779
1043.376376	0.039085
1043.543578	0.040688
1043.710762	0.040389
1043.877927	0.041626
1044.045074	0.042749
1044.212203	0.044569
1044.379314	0.045135
1044.546407	0.046077
1044.713481	0.047564
1044.880537	0.047184
1045.047575	0.047129
1045.214595	0.048040
1045.381596	0.047773
1045.548579	0.045667
1045.715544	0.043491
1045.882491	0.044709
1046.049420	0.045021
1046.216330	0.044358
1046.383222	0.044972
1046.550096	0.044641
1046.716951	0.044569
1046.883789	0.045377
1047.050608	0.047375
1047.217409	0.049430
1047.384192	0.050135
1047.550956	0.050564
1047.717703	0.050530
1047.884431	0.050214
1048.051140	0.048983
1048.217832	0.047380
1048.384505	0.046694
1048.551161	0.045013
1048.717798	0.044004
1048.884416	0.041320
1049.051017	0.040931
1049.217599	0.041884
1049.384163	0.043358
1049.550709	0.044590
1049.717237	0.045893
1049.883746	0.045050
1050.050237	0.044804
1050.216710	0.045043
1050.383165	0.045550
1050.549601	0.045290
1050.716019	0.043632
1050.882420	0.042435
1051.048801	0.041889
1051.215165	0.042121
1051.381510	0.039826
1051.547837	0.040939
1051.714146	0.040519
1051.880437	0.040852
1052.046709	0.040839
1052.212964	0.040645
1052.379200	0.039946
1052.545417	0.040640
1052.711617	0.041744
1052.877798	0.044829
1053.043961	0.044498
1053.210106	0.045515
1053.376233	0.044577
1053.542341	0.044793
1053.708432	0.046282
1053.874504	0.047252
1054.040557	0.047478
1054.206593	0.046547
1054.372610	0.045477
1054.538609	0.045514
1054.704590	0.043673
1054.870553	0.044828
1055.036497	0.043647
1055.202424	0.043284
1055.368331	0.043076
1055.534221	0.043513
1055.700093	0.041265
1055.865946	0.044085
1056.031781	0.043054
1056.197598	0.044817
1056.363397	0.044810
1056.529177	0.043561
1056.694939	0.043297
1056.860683	0.041615
1057.026409	0.040510
1057.192116	0.040828
1057.357806	0.038923
1057.523477	0.040166
1057.689130	0.039837
1057.854764	0.040654
1058.020381	0.042184
1058.185979	0.042035
1058.351559	0.043133
1058.517120	0.043331
1058.682664	0.043778
1058.848189	0.043465
1059.013696	0.042047
1059.179185	0.042711
1059.344656	0.043229
1059.510108	0.045307
1059.675542	0.044969
1059.840958	0.043896
1060.006356	0.043994
1060.171735	0.045524
1060.337096	0.045269
1060.502439	0.045524
1060.667764	0.044804
1060.833071	0.042887
1060.998359	0.043850
1061.163629	0.043616
1061.328881	0.043903
1061.494115	0.041288
1061.659330	0.039747
1061.824527	0.040173
1061.989706	0.042146
1062.154867	0.040726
1062.320010	0.041155
1062.485134	0.038667
1062.650240	0.038782
1062.815328	0.041233
1062.980398	0.043469
1063.145449	0.043403
1063.310482	0.041592
1063.475497	0.040187
1063.640494	0.041672
1063.805473	0.041166
1063.970433	0.041294
1064.135375	0.041788
1064.300299	0.041201
1064.465204	0.040911
1064.630092	0.040590
1064.794961	0.042880
1064.959812	0.042662
1065.124645	0.044155
1065.289459	0.043455
1065.454256	0.044793
1065.619034	0.043978
1065.783793	0.043614
1065.948535	0.043020
1066.113258	0.045435
1066.277964	0.044236
1066.442651	0.043524
1066.607319	0.041237
1066.771970	0.042003
1066.936602	0.040586
1067.101216	0.040450
1067.265812	0.039433
1067.430389	0.039066
1067.594949	0.035605
1067.759490	0.036480
1067.924013	0.037303
1068.088518	0.037927
1068.253004	0.040005
1068.417472	0.038155
1068.581922	0.040598
1068.746354	0.041449
1068.910768	0.041601
1069.075163	0.042949
1069.239540	0.042724
1069.403899	0.041743
1069.568240	0.043770
1069.732562	0.041752
1069.896866	0.044271
1070.061152	0.042502
1070.225420	0.042624
1070.389670	0.044263
1070.553901	0.046314
1070.718114	0.048515
1070.882309	0.050108
1071.046486	0.048077
1071.210644	0.047299
1071.374784	0.044977
1071.538906	0.047250
1071.703010	0.047301
1071.867096	0.046779
1072.031163	0.044421
1072.195212	0.041949
1072.359243	0.041400
1072.523256	0.040089
1072.687250	0.039586
1072.851226	0.038842
1073.015184	0.036557
1073.179124	0.035873
1073.343045	0.037716
1073.506949	0.039809
1073.670834	0.040541
1073.834701	0.041466
1073.998549	0.043600
1074.162380	0.045083
1074.326192	0.047364
1074.489986	0.046584
1074.653761	0.046192
1074.817519	0.043431
1074.981258	0.044159
1075.144979	0.041860
1075.308682	0.041119
1075.472367	0.040141
1075.636033	0.042416
1075.799681	0.040874
1075.963311	0.043771
1076.126923	0.045298
1076.290516	0.045862
1076.454092	0.043041
1076.617649	0.043900
1076.781187	0.044558
1076.944708	0.043011
1077.108210	0.039806
1077.271695	0.041103
1077.435160	0.040110
1077.598608	0.040220
1077.762038	0.038751
1077.925449	0.039071
1078.088842	0.040597
1078.252217	0.040512
1078.415573	0.042880
1078.578912	0.043823
1078.742232	0.044058
1078.905534	0.043006
1079.068817	0.042678
1079.232083	0.044305
1079.395330	0.046074
1079.558559	0.046969
1079.721770	0.046083
1079.884962	0.046027
1080.048136	0.043399
1080.211293	0.044637
1080.374430	0.046750
1080.537550	0.046685
1080.700651	0.047534
1080.863735	0.045234
1081.026800	0.043527
1081.189846	0.045811
1081.352875	0.044437
1081.515885	0.047914
1081.678877	0.047473
1081.841851	0.044476
1082.004807	0.042256
1082.167744	0.041689
1082.330663	0.041967
1082.493564	0.042316
1082.656447	0.041570
1082.819312	0.038432
1082.982158	0.038746
1083.144986	0.039903
1083.307796	0.041463
1083.470587	0.042055
1083.633361	0.040444
1083.796116	0.040749
1083.958853	0.041285
1084.121571	0.040008
1084.284272	0.043568
1084.446954	0.042288
1084.609618	0.038157
1084.772264	0.039503
1084.934892	0.041307
1085.097501	0.042101
1085.260092	0.041355
1085.422665	0.041320
1085.585220	0.040743
1085.747756	0.040828
1085.910274	0.041345
1086.072774	0.044415
1086.235256	0.042325
1086.397720	0.041545
1086.560165	0.042383
1086.722592	0.042861
1086.885001	0.041717
1087.047392	0.041138
1087.209764	0.041486
1087.372119	0.040954
1087.534455	0.041397
1087.696772	0.042702
1087.859072	0.044250
1088.021353	0.044699
1088.183616	0.046353
1088.345861	0.046680
1088.508088	0.049077
1088.670296	0.049491
1088.832486	0.051825
1088.994658	0.052612
1089.156812	0.051881
1089.318948	0.049181
1089.481065	0.049613
1089.643164	0.049179
1089.805245	0.049608
1089.967308	0.048733
1090.129352	0.051509
1090.291378	0.052937
1090.453386	0.052049
1090.615376	0.051337
1090.777347	0.051962
1090.939301	0.048481
1091.101236	0.047496
1091.263153	0.049724
1091.425051	0.047361
1091.586932	0.043681
1091.748794	0.042281
1091.910638	0.040437
1092.072463	0.042478
1092.234271	0.045343
1092.396060	0.049824
1092.557831	0.047575
1092.719584	0.044433
1092.881319	0.049155
1093.043035	0.050420
1093.204733	0.046716
1093.366413	0.047629
1093.528075	0.046931
1093.689718	0.046446
1093.851343	0.045016
1094.012950	0.049618
1094.174539	0.049759
1094.336110	0.045834
1094.497662	0.044831
1094.659196	0.048010
1094.820712	0.049604
1094.982210	0.048577
1095.143689	0.049410
1095.305151	0.047626
1095.466594	0.046061
1095.628018	0.047490
1095.789425	0.047821
1095.950813	0.050752
1096.112183	0.050188
1096.273535	0.048726
1096.434869	0.047263
1096.596184	0.046517
1096.757482	0.047038
1096.918761	0.046193
1097.080021	0.046975
1097.241264	0.047037
1097.402488	0.045300
1097.563694	0.047222
1097.724882	0.046590
1097.886052	0.050126
1098.047203	0.049156
1098.208336	0.048073
1098.369451	0.048168
1098.530548	0.048565
1098.691627	0.051598
1098.852687	0.050546
1099.013729	0.049061
1099.174753	0.049859
1099.335758	0.046503
1099.496746	0.047289
1099.657715	0.048214
1099.818666	0.048663
1099.979599	0.047294
1100.140513	0.043390
1100.301409	0.044879
1100.462287	0.043687
1100.623147	0.042717
1100.783989	0.043893
1100.944812	0.040623
1101.105617	0.043671
1101.266404	0.043476
1101.427173	0.042340
1101.587923	0.045152
1101.748656	0.040068
1101.909370	0.040652
1102.070066	0.040294
1102.230743	0.042719
1102.391403	0.043383
1102.552044	0.043274
1102.712667	0.044286
1102.873271	0.044411
1103.033858	0.044309
1103.194426	0.048345
1103.354976	0.046271
1103.515508	0.048379
1103.676021	0.049550
1103.836517	0.053419
1103.996994	0.050396
1104.157453	0.049950
1104.317893	0.048464
1104.478316	0.047059
1104.638720	0.047705
1104.799106	0.048669
1104.959474	0.045397
1105.119823	0.044270
1105.280155	0.042002
1105.440468	0.042449
1105.600763	0.042398
1105.761039	0.047289
1105.921298	0.047230
1106.081538	0.046309
1106.241760	0.051443
1106.401964	0.055263
1106.562149	0.052982
1106.722316	0.052708
1106.882465	0.054663
1107.042596	0.055637
1107.202709	0.052949
1107.362803	0.054993
1107.522879	0.055501
1107.682937	0.051115
1107.842977	0.049273
1108.002999	0.051223
1108.163002	0.053826
1108.322987	0.051774
1108.482954	0.050826
1108.642902	0.049403
1108.802833	0.047043
1108.962745	0.045936
1109.122639	0.046846
1109.282515	0.049817
1109.442372	0.047307
1109.602211	0.048418
1109.762032	0.046928
1109.921835	0.045514
1110.081620	0.045208
1110.241386	0.047701
1110.401134	0.050432
1110.560864	0.048497
1110.720576	0.046757
1110.880269	0.047677
1111.039945	0.040180
1111.199602	0.045497
1111.359240	0.048213
1111.518861	0.048961
1111.678463	0.046592
1111.838047	0.042402
1111.997613	0.044761
1112.157161	0.040582
1112.316690	0.041944
1112.476202	0.047405
1112.635695	0.045323
1112.795169	0.041238
1112.954626	0.041760
1113.114064	0.040534
1113.273484	0.044702
1113.432886	0.043520
1113.592270	0.045453
1113.751635	0.044894
1113.910983	0.043690
1114.070312	0.041155
1114.229622	0.042077
1114.388915	0.045006
1114.548189	0.050384
1114.707445	0.051315
1114.866683	0.047960
1115.025903	0.050129
1115.185104	0.052890
1115.344287	0.052209
1115.503452	0.055401
1115.662599	0.056546
1115.821727	0.053801
1115.980838	0.049078
1116.139930	0.050647
1116.299004	0.052033
1116.458059	0.053904
1116.617097	0.049680
1116.776116	0.046436
1116.935117	0.043665
1117.094099	0.044759
1117.253064	0.048558
1117.412010	0.049892
1117.570938	0.048113
1117.729848	0.049834
1117.888740	0.049295
1118.047613	0.048669
1118.206468	0.049568
1118.365305	0.052323
1118.524124	0.053958
1118.682924	0.054965
1118.841707	0.057722
1119.000471	0.055116
1119.159216	0.058350
1119.317944	0.058020
1119.476653	0.059052
1119.635344	0.059915
1119.794017	0.058412
1119.952672	0.058257
1120.111308	0.052264
1120.269927	0.051063
1120.428527	0.051646
1120.587108	0.049486
1120.745672	0.045887
1120.904217	0.047764
1121.062744	0.047609
1121.221253	0.050381
1121.379744	0.050498
1121.538216	0.051939
1121.696671	0.048235
1121.855107	0.045457
1122.013524	0.045775
1122.171924	0.045308
1122.330305	0.046540
1122.488668	0.047666
1122.647013	0.044247
1122.805340	0.041075
1122.963648	0.041261
1123.121938	0.041863
1123.280210	0.043913
1123.438464	0.041588
1123.596700	0.048543
1123.754917	0.046972
1123.913116	0.049431
1124.071297	0.058070
1124.229459	0.060954
1124.387604	0.057507
1124.545730	0.058940
1124.703838	0.056857
1124.861928	0.053894
1125.019999	0.052620
1125.178052	0.052781
1125.336088	0.050973
1125.494104	0.042682
1125.652103	0.040435
1125.810083	0.041817
1125.968045	0.044885
1126.125989	0.046012
1126.283915	0.051740
1126.441823	0.047519
1126.599712	0.045307
1126.757583	0.047814
1126.915436	0.054985
1127.073270	0.054699
1127.231087	0.059317
1127.388885	0.059403
1127.546665	0.062971
1127.704426	0.061711
1127.862170	0.062459
1128.019895	0.066161
1128.177602	0.065532
1128.335291	0.062029
1128.492961	0.060929
1128.650614	0.058583
1128.808248	0.056561
1128.965864	0.052298
1129.123461	0.052179
1129.281041	0.055989
1129.438602	0.056316
1129.596145	0.058109
1129.753670	0.057827
1129.911176	0.061622
1130.068665	0.061290
1130.226135	0.057819
1130.383587	0.062373
1130.541020	0.060770
1130.698436	0.059468
1130.855833	0.058998
1131.013212	0.056864
1131.170573	0.055282
1131.327915	0.048841
1131.485239	0.051601
1131.642545	0.055611
1131.799833	0.053122
1131.957103	0.055228
1132.114354	0.054098
1132.271588	0.050917
1132.428803	0.050594
1132.585999	0.053939
1132.743178	0.055558
1132.900338	0.053526
1133.057480	0.048452
1133.214604	0.054058
1133.371710	0.052747
1133.528797	0.048326
1133.685866	0.047283
1133.842917	0.041976
1133.999950	0.039661
1134.156964	0.047397
1134.313960	0.047968
1134.470938	0.055516
1134.627898	0.050339
1134.784840	0.059931
1134.941763	0.062928
1135.098668	0.061650
1135.255555	0.066418
1135.412424	0.064130
1135.569274	0.058067
1135.726107	0.058041
1135.882921	0.051437
1136.039716	0.042139
1136.196494	0.033907
1136.353253	0.032397
1136.509995	0.033796
1136.666717	0.031778
1136.823422	0.034583
1136.980109	0.037180
1137.136777	0.037801
1137.293427	0.038312
1137.450059	0.043231
1137.606672	0.045636
1137.763267	0.047028
1137.919844	0.048854
1138.076403	0.051249
1138.232944	0.041690
1138.389466	0.041478
1138.545971	0.040765
1138.702457	0.045822
1138.858924	0.049698
1139.015374	0.048995
1139.171805	0.049515
1139.328218	0.045956
1139.484613	0.046027
1139.640990	0.053119
1139.797348	0.054192
1139.953688	0.052558
1140.110010	0.051614
1140.266314	0.048165
1140.422600	0.041176
1140.578867	0.045917
1140.735116	0.049815
1140.891347	0.053893
1141.047559	0.054015
1141.203754	0.049086
1141.359930	0.048211
1141.516088	0.044954
1141.672228	0.046345
1141.828349	0.051187
1141.984452	0.050348
1142.140537	0.050302
1142.296604	0.043091
1142.452653	0.044331
1142.608683	0.048573
1142.764695	0.046603
1142.920689	0.039471
1143.076665	0.041342
1143.232622	0.044492
1143.388562	0.043126
1143.544483	0.038445
1143.700385	0.050035
1143.856270	0.049818
1144.012136	0.053895
1144.167985	0.057215
1144.323814	0.067706
1144.479626	0.069228
1144.635420	0.064714
1144.791195	0.067560
1144.946952	0.072409
1145.102691	0.060314
1145.258411	0.062974
1145.414113	0.055689
1145.569798	0.058303
1145.725463	0.061456
1145.881111	0.067273
1146.036741	0.068137
1146.192352	0.067283
1146.347945	0.064551
1146.503519	0.071850
1146.659076	0.067121
1146.814614	0.073249
1146.970134	0.071233
1147.125636	0.069280
1147.281120	0.060867
1147.436585	0.056492
1147.592032	0.057248
1147.747461	0.067493
1147.902872	0.054522
1148.058265	0.053249
1148.213639	0.052407
1148.368995	0.057686
1148.524333	0.058038
1148.679653	0.063886
1148.834954	0.068082
1148.990237	0.069303
1149.145502	0.060313
1149.300749	0.074182
1149.455977	0.078006
1149.611188	0.071669
1149.766380	0.070632
1149.921553	0.064702
1150.076709	0.060695
1150.231846	0.064903
1150.386966	0.061248
1150.542066	0.064985
1150.697149	0.058087
1150.852214	0.059566
1151.007260	0.063169
1151.162288	0.056295
1151.317298	0.064112
1151.472289	0.065612
1151.627263	0.060359
1151.782218	0.060961
1151.937155	0.060023
1152.092073	0.063669
1152.246974	0.061384
1152.401856	0.056194
1152.556720	0.054944
1152.711566	0.051107
1152.866393	0.043430
1153.021203	0.052745
1153.175994	0.051148
1153.330767	0.052412
1153.485521	0.049241
1153.640258	0.050716
1153.794976	0.062172
1153.949676	0.066306
1154.104358	0.075087
1154.259021	0.078431
1154.413667	0.072298
1154.568294	0.064632
1154.722903	0.062171
1154.877493	0.059157
1155.032066	0.054485
1155.186620	0.049815
1155.341156	0.045937
1155.495674	0.030364
1155.650173	0.038010
1155.804654	0.031922
1155.959118	0.032766
1156.113562	0.031461
1156.267989	0.037542
1156.422397	0.035475
1156.576788	0.036117
1156.731160	0.043401
1156.885513	0.049503
1157.039849	0.046242
1157.194166	0.051119
1157.348465	0.057241
1157.502746	0.054088
1157.657009	0.046300
1157.811253	0.056577
1157.965479	0.058379
1158.119687	0.044785
1158.273877	0.040929
1158.428048	0.039089
1158.582201	0.037793
1158.736337	0.038255
1158.890453	0.043195
1159.044552	0.055757
1159.198632	0.051755
1159.352694	0.050291
1159.506738	0.058202
1159.660764	0.068184
1159.814771	0.080407
1159.968761	0.082240
1160.122732	0.084305
1160.276685	0.093719
1160.430619	0.089020
1160.584535	0.092512
1160.738434	0.088732
1160.892313	0.088900
1161.046175	0.079505
1161.200019	0.063203
1161.353844	0.065571
1161.507651	0.063086
1161.661440	0.047819
1161.815210	0.045379
1161.968962	0.039979
1162.122697	0.038882
1162.276412	0.041170
1162.430110	0.041020
1162.583789	0.037300
1162.737451	0.029613
1162.891094	0.021132
1163.044718	0.042246
1163.198325	0.041006
1163.351913	0.045716
1163.505483	0.049476
1163.659035	0.051752
1163.812569	0.053300
1163.966084	0.062884
1164.119581	0.080440
1164.273060	0.088626
1164.426521	0.069077
1164.579964	0.066095
1164.733388	0.056347
1164.886794	0.054669
1165.040182	0.052590
1165.193551	0.059340
1165.346903	0.047416
1165.500236	0.040116
1165.653551	0.036818
1165.806848	0.044197
1165.960126	0.051537
1166.113386	0.069357
1166.266628	0.062192
1166.419852	0.063947
1166.573058	0.075228
1166.726245	0.085687
1166.879414	0.080098
1167.032565	0.095307
1167.185698	0.085234
1167.338812	0.079107
1167.491909	0.058375
1167.644987	0.071913
1167.798046	0.065962
1167.951088	0.042115
1168.104111	0.047017
1168.257117	0.048338
1168.410103	0.040063
1168.563072	0.029775
1168.716023	0.035393
1168.868955	0.033726
1169.021869	0.023280
1169.174765	0.020682
1169.327642	0.025979
1169.480501	0.015985
1169.633343	0.006534
1169.786165	0.000781
1169.938970	0.016185
1170.091757	0.011586
1170.244525	0.007290
1170.397275	0.019019
1170.550007	0.033048
1170.702720	0.026954
1170.855415	0.036569
1171.008092	0.040013
1171.160751	0.038371
1171.313392	0.032219
1171.466014	0.091918
1171.618619	0.004789
1171.771205	0.004789
1171.923772	0.004789
