sample name	sample
index	1440
start time	 05-10-2021  12:58:27 PM
880	0.240764
Peak Time (s)	91.537
Peak Height 	0.2408
calc peak height	90,93
Baseline Time (s)	8.536
Baseline Value 	-0.006302
subtract baseline	10,4
Abs	0.158193
Peak Time (s)	90.037
Peak Height 	0.1582
calc peak height	90,93
Baseline Time (s)	9.536
Baseline Value 	0.002548
subtract baseline	10,3
PK_550	0.093268
Peak Time (s)	90.037
Peak Height 	0.09327
calc peak height	90,93
Baseline Time (s)	10.537
Baseline Value 	0.001043
subtract baseline	10,2
PK_880	0.147117
Peak Time (s)	92.537
Peak Height 	0.1471
calc peak height	90,93
Baseline Time (s)	10.537
Baseline Value 	0.001871
subtract baseline	10,1


Time (s)	A880-A510	A880-A775	A880-A975	A880	I510	I775	I975	I880	
0.036500	-0.000192	-0.000822	0.002972	0.002796	6484.943224	43909.653946	3954.897717	22600.832725
0.537000	-0.001298	-0.001312	-0.004981	0.004061	6465.155386	43744.446272	3930.964243	22543.397916
1.037000	-0.004263	-0.000924	-0.001564	0.004024	6440.869501	43784.362470	3939.872403	22545.098496
1.537500	-0.003199	-0.000756	-0.002410	0.006559	6428.730240	43562.453069	3931.152596	22430.527608
2.037500	-0.001110	-0.000326	0.000016	0.001596	6487.301934	44069.988893	3950.298181	22655.451715
2.535000	-0.003008	-0.001008	0.001472	0.001322	6473.737683	44031.353490	3954.829654	22667.966098
3.038500	0.000994	-0.000538	-0.001097	-0.001210	6528.657698	44316.395253	3954.734462	22783.804337
3.536000	-0.001664	-0.000494	-0.003627	0.004962	6454.626642	43736.680090	3932.129770	22502.630665
4.036000	-0.001152	-0.000307	0.000263	0.000489	6496.237996	44176.816339	3953.844131	22706.012465
4.536000	-0.000953	-0.001210	-0.002565	0.000021	6501.841013	44135.464400	3947.674028	22727.396544
5.036500	0.001940	0.000480	0.001422	0.001146	6516.738106	44189.112472	3955.159556	22675.982312
5.534000	-0.001640	-0.000005	0.003680	0.005122	6453.495040	43767.531020	3950.659343	22495.369951
6.037500	-0.000651	-0.000782	-0.001897	0.000058	6504.069483	44172.560809	3949.320852	22725.694009
6.537500	0.000420	0.000486	0.000312	0.001242	6503.118617	44180.591909	3952.000382	22671.608110
7.035000	0.002602	0.000403	-0.000336	0.000936	6524.108414	44201.753359	3951.106230	22685.594096
7.535500	-0.001987	-0.000956	-0.004444	0.003847	6461.208391	43798.002314	3932.893941	22553.114771
8.035500	-0.000984	-0.000404	-0.001047	-0.000410	6505.206667	44252.993192	3952.767410	22747.128230
8.535500	0.000701	-0.000887	-0.002432	0.000000	6515.951276	44168.084929	3948.075005	22728.351302
9.036500	0.001273	0.000147	0.001046	0.000634	6515.425669	44206.114121	3955.516966	22699.372377
9.536000	0.001671	-0.000746	0.000000	-0.000317	6526.833587	44211.650372	3955.268347	22742.861718
10.036500	-0.000190	0.000043	0.003963	-0.000055	6508.901926	44261.749560	3965.024096	22730.879159
10.537000	0.000000	0.000000	0.000559	0.000210	6508.271078	44232.448208	3955.351593	22718.753143
11.037500	-0.000077	-0.000902	-0.001926	-0.000055	6509.852890	44171.912593	3949.538899	22730.873324
11.535000	-0.001454	0.000225	-0.000872	0.004558	6459.730931	43842.300697	3940.282263	22520.923443
12.035000	-0.000100	-0.000593	0.001234	-0.000340	6512.066240	44228.352403	3958.574562	22743.934393
12.535500	-0.000584	-0.000201	-0.003155	-0.000138	6506.278188	44246.392962	3946.549366	22734.651630
13.035500	-0.003192	-0.000881	-0.000787	-0.000464	6487.127769	44212.759139	3953.591157	22749.601432
13.535500	-0.002625	-0.000531	-0.004830	0.005574	6441.597090	43675.682826	3927.470570	22474.954591
14.036500	-0.000712	-0.000367	-0.001616	0.002164	6485.888210	44012.349606	3944.566168	22629.602105
14.536500	-0.000869	-0.000645	-0.002273	0.002023	6485.746902	43999.333167	3943.222719	22635.992282
15.039500	0.000536	-0.000587	-0.002681	-0.000047	6514.957919	44201.086557	3947.549986	22730.516235
15.537000	-0.000752	0.000357	-0.005362	0.005458	6458.081627	43770.049690	3926.407001	22480.197283
16.034500	0.000399	-0.000124	0.000068	0.000413	6509.918505	44201.344097	3953.531960	22709.468066
16.535000	0.000148	-0.000417	-0.002445	0.000094	6510.493718	44203.844127	3947.795815	22724.052056
17.035500	0.001545	-0.000581	-0.000421	-0.003292	6551.031179	44511.068508	3961.993767	22879.547789
17.536000	0.000642	0.000412	-0.001587	0.002263	6496.404799	44076.700636	3944.383512	22625.102676
18.036000	0.000013	0.000031	0.001205	0.001742	6495.499438	44090.034216	3953.030454	22648.832592
18.536000	0.000825	0.000437	-0.001445	0.001759	6502.177040	44126.772431	3946.061752	22648.023966
19.036500	-0.002593	-0.000345	-0.003256	0.001257	6477.744857	44100.318628	3942.661103	22670.930813
19.539000	-0.000188	-0.000482	0.001199	0.001934	6492.201671	44023.240010	3952.509789	22640.071488
20.037000	-0.001736	-0.000749	-0.002883	0.000964	6487.350305	44089.769315	3944.388401	22684.278491
20.540000	-0.001334	-0.000595	0.002041	0.000931	6490.998921	44107.418868	3957.351471	22685.785381
21.035000	-0.002073	0.000130	0.000199	0.001123	6483.210716	44158.055896	3952.016528	22677.044340
21.535500	-0.000962	-0.000329	0.000752	0.001771	6487.074853	44053.111795	3951.764691	22647.474843
22.035500	0.000903	0.000433	-0.000543	0.001767	6502.770831	44125.692980	3948.395147	22647.686910
22.535500	-0.000400	-0.000279	0.001495	0.000880	6499.274985	44142.376828	3956.050558	22688.148029
23.036000	-0.000326	-0.000180	-0.004140	0.001236	6496.897055	44117.883970	3940.421178	22671.873900
23.536500	-0.000765	0.000047	-0.005246	0.001485	6491.124122	44115.838246	3936.916919	22660.511334
24.039500	-0.000022	0.000544	-0.001618	0.001826	6494.500548	44130.635911	3945.437701	22644.984166
24.537000	-0.000406	-0.000291	0.000274	0.001378	6495.037963	44093.925107	3951.543425	22665.412043
25.037000	-0.002264	-0.000836	-0.002792	0.000984	6482.771327	44079.653965	3944.575928	22683.381940
25.537500	0.001035	0.000573	0.002433	0.002204	6500.198577	44097.531101	3955.035445	22627.750162
26.035000	-0.001143	0.000311	0.003621	0.001389	6488.766548	44149.998886	3960.305389	22664.905424
26.535000	0.000268	-0.000118	-0.000832	0.001519	6499.514270	44096.968286	3948.285977	22658.970365
27.035500	0.001699	-0.000610	0.003667	-0.001022	6533.037460	44291.609571	3966.801728	22775.146172
27.535500	0.000892	-0.000057	0.000371	0.000279	6515.210298	44220.463650	3954.676607	22715.584962
28.036500	-0.001639	-0.000746	0.000781	0.000114	6495.301854	44170.661681	3956.187976	22723.143682
28.536000	-0.000220	-0.000104	-0.000955	0.000253	6506.052590	44218.455536	3951.270776	22716.766771
29.037000	-0.000948	-0.000358	0.001188	0.001429	6490.062680	44082.681361	3953.803713	22663.057629
29.537000	-0.003992	-0.000685	-0.000183	0.005242	6433.040831	43692.362078	3940.294502	22489.938265
30.037500	-0.000344	-0.000800	-0.002829	-0.000047	6507.539241	44180.864555	3947.163571	22730.522703
30.535000	-0.001472	-0.000456	-0.000869	0.002768	6474.486122	43946.859670	3944.937021	22602.123631
31.035000	-0.000193	-0.000040	-0.001749	0.002954	6483.613939	43968.567510	3942.167102	22593.651365
31.535500	-0.002342	-0.000301	0.002205	0.005490	6444.628348	43705.188873	3945.852880	22478.745743
32.041500	0.000607	0.000074	0.001523	0.000781	6508.570889	44185.157274	3956.382939	22692.637024
32.536000	0.000736	0.000660	0.000558	0.001062	6507.289579	44214.184918	3953.113252	22679.803725
33.036000	0.001787	-0.000217	0.001493	0.001850	6509.508760	44056.236219	3953.502059	22643.897292
33.536500	-0.001732	-0.000364	0.000236	0.003035	6470.090549	43930.322216	3947.117816	22589.981651
34.037000	0.000976	0.000302	-0.002583	0.002211	6499.647031	44071.164146	3941.930671	22627.437111
34.536500	-0.000064	-0.000149	-0.001933	0.002044	6492.316991	44044.291083	3944.050219	22635.037196
35.034500	-0.001346	0.000081	0.006407	0.002919	6474.272134	43983.272615	3963.621655	22595.227620
35.537500	-0.002507	0.000073	-0.002134	0.002236	6470.288035	44047.120962	3943.029030	22626.293932
36.035500	-0.000396	-0.000236	0.000277	0.001275	6495.983493	44108.958192	3951.821341	22670.105131
36.535500	-0.000555	0.000349	-0.000412	0.002635	6483.252565	44035.532683	3946.471302	22608.156573
37.036500	0.001322	0.000152	0.000528	0.002479	6500.299964	44031.632270	3949.329648	22615.240171
37.536000	0.000226	0.000422	-0.002213	0.002800	6488.413871	44026.883176	3941.363563	22600.675910
38.036500	-0.000706	0.000035	0.000329	0.002426	6483.740820	44025.570612	3948.948432	22617.646712
38.536500	0.002871	-0.000294	-0.000246	0.002275	6515.059899	44008.736433	3947.842998	22624.519955
39.037000	0.000052	0.000497	0.002430	0.002871	6486.359171	44027.178033	3953.278917	22597.418001
39.537500	-0.000744	-0.000453	-0.000281	0.002554	6482.352739	43967.355636	3947.023606	22611.850835
40.037500	0.000062	-0.000370	-0.001953	0.002098	6492.925209	44018.361588	3943.861419	22632.613478
40.537500	-0.000504	-0.000052	-0.000826	0.001871	6490.084470	44069.951466	3947.384836	22642.951318
41.035500	0.000641	0.000128	-0.000853	0.002617	6493.424086	44016.261884	3945.368657	22608.957349
41.538500	-0.001467	-0.000606	-0.002583	0.002773	6474.482466	43932.237257	3940.472871	22601.882961
42.036000	-0.001823	0.000897	0.000767	0.003096	6468.827274	44043.745059	3948.344883	22587.212849
42.536000	-0.000106	0.000285	-0.003071	0.002779	6485.808712	44015.783005	3939.193130	22601.605616
43.036000	-0.001259	-0.000113	-0.000104	0.002373	6479.560420	44016.569833	3947.956299	22620.054423
43.537000	-0.001450	-0.000090	0.003282	0.003254	6470.619022	43935.575422	3954.510494	22580.039791
44.034500	0.000325	-0.000167	0.000611	0.000116	6511.804820	44225.579031	3955.735598	22723.064724
44.537000	0.000257	-0.000170	-0.000762	0.000639	6506.824992	44175.552646	3950.766326	22699.137329
45.035000	-0.002508	-0.000219	-0.001058	0.004806	6448.926439	43777.130045	3939.159701	22509.687547
45.535500	-0.001570	-0.000214	-0.000007	0.004177	6461.923085	43836.822747	3943.513855	22538.143432
46.038000	-0.000033	0.000092	0.000689	0.000831	6502.765346	44182.138045	3954.065105	22690.367319
46.536000	0.000222	-0.000255	0.001465	0.000043	6511.544290	44224.037125	3958.171621	22726.378104
47.036000	-0.003032	-0.001041	-0.002325	0.003658	6454.099652	43807.811235	3938.852109	22561.709528
47.536000	-0.003387	0.000410	-0.000028	0.004813	6441.587851	43835.608126	3941.806542	22509.342853
48.039000	-0.000179	0.000180	0.000399	0.001146	6498.890489	44160.657715	3952.478752	22675.988330
48.537000	-0.001889	-0.001008	0.001166	0.000223	6492.287000	44135.475661	3956.914207	22718.155834
49.037000	-0.002746	-0.000325	-0.003118	0.004142	6452.455240	43829.629928	3935.551833	22539.754941
49.535000	-0.002162	-0.000082	-0.001181	0.006047	6441.515912	43673.535075	3935.635010	22453.622853
50.035000	0.001943	0.000386	0.000969	0.000640	6521.030070	44228.220218	3955.298334	22699.074487
50.538000	-0.000738	0.000304	0.003213	0.004161	6468.988444	43887.076367	3951.950720	22538.865906
51.035500	0.042569	-0.033263	0.166986	0.583331	3903.992137	12928.224779	3252.026451	8044.751012
51.536000	-0.014819	-0.022303	-0.015951	0.014257	6273.042873	40916.979590	3877.891110	22086.630739
52.036000	-0.022308	-0.083767	-0.051396	-0.259225	9165.136424	64818.300454	4653.568101	38951.320891
52.536500	-0.017973	-0.110126	-0.037643	-0.290585	9706.092618	65535.000000	4854.798239	41654.010374
53.036500	-0.015393	-0.064240	-0.027026	-0.230371	8854.065504	63503.500158	4634.689088	36631.269868
53.537000	-0.003770	-0.030567	-0.015306	-0.160374	8098.985876	58644.112801	4406.214304	31603.963273
54.034500	-0.009851	-0.024808	-0.013410	-0.127390	7647.479879	55259.383731	4296.312320	29501.634818
54.535000	-0.015769	-0.030636	-0.017430	-0.164916	8009.633605	59220.735162	4415.099105	31906.165476
55.034500	-0.009089	-0.031682	-0.012213	-0.177432	8242.799699	60727.114338	4481.775437	32755.541124
55.535500	-0.001015	-0.020586	0.003105	-0.122872	7695.425841	55223.682595	4337.797143	29225.914004
56.035500	0.010119	-0.011391	0.015308	-0.068600	7237.296444	50069.070247	4197.228605	26128.408462
56.536000	0.021411	-0.002427	0.021704	-0.024304	6916.265472	46386.699579	4081.741803	23872.009975
57.036500	0.028430	0.004381	0.031532	0.022184	6563.048154	42593.115362	3979.223322	21738.861506
57.536500	0.039456	0.013065	0.045260	0.064412	6305.671622	39645.638536	3905.290611	19989.457832
58.037000	0.049551	0.018420	0.059796	0.089997	6184.599620	37975.124417	3877.909374	19009.399841
58.537000	0.056612	0.022788	0.064235	0.113595	6060.026633	36457.600594	3832.048672	18155.221848
59.034500	0.065226	0.026848	0.075237	0.125928	6032.664529	35825.242047	3828.938626	17726.950958
59.535000	0.072508	0.034606	0.087667	0.142162	5967.738661	35189.691528	3820.099063	17181.425295
60.035500	0.084661	0.041094	0.092423	0.152999	5977.204529	34868.310484	3806.126508	16828.436649
60.536000	0.087364	0.047639	0.097306	0.154603	5985.120109	35233.582005	3813.636979	16776.924144
61.036000	0.093976	0.052576	0.108581	0.196651	5739.499281	32588.686869	3745.341468	15492.516079
61.536500	0.095745	0.053253	0.107732	0.176820	5886.831579	34022.382080	3786.895267	16082.813267
62.036000	0.101334	0.057459	0.112534	0.187518	5851.318069	33561.210524	3773.794246	15761.035317
62.537000	0.100291	0.061425	0.114155	0.190609	5822.882516	33622.884038	3770.553702	15669.510824
63.040000	0.102666	0.064135	0.118876	0.196209	5800.894223	33419.430373	3768.623023	15505.392844
63.540000	0.107218	0.065048	0.119129	0.189748	5876.668705	33941.363847	3783.476733	15694.937829
64.035500	0.109447	0.067952	0.123814	0.192251	5874.759513	33969.965292	3788.352620	15621.164849
64.535000	0.108945	0.069758	0.122328	0.193331	5863.767912	34021.888278	3782.620899	15589.475749
65.035500	0.112503	0.070540	0.124956	0.200127	5841.380794	33594.454000	3773.379893	15391.792271
65.535500	0.119435	0.071846	0.124187	0.196889	5912.248671	33916.846636	3778.843613	15485.600242
66.036000	0.120377	0.074057	0.125859	0.199513	5900.410801	33887.444191	3776.733738	15409.531237
66.536000	0.122167	0.074239	0.131170	0.202084	5894.931551	33717.668222	3782.819167	15335.452187
67.036500	0.119259	0.076110	0.123104	0.210733	5814.991295	33241.084768	3746.288519	15089.443097
67.537000	0.123222	0.077349	0.131154	0.207690	5863.195614	33541.329211	3770.374214	15175.434708
68.040000	0.126974	0.079353	0.137620	0.209902	5873.899362	33526.605246	3779.774654	15112.849255
68.534500	0.126391	0.079974	0.135708	0.211021	5862.070731	33491.591530	3773.068617	15081.319284
69.034500	0.126515	0.080618	0.134472	0.218473	5811.679842	33016.358434	3754.098320	14873.377856
69.535000	0.126837	0.081483	0.137645	0.218214	5815.643437	33094.308714	3761.544480	14880.537136
70.035500	0.130111	0.081788	0.136688	0.215248	5858.561743	33322.334778	3765.934559	14962.946238
70.536000	0.131804	0.083477	0.139262	0.216401	5862.300777	33359.843177	3769.049253	14930.835678
71.035500	0.128177	0.084605	0.138836	0.223155	5791.161253	32968.306930	3753.410853	14744.540665
71.536500	0.130579	0.086182	0.141109	0.224985	5795.032850	32950.802086	3754.366321	14694.552769
72.037000	0.132774	0.087390	0.140766	0.221985	5830.471358	33242.956779	3760.130868	14776.597350
72.539500	0.134465	0.086592	0.145736	0.222091	5841.371900	33179.999888	3770.772042	14773.703894
73.037500	0.135362	0.087420	0.140757	0.222580	5844.177510	33203.602480	3758.817096	14760.285858
73.534500	0.137426	0.088049	0.144171	0.226785	5829.461696	32955.471236	3757.101744	14645.618804
74.034500	0.133909	0.086810	0.145332	0.224320	5822.249841	33040.312885	3764.996443	14712.698423
74.535000	0.136999	0.088393	0.147856	0.225963	5832.169378	33036.092494	3766.925556	14667.934690
75.035500	0.135299	0.088051	0.139133	0.231998	5779.535592	32597.448858	3735.131414	14504.971712
75.536000	0.139966	0.088470	0.143153	0.227483	5842.118709	32936.301018	3753.387718	14626.678264
76.036000	0.138190	0.088577	0.147936	0.227676	5828.586277	32930.312987	3763.354198	14621.440536
76.536500	0.140312	0.089636	0.150493	0.228804	5835.408695	32925.570649	3766.478738	14590.938782
77.036500	0.140090	0.089352	0.144702	0.232056	5811.623763	32682.420587	3746.875301	14503.400666
77.537000	0.138717	0.090019	0.146236	0.233382	5793.286853	32637.345482	3747.323617	14467.919963
78.037500	0.144390	0.091564	0.145344	0.230102	5854.582831	32969.161398	3752.463287	14555.936752
78.535500	0.143640	0.093065	0.151066	0.230858	5844.178152	33020.676917	3763.241207	14535.572587
79.036000	0.141264	0.091188	0.150780	0.232892	5813.935090	32751.052964	3758.191392	14481.026994
79.535000	0.141196	0.092916	0.149419	0.234986	5799.214633	32725.878711	3750.717879	14425.099166
80.038500	0.145529	0.094885	0.151307	0.230347	5860.765706	33182.526084	3764.883228	14549.315192
80.536000	0.147106	0.095244	0.153927	0.230745	5868.949574	33179.808101	3769.754673	14538.610401
81.039000	0.143800	0.093965	0.152877	0.234593	5819.636085	32824.954240	3759.051358	14435.586025
81.536500	0.144856	0.094659	0.152376	0.234320	5828.739098	32891.565119	3758.554878	14442.870202
82.039500	0.145997	0.094136	0.150050	0.228825	5874.595428	33236.414960	3765.462420	14590.357955
82.537000	0.148510	0.095949	0.151829	0.230223	5882.372170	33265.473970	3766.298871	14552.677034
83.034000	0.146258	0.095653	0.156603	0.229575	5871.189506	33289.998523	3778.244505	14570.126387
83.534500	0.147661	0.095481	0.154819	0.229248	5883.251295	33300.835826	3775.020641	14578.957186
84.035500	0.146762	0.095271	0.154731	0.228868	5879.624220	33312.665641	3775.664677	14589.197745
84.535500	0.146948	0.095932	0.153068	0.229415	5877.110466	33320.661292	3770.791132	14574.440038
85.036500	0.148038	0.094927	0.151829	0.229084	5887.032919	33273.617003	3768.795074	14583.377083
85.536000	0.145403	0.094932	0.155062	0.229393	5866.514429	33252.371800	3775.237242	14575.044480
86.035500	0.147189	0.094868	0.151070	0.229939	5875.138970	33209.824302	3765.257610	14560.310686
86.536500	0.145207	0.094684	0.153546	0.230243	5859.259193	33175.802055	3770.020333	14552.133180
87.038000	0.142468	0.093992	0.150717	0.235602	5803.678291	32757.501839	3752.190104	14408.727994
87.534500	0.147242	0.093515	0.151851	0.231323	5865.885953	33019.676000	3763.939260	14523.089038
88.035000	0.144881	0.093701	0.159735	0.232434	5841.870431	32955.650827	3778.850223	14493.279826
88.535500	0.149494	0.094151	0.154951	0.233102	5869.175074	32940.594212	3766.829985	14475.410188
89.035500	0.145254	0.092345	0.155018	0.235181	5825.566779	32673.430080	3762.432469	14419.928398
89.536000	0.143811	0.092699	0.153793	0.233637	5826.255730	32803.663957	3763.128801	14461.103872
90.036500	0.144981	0.093268	0.158193	0.235494	5821.551551	32715.190677	3768.693651	14411.587669
90.536500	0.144056	0.091934	0.154705	0.235261	5816.815652	32639.788804	3761.573640	14417.777030
91.036500	0.146464	0.091703	0.156970	0.236151	5827.214798	32563.283476	3764.577288	14394.137054
91.536500	0.144780	0.092236	0.156256	0.240764	5784.358499	32286.206437	3753.002061	14272.233084
92.037000	0.144011	0.091820	0.156459	0.238629	5793.601734	32402.671159	3758.063666	14328.494929
92.537000	0.147117	0.091649	0.151241	0.240021	5805.239252	32296.810791	3743.822663	14291.781733
93.090500	0.148113	0.091499	0.152950	0.241174	5804.171190	32208.915653	3745.014269	14261.482720
93.535000	0.146229	0.091507	0.157297	0.242237	5784.200540	32137.848120	3752.070417	14233.603813
94.036000	0.147384	0.091036	0.157857	0.242958	5787.132092	32057.862242	3751.723680	14214.738717
94.538500	0.145462	0.090251	0.159421	0.244522	5763.648107	31900.703630	3751.721649	14173.898519
95.036000	0.149968	0.091328	0.164469	0.246212	5782.602473	31859.904820	3758.992607	14129.967509
95.536500	0.150124	0.090649	0.158279	0.247008	5778.283878	31761.802083	3743.932280	14109.303559
96.037000	0.145055	0.089551	0.156358	0.247132	5743.483925	31680.916273	3739.570914	14106.113840
