sample name	sample
index	1086
start time	 04-22-2021  11:31:52 AM


Wavelength (nm)	Absorbance
494.344910	0.349960
494.563924	0.349960
494.782919	0.349960
495.001897	-0.041131
495.220856	0.039743
495.439797	-0.055720
495.658719	-0.098289
495.877624	-0.157379
496.096510	-0.139475
496.315378	-0.118692
496.534227	-0.149495
496.753059	-0.167229
496.971872	-0.123825
497.190667	0.139497
497.409444	0.175865
497.628203	0.180897
497.846943	0.184532
498.065665	0.186451
498.284369	0.188370
498.503055	0.191696
498.721723	0.191761
498.940372	0.190691
499.159003	0.191989
499.377616	0.192658
499.596210	0.193054
499.814787	0.193648
500.033345	0.193930
500.251885	0.194192
500.470406	0.192935
500.688910	0.193076
500.907395	0.193403
501.125862	0.193138
501.344311	0.191474
501.562742	0.191863
501.781154	0.192084
501.999548	0.191370
502.217924	0.190621
502.436282	0.190835
502.654621	0.189560
502.872942	0.189039
503.091245	0.190083
503.309530	0.191817
503.527797	0.192429
503.746045	0.192245
503.964275	0.193636
504.182487	0.193927
504.400681	0.194388
504.618856	0.195783
504.837013	0.196908
505.055152	0.195748
505.273273	0.195135
505.491376	0.194944
505.709460	0.195703
505.927526	0.195007
506.145574	0.195100
506.363604	0.195801
506.581615	0.197115
506.799608	0.197629
507.017583	0.199465
507.235540	0.200818
507.453478	0.200675
507.671399	0.200038
507.889301	0.200661
508.107185	0.199855
508.325050	0.198915
508.542898	0.198301
508.760727	0.198693
508.978538	0.197870
509.196330	0.197235
509.414105	0.196433
509.631861	0.196653
509.849599	0.197264
510.067319	0.197959
510.285021	0.199685
510.502704	0.200743
510.720369	0.199554
510.938016	0.200235
511.155645	0.200829
511.373255	0.202068
511.590848	0.202191
511.808422	0.201996
512.025977	0.203138
512.243515	0.202021
512.461034	0.201562
512.678536	0.202279
512.896018	0.201941
513.113483	0.202594
513.330930	0.203006
513.548358	0.202760
513.765768	0.201612
513.983160	0.200986
514.200533	0.202208
514.417889	0.203728
514.635226	0.204362
514.852545	0.204496
515.069845	0.204978
515.287128	0.205852
515.504392	0.207839
515.721638	0.208469
515.938866	0.209769
516.156075	0.208376
516.373267	0.208126
516.590440	0.208308
516.807594	0.208244
517.024731	0.207398
517.241850	0.207137
517.458950	0.207048
517.676032	0.208019
517.893095	0.207672
518.110141	0.209281
518.327168	0.208245
518.544177	0.208474
518.761168	0.209188
518.978141	0.209245
519.195095	0.209034
519.412031	0.208732
519.628949	0.208857
519.845849	0.208472
520.062731	0.208243
520.279594	0.208935
520.496439	0.208815
520.713266	0.209074
520.930074	0.210007
521.146865	0.210475
521.363637	0.210455
521.580391	0.210272
521.797127	0.211740
522.013844	0.211995
522.230543	0.212246
522.447224	0.212760
522.663887	0.212461
522.880532	0.213161
523.097158	0.213845
523.313766	0.214521
523.530356	0.215159
523.746928	0.215499
523.963481	0.216422
524.180017	0.216870
524.396534	0.218203
524.613032	0.218146
524.829513	0.217922
525.045975	0.217698
525.262420	0.217643
525.478845	0.217600
525.695253	0.217223
525.911643	0.217325
526.128014	0.217724
526.344367	0.217238
526.560702	0.217969
526.777018	0.218981
526.993316	0.219594
527.209597	0.220445
527.425858	0.220669
527.642102	0.221763
527.858328	0.221541
528.074535	0.221988
528.290724	0.221866
528.506894	0.221926
528.723047	0.221837
528.939181	0.221690
529.155297	0.221047
529.371395	0.222336
529.587475	0.222275
529.803536	0.222717
530.019579	0.222230
530.235604	0.222173
530.451611	0.223022
530.667600	0.222920
530.883570	0.223810
531.099522	0.224639
531.315456	0.223647
531.531372	0.223420
531.747269	0.223495
531.963148	0.224170
532.179009	0.224523
532.394852	0.224584
532.610676	0.224157
532.826482	0.224818
533.042271	0.225005
533.258040	0.225308
533.473792	0.226177
533.689525	0.226317
533.905240	0.226322
534.120937	0.227629
534.336616	0.227892
534.552277	0.228892
534.767919	0.228607
534.983543	0.228920
535.199149	0.229667
535.414736	0.229293
535.630306	0.229472
535.845857	0.229722
536.061390	0.229036
536.276904	0.230182
536.492401	0.230293
536.707879	0.230882
536.923339	0.231634
537.138781	0.232100
537.354204	0.232590
537.569610	0.233557
537.784997	0.233795
538.000366	0.234575
538.215716	0.233654
538.431049	0.233696
538.646363	0.233697
538.861659	0.233625
539.076937	0.233917
539.292196	0.234332
539.507438	0.234279
539.722661	0.234907
539.937866	0.235286
540.153052	0.236179
540.368221	0.236917
540.583371	0.236849
540.798503	0.236945
541.013617	0.237128
541.228712	0.237796
541.443789	0.238209
541.658848	0.238553
541.873889	0.238891
542.088912	0.239158
542.303916	0.239451
542.518902	0.239928
542.733870	0.240685
542.948820	0.241457
543.163752	0.241538
543.378665	0.241832
543.593560	0.242272
543.808437	0.242603
544.023295	0.242689
544.238136	0.242817
544.452958	0.243327
544.667762	0.242946
544.882548	0.242367
545.097315	0.242589
545.312064	0.242936
545.526795	0.242696
545.741508	0.242960
545.956203	0.243931
546.170879	0.244599
546.385537	0.244494
546.600177	0.245661
546.814799	0.246427
547.029402	0.246934
547.243988	0.247536
547.458555	0.247842
547.673103	0.247895
547.887634	0.247346
548.102146	0.247308
548.316640	0.247800
548.531116	0.247845
548.745574	0.248122
548.960013	0.248234
549.174435	0.247689
549.388838	0.248185
549.603222	0.248305
549.817589	0.248805
550.031937	0.248696
550.246267	0.249119
550.460579	0.249239
550.674873	0.249642
550.889148	0.249598
551.103405	0.250314
551.317644	0.250641
551.531865	0.251342
551.746068	0.251659
551.960252	0.252177
552.174418	0.252106
552.388566	0.252076
552.602696	0.252088
552.816807	0.252528
553.030900	0.252700
553.244975	0.253339
553.459032	0.253279
553.673070	0.253575
553.887091	0.253891
554.101093	0.254063
554.315077	0.254509
554.529042	0.254696
554.742990	0.254586
554.956919	0.255074
555.170830	0.254134
555.384722	0.254842
555.598597	0.254811
555.812453	0.255228
556.026291	0.255782
556.240111	0.256119
556.453913	0.255871
556.667696	0.256623
556.881461	0.256586
557.095208	0.257910
557.308937	0.257297
557.522647	0.257241
557.736339	0.256623
557.950013	0.256643
558.163669	0.256199
558.377307	0.256641
558.590926	0.256244
558.804527	0.256415
559.018110	0.256229
559.231675	0.256773
559.445221	0.257223
559.658749	0.257858
559.872259	0.257678
560.085751	0.258504
560.299225	0.258171
560.512680	0.258418
560.726117	0.258013
560.939536	0.257909
561.152937	0.257856
561.366319	0.257745
561.579683	0.257940
561.793029	0.258593
562.006357	0.258676
562.219667	0.258972
562.432958	0.259188
562.646231	0.259930
562.859486	0.260060
563.072723	0.260522
563.285941	0.261181
563.499141	0.261283
563.712323	0.261153
563.925487	0.261010
564.138632	0.261435
564.351760	0.261760
564.564869	0.261844
564.777960	0.262330
564.991032	0.262368
565.204087	0.262106
565.417123	0.262436
565.630141	0.262728
565.843140	0.263202
566.056122	0.263394
566.269085	0.263077
566.482030	0.262703
566.694957	0.262898
566.907866	0.262971
567.120756	0.263083
567.333628	0.263291
567.546482	0.263217
567.759318	0.263016
567.972135	0.263210
568.184935	0.263810
568.397716	0.264205
568.610478	0.263761
568.823223	0.263622
569.035949	0.264202
569.248657	0.264352
569.461347	0.264644
569.674019	0.265265
569.886672	0.265853
570.099308	0.266223
570.311925	0.267001
570.524523	0.267758
570.737104	0.268474
570.949666	0.268566
571.162210	0.268449
571.374736	0.268829
571.587244	0.268788
571.799733	0.268448
572.012205	0.268358
572.224658	0.268157
572.437092	0.267952
572.649509	0.267897
572.861907	0.267674
573.074287	0.268173
573.286649	0.268053
573.498993	0.268126
573.711318	0.268696
573.923625	0.269035
574.135914	0.268936
574.348185	0.269482
574.560438	0.270016
574.772672	0.270482
574.984888	0.270450
575.197086	0.271092
575.409266	0.271557
575.621427	0.271309
575.833570	0.271481
576.045695	0.271955
576.257802	0.272349
576.469890	0.271620
576.681961	0.271702
576.894013	0.271920
577.106046	0.271525
577.318062	0.271462
577.530059	0.271928
577.742039	0.271576
577.954000	0.271700
578.165942	0.271520
578.377867	0.272215
578.589773	0.272526
578.801661	0.272635
579.013531	0.273070
579.225382	0.273326
579.437216	0.273230
579.649031	0.274061
579.860828	0.274151
580.072606	0.274055
580.284367	0.274028
580.496109	0.273975
580.707833	0.274321
580.919539	0.274090
581.131227	0.273970
581.342896	0.274385
581.554547	0.274337
581.766180	0.274323
581.977795	0.274573
582.189391	0.274634
582.400969	0.275372
582.612529	0.275087
582.824071	0.275457
583.035595	0.276102
583.247100	0.276027
583.458587	0.276234
583.670056	0.276793
583.881506	0.277053
584.092939	0.277099
584.304353	0.276671
584.515749	0.276779
584.727127	0.277390
584.938486	0.277013
585.149828	0.277461
585.361151	0.277520
585.572456	0.277712
585.783742	0.277630
585.995011	0.277830
586.206261	0.277852
586.417493	0.278739
586.628706	0.278387
586.839902	0.279191
587.051079	0.279189
587.262238	0.279242
587.473379	0.279218
587.684502	0.279606
587.895606	0.279776
588.106692	0.280119
588.317760	0.279773
588.528810	0.279837
588.739841	0.279349
588.950855	0.279586
589.161850	0.279622
589.372827	0.279633
589.583785	0.279803
589.794726	0.280540
590.005648	0.280499
590.216552	0.280570
590.427437	0.280850
590.638305	0.281124
590.849154	0.281016
591.059985	0.281210
591.270798	0.281042
591.481592	0.281093
591.692369	0.281024
591.903127	0.281778
592.113867	0.282114
592.324588	0.281987
592.535292	0.282132
592.745977	0.282455
592.956644	0.282837
593.167293	0.283014
593.377923	0.283344
593.588536	0.283370
593.799130	0.283110
594.009706	0.282938
594.220263	0.283072
594.430803	0.283071
594.641324	0.283322
594.851827	0.283461
595.062312	0.283786
595.272778	0.283985
595.483227	0.284216
595.693657	0.284522
595.904069	0.284948
596.114462	0.285493
596.324838	0.285905
596.535195	0.286159
596.745534	0.286247
596.955855	0.286662
597.166157	0.286683
597.376441	0.286790
597.586707	0.286739
597.796955	0.287224
598.007185	0.287493
598.217396	0.287292
598.427589	0.287270
598.637764	0.287195
598.847921	0.287442
599.058060	0.287619
599.268180	0.287740
599.478282	0.288137
599.688366	0.287720
599.898431	0.287719
600.108479	0.288238
600.318508	0.288511
600.528519	0.288939
600.738511	0.289303
600.948486	0.289161
601.158442	0.289664
601.368380	0.289768
601.578300	0.290071
601.788202	0.290333
601.998085	0.290484
602.207950	0.290540
602.417797	0.290511
602.627626	0.290420
602.837436	0.290667
603.047228	0.290561
603.257002	0.290574
603.466758	0.290777
603.676496	0.290764
603.886215	0.290482
604.095916	0.290547
604.305599	0.290670
604.515264	0.290833
604.724910	0.291228
604.934538	0.291260
605.144148	0.291375
605.353740	0.291607
605.563314	0.291777
605.772869	0.292269
605.982406	0.292165
606.191925	0.292427
606.401425	0.292341
606.610908	0.292636
606.820372	0.293155
607.029818	0.293000
607.239246	0.293187
607.448655	0.293800
607.658047	0.294163
607.867420	0.294276
608.076775	0.294232
608.286111	0.294628
608.495430	0.294214
608.704730	0.293995
608.914012	0.294469
609.123275	0.294308
609.332521	0.293844
609.541748	0.293497
609.750957	0.294080
609.960148	0.294474
610.169321	0.294077
610.378475	0.294243
610.587611	0.294390
610.796729	0.294527
611.005829	0.294322
611.214910	0.295010
611.423974	0.295124
611.633019	0.295070
611.842045	0.294857
612.051054	0.295157
612.260044	0.295360
612.469017	0.295323
612.677970	0.295387
612.886906	0.296044
613.095824	0.295421
613.304723	0.295438
613.513604	0.295533
613.722467	0.295698
613.931311	0.295799
614.140138	0.295876
614.348946	0.295822
614.557736	0.295748
614.766507	0.295666
614.975261	0.295884
615.183996	0.295956
615.392713	0.296125
615.601412	0.296307
615.810092	0.296320
616.018754	0.296612
616.227399	0.296804
616.436024	0.296983
616.644632	0.297220
616.853222	0.297505
617.061793	0.297849
617.270346	0.297906
617.478880	0.298087
617.687397	0.298409
617.895895	0.298349
618.104375	0.298690
618.312837	0.299036
618.521281	0.299207
618.729706	0.299398
618.938113	0.299830
619.146502	0.299866
619.354873	0.299910
619.563226	0.300032
619.771560	0.300451
619.979876	0.300698
620.188174	0.300455
620.396453	0.300112
620.604715	0.300086
620.812958	0.299874
621.021183	0.299951
621.229390	0.300151
621.437578	0.300470
621.645748	0.300330
621.853900	0.300379
622.062034	0.300452
622.270150	0.301020
622.478247	0.301394
622.686326	0.301676
622.894387	0.301842
623.102430	0.302317
623.310454	0.302291
623.518461	0.302721
623.726449	0.302620
623.934418	0.303119
624.142370	0.302995
624.350303	0.303112
624.558218	0.303158
624.766115	0.303394
624.973994	0.303045
625.181855	0.303132
625.389697	0.302832
625.597521	0.303040
625.805327	0.303016
626.013114	0.303397
626.220883	0.303430
626.428634	0.303631
626.636367	0.303660
626.844082	0.303764
627.051778	0.303874
627.259457	0.304308
627.467117	0.304739
627.674758	0.305000
627.882382	0.304924
628.089987	0.304866
628.297574	0.305064
628.505143	0.304946
628.712694	0.305268
628.920226	0.305615
629.127740	0.305697
629.335236	0.305548
629.542714	0.305346
629.750174	0.305640
629.957615	0.305906
630.165038	0.306073
630.372443	0.306618
630.579829	0.306755
630.787198	0.306754
630.994548	0.307008
631.201880	0.307251
631.409194	0.307727
631.616489	0.307661
631.823766	0.307834
632.031025	0.307879
632.238266	0.307934
632.445489	0.308192
632.652693	0.308280
632.859879	0.308418
633.067047	0.308720
633.274197	0.308586
633.481329	0.308955
633.688442	0.309522
633.895537	0.309739
634.102614	0.310124
634.309672	0.310216
634.516713	0.310421
634.723735	0.310187
634.930739	0.310267
635.137724	0.310664
635.344692	0.310820
635.551641	0.310625
635.758572	0.310891
635.965485	0.310939
636.172379	0.310902
636.379256	0.310758
636.586114	0.311076
636.792954	0.311413
636.999775	0.311541
637.206579	0.311462
637.413364	0.311665
637.620131	0.311573
637.826880	0.311597
638.033610	0.311923
638.240323	0.312451
638.447017	0.312886
638.653692	0.312838
638.860350	0.313102
639.066990	0.313545
639.273611	0.313450
639.480214	0.313841
639.686798	0.314273
639.893365	0.314457
640.099913	0.314705
640.306443	0.314805
640.512955	0.314903
640.719449	0.314941
640.925924	0.315231
641.132381	0.315700
641.338820	0.315908
641.545241	0.315873
641.751644	0.316093
641.958028	0.316210
642.164394	0.316371
642.370742	0.316856
642.577071	0.317503
642.783383	0.317655
642.989676	0.318053
643.195951	0.318020
643.402207	0.318318
643.608446	0.318506
643.814666	0.318481
644.020868	0.318592
644.227052	0.318654
644.433218	0.318553
644.639365	0.318729
644.845494	0.318578
645.051605	0.319054
645.257698	0.319098
645.463772	0.319295
645.669828	0.319698
645.875866	0.320101
646.081886	0.320258
646.287888	0.320052
646.493871	0.319804
646.699836	0.319834
646.905783	0.319808
647.111712	0.320003
647.317622	0.320097
647.523514	0.320070
647.729388	0.320018
647.935244	0.320014
648.141082	0.320393
648.346901	0.320807
648.552702	0.321475
648.758485	0.321562
648.964250	0.321970
649.169996	0.322093
649.375724	0.322362
649.581434	0.322754
649.787126	0.323243
649.992800	0.323272
650.198455	0.323559
650.404092	0.323326
650.609711	0.323488
650.815311	0.323534
651.020894	0.323786
651.226458	0.324076
651.432004	0.324262
651.637532	0.324270
651.843041	0.325052
652.048532	0.325471
652.254006	0.325784
652.459460	0.325899
652.664897	0.325949
652.870315	0.326286
653.075716	0.326491
653.281097	0.326624
653.486461	0.326541
653.691807	0.326338
653.897134	0.326439
654.102443	0.326634
654.307734	0.327186
654.513006	0.327498
654.718261	0.327585
654.923497	0.327568
655.128715	0.327674
655.333915	0.327862
655.539096	0.328252
655.744259	0.328355
655.949404	0.328475
656.154531	0.328349
656.359640	0.328375
656.564730	0.328710
656.769802	0.329156
656.974856	0.329177
657.179892	0.329457
657.384909	0.329344
657.589908	0.329622
657.794889	0.330019
657.999852	0.330275
658.204797	0.330488
658.409723	0.330343
658.614631	0.330433
658.819521	0.330837
659.024393	0.331478
659.229246	0.331853
659.434081	0.331934
659.638898	0.331789
659.843697	0.331897
660.048478	0.332156
660.253240	0.332214
660.457984	0.332464
660.662710	0.332661
660.867417	0.332350
661.072107	0.332562
661.276778	0.332526
661.481431	0.332848
661.686066	0.333080
661.890682	0.333300
662.095281	0.333990
662.299861	0.334093
662.504422	0.334459
662.708966	0.335013
662.913491	0.335257
663.117999	0.335719
663.322488	0.336185
663.526958	0.336632
663.731411	0.336836
663.935845	0.336830
664.140261	0.337264
664.344659	0.337598
664.549038	0.337611
664.753400	0.337688
664.957743	0.337819
665.162068	0.337850
665.366375	0.337916
665.570663	0.338329
665.774933	0.338864
665.979185	0.338770
666.183419	0.338564
666.387635	0.338894
666.591832	0.339314
666.796011	0.339710
667.000172	0.340003
667.204315	0.340300
667.408439	0.340644
667.612545	0.340590
667.816634	0.340986
668.020703	0.341326
668.224755	0.341612
668.428788	0.341565
668.632803	0.341665
668.836800	0.341719
669.040779	0.342304
669.244739	0.342506
669.448681	0.342937
669.652605	0.343237
669.856511	0.343260
670.060399	0.343313
670.264268	0.343502
670.468119	0.343902
670.671952	0.344490
670.875767	0.344230
671.079563	0.344325
671.283341	0.344367
671.487101	0.344592
671.690843	0.344981
671.894567	0.345152
672.098272	0.345684
672.301959	0.345798
672.505628	0.345714
672.709278	0.345987
672.912911	0.346117
673.116525	0.346129
673.320121	0.346262
673.523699	0.346592
673.727258	0.347140
673.930799	0.347138
674.134322	0.347734
674.337827	0.348012
674.541314	0.348720
674.744782	0.349128
674.948232	0.349527
675.151664	0.349732
675.355078	0.350030
675.558474	0.350029
675.761851	0.350672
675.965210	0.350551
676.168551	0.351147
676.371873	0.351088
676.575178	0.351040
676.778464	0.351337
676.981732	0.351524
677.184981	0.351579
677.388213	0.351919
677.591426	0.351707
677.794621	0.352033
677.997798	0.351928
678.200956	0.352156
678.404097	0.352357
678.607219	0.352539
678.810323	0.352820
679.013408	0.353085
679.216476	0.353297
679.419525	0.353782
679.622556	0.353880
679.825569	0.354053
680.028563	0.354079
680.231540	0.354718
680.434498	0.354920
680.637438	0.355185
680.840359	0.355194
681.043263	0.355347
681.246148	0.355437
681.449015	0.355464
681.651864	0.355666
681.854694	0.356000
682.057506	0.355609
682.260301	0.355968
682.463076	0.355943
682.665834	0.356429
682.868573	0.356625
683.071295	0.356792
683.273998	0.357047
683.476682	0.357183
683.679349	0.356750
683.881997	0.357286
684.084627	0.357479
684.287239	0.357707
684.489833	0.357667
684.692408	0.357903
684.894965	0.358220
685.097504	0.358621
685.300025	0.358887
685.502527	0.359530
685.705012	0.359647
685.907478	0.359593
686.109925	0.359854
686.312355	0.360072
686.514766	0.360137
686.717159	0.360071
686.919534	0.360138
687.121891	0.360314
687.324230	0.360470
687.526550	0.360369
687.728852	0.360213
687.931136	0.360449
688.133401	0.360795
688.335649	0.360883
688.537878	0.360948
688.740089	0.361134
688.942281	0.361298
689.144456	0.361464
689.346612	0.361799
689.548750	0.362257
689.750870	0.362550
689.952971	0.362372
690.155055	0.362726
690.357120	0.363380
690.559167	0.363452
690.761195	0.363739
690.963206	0.363956
691.165198	0.364227
691.367172	0.364589
691.569128	0.364595
691.771065	0.364985
691.972984	0.365232
692.174885	0.365106
692.376768	0.365440
692.578633	0.365490
692.780479	0.365566
692.982308	0.365559
693.184118	0.365576
693.385909	0.365750
693.587683	0.365878
693.789438	0.365745
693.991175	0.365531
694.192894	0.365429
694.394595	0.365333
694.596277	0.365560
694.797941	0.365811
694.999587	0.365653
695.201215	0.365474
695.402824	0.365819
695.604416	0.366082
695.805989	0.366336
696.007543	0.366742
696.209080	0.367181
696.410598	0.367325
696.612099	0.367547
696.813580	0.367980
697.015044	0.368345
697.216490	0.368051
697.417917	0.367955
697.619326	0.368222
697.820717	0.367980
698.022089	0.368073
698.223444	0.368273
698.424780	0.368254
698.626098	0.368026
698.827397	0.367991
699.028679	0.368205
699.229942	0.368402
699.431187	0.368462
699.632414	0.368491
699.833622	0.368310
700.034813	0.368210
700.235985	0.368200
700.437139	0.368530
700.638274	0.368513
700.839392	0.368533
701.040491	0.368569
701.241572	0.368924
701.442635	0.369200
701.643679	0.369456
701.844706	0.369427
702.045714	0.369660
702.246704	0.369763
702.447675	0.370291
702.648629	0.370351
702.849564	0.370396
703.050481	0.370306
703.251380	0.370356
703.452260	0.370434
703.653122	0.370554
703.853966	0.370597
704.054792	0.370517
704.255600	0.370152
704.456389	0.370289
704.657160	0.370184
704.857913	0.370087
705.058648	0.370176
705.259365	0.370162
705.460063	0.370163
705.660743	0.370024
705.861405	0.370328
706.062048	0.370580
706.262674	0.370551
706.463281	0.371086
706.663870	0.371240
706.864441	0.371224
707.064993	0.371273
707.265527	0.371426
707.466043	0.371421
707.666541	0.371419
707.867021	0.371589
708.067482	0.371709
708.267925	0.371450
708.468350	0.371426
708.668757	0.371367
708.869145	0.371379
709.069516	0.371426
709.269868	0.371568
709.470201	0.371330
709.670517	0.371212
709.870814	0.371076
710.071093	0.371217
710.271354	0.371219
710.471597	0.371336
710.671821	0.371391
710.872028	0.371247
711.072216	0.371515
711.272385	0.371599
711.472537	0.371658
711.672670	0.371748
711.872785	0.371828
712.072882	0.371681
712.272961	0.371636
712.473021	0.371719
712.673063	0.371721
712.873087	0.371374
713.073093	0.371286
713.273081	0.371183
713.473050	0.371293
713.673001	0.371050
713.872934	0.371388
714.072849	0.371679
714.272745	0.371572
714.472623	0.371664
714.672483	0.371861
714.872325	0.372178
715.072148	0.372259
715.271954	0.372140
715.471741	0.372245
715.671509	0.372018
715.871260	0.371748
716.070992	0.371924
716.270707	0.371867
716.470403	0.371902
716.670080	0.371931
716.869740	0.371497
717.069381	0.371239
717.269004	0.371207
717.468609	0.371262
717.668195	0.370860
717.867764	0.370299
718.067314	0.370017
718.266846	0.369540
718.466360	0.369033
718.665855	0.369106
718.865332	0.369280
719.064791	0.369114
719.264232	0.368808
719.463655	0.368956
719.663059	0.368821
719.862445	0.368903
720.061813	0.368947
720.261163	0.369060
720.460494	0.368992
720.659807	0.368628
720.859102	0.368268
721.058379	0.368235
721.257638	0.368019
721.456878	0.367979
721.656100	0.367619
721.855304	0.367430
722.054490	0.367014
722.253657	0.366986
722.452806	0.367096
722.651937	0.367376
722.851050	0.367071
723.050145	0.367038
723.249221	0.367222
723.448279	0.367304
723.647319	0.367046
723.846340	0.366971
724.045344	0.366953
724.244329	0.366763
724.443296	0.366518
724.642245	0.366625
724.841175	0.366449
725.040088	0.366217
725.238982	0.366152
725.437857	0.366169
725.636715	0.366207
725.835554	0.366023
726.034376	0.365694
726.233179	0.365502
726.431963	0.365436
726.630730	0.365404
726.829478	0.365347
727.028208	0.364907
727.226920	0.364759
727.425614	0.364928
727.624289	0.364676
727.822946	0.364942
728.021585	0.364841
728.220206	0.364529
728.418808	0.364226
728.617392	0.364023
728.815958	0.364100
729.014506	0.364131
729.213036	0.363415
729.411547	0.363355
729.610040	0.362930
729.808515	0.362623
730.006972	0.362533
730.205410	0.362360
730.403831	0.361940
730.602233	0.361613
730.800616	0.361185
730.998982	0.361126
731.197329	0.360776
731.395658	0.360519
731.593969	0.360100
731.792262	0.359940
731.990536	0.359821
732.188793	0.359660
732.387031	0.359681
732.585250	0.359488
732.783452	0.359315
732.981635	0.359217
733.179800	0.359065
733.377947	0.359119
733.576076	0.358724
733.774186	0.358727
733.972278	0.358637
734.170352	0.358439
734.368408	0.358234
734.566446	0.357920
734.764465	0.357564
734.962466	0.357471
735.160449	0.357035
735.358413	0.357036
735.556360	0.356524
735.754288	0.356184
735.952198	0.355737
736.150090	0.355634
736.347963	0.355308
736.545818	0.355152
736.743655	0.355033
736.941474	0.355004
737.139275	0.354586
737.337057	0.354456
737.534821	0.354479
737.732567	0.354269
737.930295	0.354083
738.128005	0.354168
738.325696	0.354043
738.523369	0.353894
738.721024	0.353730
738.918660	0.353853
739.116279	0.353806
739.313879	0.353348
739.511461	0.353534
739.709024	0.353339
739.906570	0.353215
740.104097	0.352983
740.301606	0.352572
740.499097	0.352336
740.696569	0.352156
740.894024	0.352069
741.091460	0.352073
741.288878	0.351604
741.486277	0.351571
741.683659	0.351328
741.881022	0.351320
742.078367	0.351247
742.275694	0.351414
742.473002	0.350946
742.670293	0.350620
742.867565	0.350210
743.064819	0.350308
743.262054	0.349604
743.459272	0.349308
743.656471	0.348654
743.853652	0.348311
744.050815	0.347519
744.247959	0.347527
744.445085	0.347355
744.642194	0.347039
744.839283	0.346594
745.036355	0.346893
745.233408	0.346606
745.430444	0.346846
745.627461	0.346703
745.824459	0.346716
746.021440	0.346437
746.218402	0.346223
746.415346	0.346359
746.612272	0.346230
746.809180	0.345786
747.006069	0.345633
747.202940	0.345291
747.399793	0.345016
747.596628	0.345004
747.793444	0.344623
747.990243	0.344281
748.187023	0.343927
748.383784	0.343716
748.580528	0.343446
748.777253	0.343458
748.973960	0.342992
749.170649	0.342761
749.367320	0.342437
749.563973	0.342640
749.760607	0.342495
749.957223	0.342308
750.153821	0.342092
750.350400	0.342064
750.546962	0.341740
750.743505	0.341851
750.940030	0.341484
751.136536	0.341124
751.333025	0.340524
751.529495	0.340116
751.725947	0.340068
751.922381	0.339670
752.118796	0.339215
752.315194	0.339028
752.511573	0.338624
752.707934	0.338602
752.904276	0.338570
753.100601	0.338295
753.296907	0.338348
753.493195	0.337847
753.689465	0.337599
753.885716	0.337677
754.081949	0.337443
754.278164	0.337664
754.474361	0.337596
754.670540	0.337467
754.866700	0.337374
755.062843	0.337237
755.258967	0.337199
755.455072	0.337317
755.651160	0.337096
755.847229	0.337014
756.043280	0.336603
756.239313	0.336225
756.435328	0.335994
756.631324	0.335727
756.827302	0.335412
757.023262	0.335292
757.219204	0.335173
757.415127	0.334970
757.611033	0.334852
757.806920	0.334528
758.002788	0.334429
758.198639	0.334187
758.394471	0.334166
758.590286	0.334083
758.786081	0.334011
758.981859	0.333626
759.177619	0.333397
759.373360	0.333253
759.569083	0.333160
759.764788	0.332926
759.960474	0.332719
760.156143	0.332383
760.351793	0.331992
760.547425	0.331576
760.743038	0.331364
760.938634	0.331238
761.134211	0.331136
761.329770	0.331025
761.525311	0.330763
761.720833	0.330722
761.916338	0.330614
762.111824	0.330521
762.307292	0.330428
762.502741	0.330355
762.698173	0.329903
762.893586	0.329224
763.088981	0.328833
763.284358	0.329088
763.479716	0.329021
763.675057	0.328847
763.870379	0.328736
764.065683	0.328323
764.260968	0.327990
764.456236	0.328121
764.651485	0.328038
764.846716	0.327806
765.041929	0.327610
765.237123	0.327155
765.432299	0.326852
765.627457	0.326662
765.822597	0.326803
766.017719	0.326801
766.212822	0.326732
766.407907	0.326707
766.602974	0.326344
766.798023	0.326156
766.993054	0.326065
767.188066	0.325780
767.383060	0.325729
767.578036	0.325623
767.772993	0.325503
767.967933	0.325500
768.162854	0.325473
768.357757	0.325625
768.552642	0.325399
768.747508	0.325329
768.942356	0.325566
769.137186	0.325355
769.331998	0.325054
769.526792	0.325205
769.721567	0.324808
769.916324	0.324847
770.111063	0.324715
770.305784	0.324559
770.500486	0.324409
770.695171	0.324324
770.889837	0.324120
771.084484	0.323993
771.279114	0.323478
771.473725	0.323713
771.668318	0.323366
771.862893	0.323366
772.057450	0.323134
772.251988	0.323148
772.446509	0.322807
772.641011	0.322922
772.835494	0.322936
773.029960	0.322801
773.224407	0.322404
773.418836	0.322228
773.613247	0.321990
773.807640	0.321748
774.002014	0.321540
774.196370	0.321597
774.390708	0.321383
774.585028	0.321341
774.779330	0.321469
774.973613	0.321430
775.167878	0.321332
775.362125	0.321637
775.556354	0.322013
775.750564	0.322079
775.944756	0.322038
776.138930	0.322173
776.333086	0.322304
776.527223	0.322261
776.721343	0.322343
776.915444	0.322581
777.109526	0.322514
777.303591	0.322476
777.497637	0.322188
777.691666	0.322425
777.885676	0.322367
778.079667	0.322287
778.273641	0.322401
778.467596	0.322442
778.661533	0.322292
778.855452	0.322292
779.049352	0.322323
779.243235	0.322684
779.437099	0.322360
779.630945	0.322064
779.824773	0.322385
780.018582	0.322202
780.212373	0.322211
780.406146	0.322494
780.599901	0.322731
780.793638	0.322706
780.987356	0.322577
781.181056	0.322973
781.374738	0.323090
781.568402	0.323033
781.762047	0.323157
781.955674	0.323413
782.149283	0.323375
782.342874	0.323323
782.536447	0.323343
782.730001	0.323822
782.923537	0.323780
783.117055	0.323992
783.310555	0.323885
783.504036	0.324191
783.697499	0.324006
783.890944	0.324056
784.084371	0.323885
784.277780	0.324182
784.471170	0.324269
784.664542	0.324490
784.857896	0.324775
785.051231	0.324961
785.244549	0.324922
785.437848	0.325101
785.631129	0.325582
785.824392	0.325883
786.017636	0.325721
786.210863	0.325756
786.404071	0.325668
786.597260	0.325606
786.790432	0.325550
786.983585	0.325646
787.176721	0.325305
787.369838	0.324990
787.562936	0.325109
787.756017	0.325497
787.949079	0.325529
788.142123	0.325873
788.335149	0.325861
788.528156	0.326028
788.721146	0.326304
788.914117	0.326733
789.107070	0.326640
789.300005	0.326336
789.492921	0.326104
789.685819	0.325905
789.878699	0.325696
790.071561	0.326099
790.264405	0.326105
790.457230	0.325962
790.650037	0.326151
790.842826	0.326562
791.035597	0.327051
791.228349	0.327397
791.421084	0.327554
791.613800	0.327826
791.806497	0.327863
791.999177	0.328072
792.191838	0.328451
792.384481	0.328656
792.577106	0.328721
792.769713	0.329072
792.962301	0.328923
793.154871	0.328962
793.347423	0.329222
793.539957	0.329470
793.732473	0.329578
793.924970	0.329625
794.117449	0.329923
794.309910	0.330155
794.502353	0.330051
794.694777	0.330501
794.887183	0.331147
795.079571	0.331100
795.271941	0.331500
795.464293	0.331726
795.656626	0.332090
795.848941	0.332403
796.041238	0.332747
796.233516	0.333289
796.425777	0.333574
796.618019	0.333876
796.810243	0.334459
797.002449	0.334545
797.194636	0.335022
797.386805	0.335162
797.578956	0.335189
797.771089	0.335241
797.963204	0.335427
798.155300	0.335688
798.347378	0.335737
798.539438	0.335873
798.731480	0.336112
798.923503	0.336164
799.115509	0.336225
799.307496	0.336341
799.499465	0.336763
799.691415	0.336947
799.883348	0.336791
800.075262	0.336874
800.267158	0.337319
800.459035	0.337448
800.650895	0.337580
800.842736	0.337921
801.034559	0.337869
801.226364	0.338078
801.418150	0.338088
801.609919	0.338565
801.801669	0.338987
801.993401	0.338934
802.185114	0.339030
802.376810	0.339444
802.568487	0.339604
802.760146	0.339987
802.951787	0.340105
803.143409	0.340468
803.335014	0.340608
803.526600	0.341130
803.718168	0.341417
803.909717	0.341838
804.101249	0.342052
804.292762	0.342575
804.484257	0.343069
804.675734	0.343596
804.867192	0.343856
805.058632	0.344279
805.250054	0.344332
805.441458	0.344719
805.632844	0.345235
805.824211	0.345679
806.015561	0.345912
806.206891	0.346274
806.398204	0.346204
806.589499	0.346270
806.780775	0.346548
806.972033	0.346586
807.163273	0.346717
807.354495	0.346700
807.545698	0.347050
807.736883	0.347410
807.928050	0.347709
808.119199	0.348180
808.310329	0.348797
808.501441	0.349242
808.692535	0.349809
808.883611	0.350433
809.074669	0.350800
809.265708	0.351189
809.456729	0.351400
809.647732	0.351728
809.838717	0.351956
810.029683	0.351940
810.220632	0.352150
810.411562	0.352364
810.602474	0.352525
810.793367	0.352817
810.984242	0.353244
811.175100	0.353408
811.365938	0.353756
811.556759	0.354655
811.747562	0.355078
811.938346	0.355729
812.129112	0.356080
812.319860	0.356466
812.510589	0.356714
812.701300	0.357076
812.891994	0.357408
813.082668	0.357649
813.273325	0.357470
813.463964	0.357954
813.654584	0.358164
813.845186	0.358663
814.035769	0.358670
814.226335	0.359154
814.416882	0.359160
814.607411	0.359580
814.797922	0.359858
814.988415	0.360479
815.178889	0.360814
815.369345	0.360821
815.559783	0.361182
815.750203	0.361569
815.940605	0.362246
816.130988	0.362656
816.321353	0.363190
816.511700	0.363616
816.702028	0.364167
816.892339	0.364698
817.082631	0.365373
817.272905	0.365771
817.463161	0.366422
817.653398	0.366779
817.843617	0.367130
818.033819	0.367599
818.224001	0.367945
818.414166	0.368112
818.604312	0.368639
818.794440	0.369187
818.984550	0.369575
819.174642	0.369888
819.364716	0.369998
819.554771	0.370691
819.744808	0.371007
819.934827	0.371656
820.124827	0.372012
820.314810	0.372378
820.504774	0.372707
820.694720	0.373072
820.884647	0.373705
821.074557	0.374222
821.264448	0.374652
821.454321	0.374896
821.644176	0.375460
821.834012	0.375945
822.023831	0.376298
822.213631	0.376565
822.403413	0.377202
822.593176	0.377445
822.782922	0.377602
822.972649	0.377792
823.162358	0.378311
823.352049	0.378599
823.541721	0.378800
823.731376	0.379418
823.921012	0.380056
824.110629	0.380102
824.300229	0.380668
824.489811	0.381468
824.679374	0.381905
824.868919	0.382421
825.058445	0.383081
825.247954	0.383648
825.437444	0.383998
825.626916	0.383964
825.816370	0.384836
826.005806	0.385293
826.195223	0.385312
826.384622	0.385675
826.574003	0.386240
826.763366	0.386411
826.952711	0.386946
827.142037	0.387289
827.331345	0.388050
827.520635	0.388348
827.709906	0.388863
827.899160	0.389607
828.088395	0.390306
828.277612	0.390799
828.466810	0.391135
828.655991	0.391415
828.845153	0.392010
829.034297	0.392737
829.223423	0.392862
829.412531	0.393383
829.601620	0.394067
829.790691	0.394415
829.979744	0.394547
830.168779	0.395251
830.357795	0.395848
830.546793	0.396263
830.735773	0.396760
830.924735	0.397577
831.113679	0.397867
831.302604	0.398490
831.491511	0.399162
831.680400	0.400126
831.869271	0.400662
832.058123	0.401361
832.246957	0.401874
832.435773	0.402350
832.624571	0.403024
832.813351	0.403631
833.002112	0.404146
833.190855	0.404984
833.379580	0.405620
833.568287	0.406538
833.756975	0.407187
833.945645	0.407725
834.134297	0.408264
834.322931	0.408692
834.511547	0.409174
834.700144	0.409566
834.888723	0.409944
835.077284	0.410590
835.265826	0.410894
835.454351	0.411273
835.642857	0.411791
835.831345	0.411964
836.019815	0.412239
836.208266	0.412829
836.396699	0.413070
836.585114	0.413253
836.773511	0.413694
836.961890	0.413983
837.150250	0.414555
837.338592	0.415042
837.526916	0.416216
837.715222	0.417299
837.903510	0.418045
838.091779	0.418626
838.280030	0.419050
838.468263	0.419355
838.656477	0.419769
838.844674	0.420255
839.032852	0.420758
839.221012	0.421230
839.409153	0.421334
839.597277	0.421728
839.785382	0.422503
839.973469	0.423265
840.161538	0.424362
840.349589	0.425226
840.537621	0.425843
840.725635	0.426458
840.913631	0.427262
841.101609	0.428093
841.289568	0.428814
841.477509	0.429486
841.665432	0.430231
841.853337	0.430294
842.041224	0.430814
842.229092	0.431482
842.416942	0.432553
842.604774	0.432641
842.792588	0.432998
842.980383	0.433230
843.168160	0.433888
843.355919	0.434716
843.543660	0.435624
843.731382	0.436283
843.919087	0.436976
844.106773	0.437432
844.294441	0.437946
844.482090	0.438584
844.669722	0.439188
844.857335	0.439843
845.044930	0.439739
845.232507	0.439790
845.420065	0.440250
845.607605	0.440472
845.795127	0.440636
845.982631	0.441287
846.170117	0.441805
846.357584	0.442318
846.545033	0.442587
846.732464	0.443216
846.919877	0.443789
847.107272	0.444230
847.294648	0.444678
847.482006	0.444948
847.669346	0.445364
847.856667	0.445602
848.043971	0.446462
848.231256	0.447011
848.418523	0.447547
848.605771	0.448338
848.793002	0.449131
848.980214	0.449826
849.167408	0.450699
849.354584	0.451480
849.541742	0.452405
849.728881	0.452610
849.916002	0.453126
850.103105	0.453386
850.290190	0.454163
850.477256	0.454740
850.664304	0.455193
850.851334	0.455753
851.038346	0.455689
851.225340	0.456276
851.412315	0.457008
851.599272	0.457515
851.786211	0.458677
851.973132	0.458977
852.160034	0.459353
852.346918	0.460105
852.533784	0.460160
852.720632	0.461140
852.907462	0.461336
853.094273	0.462003
853.281066	0.462738
853.467841	0.462677
853.654598	0.463127
853.841336	0.463068
854.028056	0.463222
854.214758	0.464190
854.401442	0.464453
854.588107	0.465117
854.774755	0.465713
854.961384	0.466331
855.147995	0.467234
855.334587	0.467661
855.521162	0.468613
855.707718	0.469641
855.894256	0.470176
856.080775	0.470968
856.267277	0.471471
856.453760	0.471671
856.640225	0.471965
856.826672	0.472391
857.013101	0.472819
857.199511	0.473659
857.385903	0.473850
857.572277	0.474193
857.758633	0.474590
857.944970	0.475160
858.131290	0.475978
858.317591	0.476354
858.503873	0.476959
858.690138	0.477642
858.876384	0.478276
859.062612	0.478973
859.248822	0.479679
859.435014	0.480201
859.621188	0.480598
859.807343	0.480771
859.993480	0.481578
860.179599	0.481860
860.365699	0.482034
860.551781	0.482322
860.737846	0.483138
860.923891	0.483584
861.109919	0.484431
861.295929	0.485324
861.481920	0.485795
861.667893	0.485906
861.853848	0.486889
862.039784	0.487520
862.225702	0.487910
862.411603	0.487961
862.597484	0.488469
862.783348	0.488831
862.969193	0.488798
863.155021	0.489253
863.340830	0.489933
863.526620	0.490008
863.712393	0.490379
863.898147	0.490446
864.083883	0.491040
864.269601	0.491878
864.455301	0.492458
864.640982	0.493436
864.826645	0.493644
865.012290	0.494192
865.197917	0.494717
865.383526	0.495321
865.569116	0.495776
865.754688	0.496070
865.940242	0.495625
866.125777	0.495232
866.311295	0.495191
866.496794	0.495812
866.682275	0.495978
866.867737	0.496537
867.053182	0.496716
867.238608	0.497422
867.424016	0.497824
867.609406	0.498487
867.794778	0.499282
867.980131	0.499257
868.165466	0.499300
868.350783	0.499865
868.536082	0.500485
868.721362	0.500708
868.906625	0.500913
869.091869	0.500712
869.277094	0.500879
869.462302	0.501236
869.647491	0.502255
869.832662	0.502403
870.017815	0.502296
870.202950	0.502078
870.388066	0.502799
870.573165	0.503139
870.758245	0.503612
870.943306	0.504332
871.128350	0.504456
871.313375	0.504207
871.498382	0.505296
871.683371	0.505802
871.868342	0.506417
872.053294	0.506796
872.238229	0.507124
872.423144	0.507545
872.608042	0.507296
872.792922	0.507830
872.977783	0.508212
873.162626	0.508297
873.347451	0.508300
873.532258	0.508330
873.717046	0.508744
873.901816	0.508644
874.086568	0.509045
874.271302	0.509936
874.456017	0.509804
874.640715	0.510391
874.825394	0.511021
875.010055	0.511586
875.194697	0.511974
875.379322	0.511648
875.563928	0.512083
875.748516	0.512213
875.933085	0.512363
876.117637	0.512920
876.302170	0.513158
876.486685	0.513095
876.671182	0.512969
876.855661	0.513510
877.040121	0.514423
877.224563	0.514485
877.408987	0.514863
877.593393	0.515066
877.777780	0.515172
877.962150	0.515286
878.146501	0.515655
878.330833	0.516690
878.515148	0.516597
878.699444	0.516826
878.883722	0.517296
879.067982	0.517643
879.252224	0.518375
879.436447	0.518513
879.620653	0.518821
879.804840	0.519456
879.989008	0.519304
880.173159	0.519291
880.357291	0.518758
880.541405	0.519477
880.725501	0.519275
880.909579	0.519779
881.093638	0.520385
881.277680	0.520700
881.461703	0.520772
881.645707	0.521549
881.829694	0.522135
882.013662	0.522928
882.197612	0.522827
882.381544	0.523588
882.565458	0.523222
882.749353	0.523832
882.933230	0.524098
883.117089	0.523797
883.300930	0.523142
883.484753	0.523297
883.668557	0.523411
883.852343	0.524707
884.036111	0.524612
884.219861	0.524315
884.403592	0.523717
884.587305	0.523733
884.771000	0.523914
884.954677	0.524388
885.138335	0.524433
885.321976	0.524414
885.505598	0.523059
885.689201	0.523605
885.872787	0.523044
886.056354	0.523183
886.239904	0.523369
886.423434	0.523576
886.606947	0.524028
886.790442	0.523910
886.973918	0.523463
887.157376	0.523741
887.340816	0.523149
887.524237	0.524312
887.707641	0.524307
887.891026	0.523858
888.074393	0.523474
888.257741	0.522602
888.441072	0.522241
888.624384	0.522068
888.807678	0.522097
888.990954	0.522071
889.174211	0.521610
889.357451	0.521879
889.540672	0.521645
889.723875	0.521462
889.907059	0.521559
890.090226	0.521931
890.273374	0.522357
890.456504	0.522195
890.639616	0.522259
890.822709	0.521759
891.005785	0.521573
891.188842	0.522311
891.371881	0.522555
891.554901	0.522359
891.737904	0.522437
891.920888	0.522929
892.103854	0.523031
892.286802	0.522794
892.469731	0.523338
892.652643	0.523248
892.835536	0.522762
893.018410	0.523037
893.201267	0.523109
893.384106	0.522690
893.566926	0.521592
893.749728	0.521907
893.932511	0.521486
894.115277	0.521093
894.298024	0.521093
894.480753	0.520583
894.663464	0.520789
894.846157	0.520552
895.028831	0.520652
895.211487	0.521361
895.394125	0.520544
895.576745	0.520703
895.759346	0.520444
895.941930	0.520458
896.124495	0.520604
896.307041	0.519829
896.489570	0.519788
896.672080	0.519955
896.854573	0.519358
897.037046	0.519603
897.219502	0.519188
897.401940	0.519414
897.584359	0.519634
897.766760	0.520061
897.949143	0.519790
898.131507	0.519724
898.313854	0.519188
898.496182	0.518692
898.678492	0.517956
898.860783	0.518586
899.043057	0.518438
899.225312	0.517276
899.407549	0.515749
899.589768	0.515402
899.771968	0.514640
899.954151	0.514164
900.136315	0.514075
900.318461	0.514013
900.500588	0.512828
900.682698	0.512504
900.864789	0.512844
901.046862	0.513198
901.228917	0.512518
901.410953	0.512103
901.592971	0.511304
901.774972	0.511334
901.956953	0.511214
902.138917	0.511121
902.320862	0.510775
902.502790	0.510138
902.684699	0.509704
902.866589	0.509454
903.048462	0.509106
903.230316	0.508695
903.412152	0.507983
903.593970	0.508223
903.775770	0.508226
903.957551	0.507258
904.139314	0.505945
904.321059	0.505661
904.502786	0.505248
904.684494	0.505077
904.866185	0.505276
905.047857	0.503821
905.229510	0.502165
905.411146	0.500742
905.592763	0.500584
905.774363	0.500758
905.955943	0.500266
906.137506	0.500341
906.319051	0.499738
906.500577	0.499454
906.682085	0.500341
906.863575	0.500534
907.045046	0.500542
907.226500	0.499625
907.407935	0.498799
907.589352	0.498188
907.770750	0.497647
907.952131	0.497463
908.133493	0.496526
908.314837	0.495656
908.496163	0.494953
908.677470	0.494533
908.858760	0.493969
909.040031	0.493648
909.221284	0.492830
909.402518	0.492261
909.583735	0.492135
909.764933	0.491649
909.946113	0.490643
910.127275	0.489230
910.308418	0.488901
910.489544	0.488845
910.670651	0.488413
910.851740	0.487984
911.032810	0.486636
911.213863	0.485026
911.394897	0.484277
911.575913	0.484116
911.756911	0.483502
911.937890	0.481522
912.118851	0.480814
912.299794	0.480252
912.480719	0.479333
912.661626	0.479344
912.842514	0.479085
913.023384	0.478692
913.204236	0.477499
913.385070	0.477411
913.565886	0.477215
913.746683	0.476783
913.927462	0.476036
914.108223	0.476543
914.288965	0.475035
914.469690	0.475016
914.650396	0.474307
914.831084	0.474649
915.011754	0.473942
915.192405	0.474081
915.373038	0.473401
915.553653	0.472494
915.734250	0.470825
915.914829	0.470577
916.095389	0.469191
916.275931	0.467548
916.456455	0.466050
916.636961	0.465137
916.817448	0.464264
916.997917	0.463131
917.178368	0.462143
917.358801	0.461291
917.539216	0.460646
917.719612	0.459268
917.899990	0.459330
918.080350	0.459101
918.260692	0.458405
918.441015	0.457644
918.621320	0.456606
918.801607	0.456360
918.981876	0.455632
919.162127	0.455106
919.342359	0.454998
919.522573	0.453965
919.702769	0.452335
919.882947	0.451283
920.063106	0.450141
920.243247	0.449926
920.423370	0.448448
920.603475	0.448251
920.783562	0.447297
920.963630	0.445511
921.143680	0.444707
921.323712	0.443844
921.503725	0.443508
921.683721	0.442927
921.863698	0.440801
922.043657	0.440763
922.223598	0.439267
922.403520	0.438424
922.583424	0.438268
922.763311	0.437249
922.943178	0.436962
923.123028	0.435989
923.302859	0.434860
923.482673	0.434254
923.662467	0.432852
923.842244	0.432312
924.022003	0.431180
924.201743	0.429813
924.381465	0.428665
924.561169	0.426901
924.740854	0.425800
924.920522	0.423902
925.100171	0.423653
925.279802	0.422524
925.459414	0.421257
925.639009	0.420314
925.818585	0.419715
925.998143	0.418729
926.177683	0.418430
926.357205	0.417995
926.536708	0.418368
926.716193	0.416815
926.895660	0.415278
927.075109	0.414602
927.254539	0.413049
927.433951	0.411887
927.613345	0.411369
927.792721	0.409470
927.972079	0.407261
928.151418	0.405691
928.330739	0.405047
928.510042	0.404792
928.689327	0.403355
928.868593	0.402187
929.047841	0.401798
929.227071	0.399890
929.406283	0.400024
929.585476	0.399634
929.764652	0.399283
929.943809	0.398314
930.122948	0.396430
930.302068	0.396012
930.481171	0.395999
930.660255	0.394700
930.839321	0.394614
931.018369	0.393145
931.197398	0.391934
931.376409	0.389768
931.555402	0.388951
931.734377	0.389279
931.913334	0.387459
932.092272	0.386305
932.271192	0.384724
932.450094	0.384425
932.628978	0.383915
932.807844	0.382098
932.986691	0.381438
933.165520	0.381093
933.344331	0.377924
933.523123	0.377450
933.701898	0.375656
933.880654	0.373818
934.059392	0.371114
934.238111	0.368896
934.416813	0.368513
934.595496	0.366727
934.774161	0.364601
934.952808	0.364865
935.131437	0.363155
935.310047	0.361636
935.488639	0.362056
935.667213	0.361195
935.845769	0.360251
936.024306	0.358537
936.202825	0.358140
936.381326	0.356312
936.559809	0.353906
936.738274	0.352334
936.916720	0.351354
937.095148	0.349023
937.273558	0.348838
937.451950	0.348316
937.630323	0.346359
937.808678	0.344650
937.987015	0.343630
938.165334	0.343654
938.343635	0.342393
938.521917	0.342221
938.700181	0.341453
938.878427	0.339419
939.056655	0.337606
939.234864	0.337665
939.413055	0.336465
939.591228	0.334746
939.769383	0.332500
939.947519	0.332015
940.125638	0.329984
940.303738	0.329445
940.481820	0.327523
940.659883	0.326397
940.837929	0.323622
941.015956	0.322876
941.193965	0.321253
941.371955	0.321560
941.549928	0.319921
941.727882	0.318483
941.905818	0.315868
942.083736	0.314953
942.261636	0.313367
942.439517	0.311939
942.617380	0.309582
942.795225	0.310188
942.973052	0.306919
943.150860	0.306039
943.328651	0.305449
943.506423	0.305621
943.684176	0.304269
943.861912	0.301420
944.039629	0.301669
944.217328	0.301705
944.395009	0.298780
944.572672	0.298838
944.750317	0.296057
944.927943	0.292955
945.105551	0.290684
945.283141	0.290426
945.460712	0.290819
945.638265	0.288546
945.815801	0.287009
945.993317	0.285631
946.170816	0.284030
946.348297	0.284301
946.525759	0.282639
946.703203	0.281948
946.880629	0.277909
947.058036	0.277266
947.235425	0.276497
947.412797	0.273635
947.590149	0.271266
947.767484	0.269725
947.944800	0.268752
948.122099	0.268115
948.299379	0.266316
948.476640	0.265956
948.653884	0.262617
948.831109	0.262752
949.008316	0.261499
949.185505	0.260872
949.362676	0.259122
949.539828	0.257204
949.716962	0.256766
949.894078	0.255896
950.071176	0.255980
950.248256	0.256914
950.425317	0.255568
950.602360	0.254136
950.779385	0.253357
950.956391	0.253177
951.133380	0.249213
951.310350	0.249370
951.487302	0.247725
951.664235	0.244655
951.841151	0.242774
952.018048	0.241397
952.194927	0.240024
952.371788	0.238403
952.548631	0.235656
952.725455	0.234556
952.902261	0.230660
953.079049	0.227114
953.255819	0.225469
953.432570	0.223066
953.609303	0.220384
953.786018	0.220512
953.962715	0.220707
954.139394	0.218510
954.316054	0.219893
954.492696	0.220196
954.669320	0.221324
954.845926	0.221083
955.022513	0.222943
955.199083	0.223247
955.375634	0.223865
955.552166	0.224207
955.728681	0.225559
955.905177	0.223360
956.081655	0.222215
956.258115	0.220393
956.434557	0.220252
956.610980	0.215264
956.787385	0.213900
956.963772	0.213407
957.140141	0.209112
957.316492	0.208856
957.492824	0.206802
957.669138	0.203403
957.845434	0.202479
958.021712	0.201041
958.197971	0.201550
958.374212	0.200396
958.550435	0.197099
958.726640	0.198152
958.902826	0.195076
959.078995	0.197278
959.255145	0.196870
959.431277	0.196179
959.607390	0.195145
959.783486	0.194737
959.959563	0.192348
960.135622	0.192210
960.311662	0.190322
960.487685	0.191849
960.663689	0.189261
960.839675	0.191128
961.015643	0.190509
961.191593	0.190665
961.367524	0.192095
961.543437	0.193002
961.719332	0.193030
961.895209	0.191952
962.071067	0.190258
962.246907	0.191554
962.422730	0.192346
962.598533	0.193798
962.774319	0.192152
962.950086	0.190406
963.125835	0.191680
963.301566	0.189773
963.477279	0.191095
963.652973	0.191004
963.828650	0.190746
964.004308	0.187575
964.179947	0.184969
964.355569	0.185573
964.531172	0.184632
964.706757	0.185402
964.882324	0.185062
965.057873	0.183789
965.233403	0.183400
965.408916	0.182540
965.584410	0.181795
965.759885	0.182706
965.935343	0.182196
966.110782	0.181013
966.286203	0.175243
966.461606	0.175590
966.636991	0.174607
966.812357	0.175168
966.987705	0.176795
967.163035	0.178183
967.338347	0.180681
967.513641	0.182034
967.688916	0.183725
967.864173	0.187763
968.039412	0.188158
968.214632	0.190949
968.389835	0.191990
968.565019	0.189441
968.740185	0.189856
968.915333	0.188466
969.090462	0.185367
969.265573	0.185348
969.440667	0.184415
969.615741	0.184015
969.790798	0.183113
969.965836	0.182506
970.140856	0.184182
970.315858	0.183143
970.490842	0.181490
970.665808	0.184900
970.840755	0.183674
971.015684	0.182578
971.190595	0.180591
971.365487	0.180133
971.540362	0.180606
971.715218	0.177663
971.890056	0.176795
972.064875	0.175761
972.239677	0.174097
972.414460	0.174123
972.589225	0.173507
972.763972	0.176137
972.938700	0.174530
973.113411	0.174178
973.288103	0.175824
973.462777	0.176128
973.637432	0.177756
973.812070	0.176517
973.986689	0.176482
974.161290	0.176739
974.335873	0.174469
974.510437	0.176710
974.684984	0.175225
974.859512	0.173328
975.034022	0.173660
975.208513	0.174092
975.382987	0.176099
975.557442	0.175597
975.731879	0.175692
975.906298	0.177117
976.080698	0.177804
976.255080	0.180356
976.429445	0.180593
976.603790	0.184408
976.778118	0.184078
976.952427	0.184361
977.126719	0.187003
977.300992	0.189397
977.475246	0.189393
977.649483	0.186388
977.823701	0.182960
977.997901	0.182676
978.172083	0.179418
978.346247	0.179233
978.520392	0.178368
978.694519	0.176724
978.868628	0.176904
979.042719	0.179257
979.216791	0.182721
979.390845	0.185235
979.564882	0.187367
979.738899	0.188317
979.912899	0.186111
980.086880	0.184978
980.260843	0.186478
980.434788	0.180931
980.608715	0.179126
980.782623	0.175780
980.956514	0.174529
981.130386	0.173127
981.304240	0.173175
981.478075	0.174031
981.651892	0.174018
981.825692	0.172108
981.999472	0.174029
982.173235	0.171375
982.346980	0.171500
982.520706	0.168706
982.694414	0.168189
982.868104	0.165960
983.041775	0.166035
983.215428	0.166982
983.389064	0.165780
983.562680	0.168418
983.736279	0.169924
983.909860	0.171487
984.083422	0.171385
984.256966	0.170680
984.430491	0.171862
984.603999	0.172293
984.777488	0.171513
984.950959	0.172918
985.124412	0.171922
985.297847	0.172262
985.471263	0.171001
985.644661	0.173119
985.818041	0.173545
985.991403	0.173820
986.164747	0.176062
986.338072	0.175869
986.511379	0.175726
986.684668	0.174900
986.857938	0.176974
987.031191	0.178665
987.204425	0.176308
987.377641	0.177777
987.550839	0.178930
987.724018	0.178239
987.897179	0.177758
988.070322	0.177271
988.243447	0.178193
988.416554	0.177200
988.589642	0.175454
988.762712	0.178600
988.935764	0.179447
989.108798	0.177138
989.281813	0.173927
989.454811	0.175660
989.627790	0.174853
989.800751	0.174957
989.973693	0.172589
990.146617	0.176271
990.319524	0.176168
990.492412	0.174859
990.665281	0.175570
990.838133	0.176846
991.010966	0.177360
991.183781	0.179967
991.356578	0.181218
991.529356	0.181373
991.702117	0.177985
991.874859	0.177176
992.047583	0.177161
992.220288	0.179037
992.392976	0.178642
992.565645	0.177344
992.738296	0.177092
992.910929	0.176089
993.083543	0.175071
993.256139	0.173729
993.428718	0.172007
993.601277	0.173856
993.773819	0.172481
993.946342	0.176256
994.118848	0.178030
994.291335	0.178199
994.463803	0.179518
994.636254	0.182542
994.808686	0.185282
994.981100	0.188009
995.153496	0.186467
995.325874	0.185211
995.498233	0.183172
995.670574	0.179803
995.842897	0.177492
996.015202	0.176839
996.187488	0.175903
996.359757	0.175068
996.532007	0.174789
996.704239	0.176545
996.876452	0.177238
997.048648	0.176021
997.220825	0.176660
997.392984	0.177834
997.565124	0.176141
997.737247	0.178708
997.909351	0.178088
998.081437	0.176857
998.253505	0.175267
998.425554	0.177259
998.597586	0.178303
998.769599	0.181218
998.941594	0.180631
999.113571	0.181697
999.285529	0.179448
999.457469	0.180134
999.629391	0.180510
999.801295	0.180495
999.973181	0.179486
1000.145048	0.178471
1000.316897	0.175989
1000.488728	0.175998
1000.660541	0.176263
1000.832335	0.177718
1001.004111	0.175871
1001.175869	0.176970
1001.347609	0.178136
1001.519331	0.178837
1001.691034	0.178440
1001.862719	0.180997
1002.034386	0.180946
1002.206035	0.179909
1002.377665	0.179494
1002.549277	0.181494
1002.720871	0.180002
1002.892447	0.179085
1003.064004	0.180188
1003.235544	0.182162
1003.407065	0.182226
1003.578568	0.182009
1003.750052	0.182911
1003.921519	0.181993
1004.092967	0.183252
1004.264397	0.183892
1004.435809	0.184122
1004.607202	0.183887
1004.778577	0.181955
1004.949934	0.180444
1005.121273	0.180198
1005.292594	0.180248
1005.463896	0.180604
1005.635180	0.179822
1005.806446	0.180358
1005.977694	0.180319
1006.148923	0.178859
1006.320135	0.179075
1006.491328	0.178520
1006.662503	0.178787
1006.833659	0.178868
1007.004798	0.180464
1007.175918	0.180633
1007.347020	0.180757
1007.518103	0.180214
1007.689169	0.180182
1007.860216	0.180783
1008.031245	0.179681
1008.202256	0.181216
1008.373248	0.181228
1008.544223	0.179782
1008.715179	0.179367
1008.886117	0.178772
1009.057036	0.178302
1009.227938	0.178308
1009.398821	0.177206
1009.569686	0.179462
1009.740533	0.179362
1009.911361	0.178533
1010.082172	0.176969
1010.252964	0.176645
1010.423738	0.177711
1010.594493	0.179162
1010.765231	0.178626
1010.935950	0.179406
1011.106651	0.178282
1011.277334	0.178207
1011.447998	0.179628
1011.618645	0.180621
1011.789273	0.180000
1011.959882	0.178979
1012.130474	0.179712
1012.301048	0.180212
1012.471603	0.179757
1012.642140	0.180549
1012.812658	0.179328
1012.983159	0.180429
1013.153641	0.180386
1013.324105	0.179452
1013.494551	0.180974
1013.664979	0.179191
1013.835388	0.178186
1014.005779	0.178672
1014.176152	0.178127
1014.346507	0.179709
1014.516843	0.177550
1014.687162	0.176543
1014.857462	0.178122
1015.027744	0.177873
1015.198007	0.177909
1015.368252	0.176359
1015.538480	0.178217
1015.708689	0.177834
1015.878879	0.177320
1016.049052	0.177125
1016.219206	0.179017
1016.389342	0.179196
1016.559460	0.178556
1016.729559	0.179216
1016.899641	0.181033
1017.069704	0.179492
1017.239749	0.179287
1017.409775	0.177652
1017.579784	0.177655
1017.749774	0.177749
1017.919746	0.178663
1018.089700	0.177533
1018.259635	0.179016
1018.429553	0.178404
1018.599452	0.178201
1018.769333	0.179126
1018.939195	0.180494
1019.109040	0.181116
1019.278866	0.181003
1019.448674	0.180876
1019.618464	0.181287
1019.788235	0.179123
1019.957989	0.179149
1020.127724	0.181275
1020.297441	0.182063
1020.467139	0.182844
1020.636820	0.183437
1020.806482	0.182484
1020.976126	0.181141
1021.145752	0.182151
1021.315359	0.183113
1021.484948	0.185324
1021.654519	0.183965
1021.824072	0.183656
1021.993607	0.182261
1022.163123	0.180490
1022.332621	0.181552
1022.502101	0.183072
1022.671563	0.181753
1022.841007	0.182436
1023.010432	0.182127
1023.179839	0.180480
1023.349228	0.179894
1023.518598	0.179613
1023.687951	0.179620
1023.857285	0.178323
1024.026601	0.177382
1024.195899	0.177303
1024.365178	0.174577
1024.534439	0.174742
1024.703682	0.176028
1024.872907	0.176547
1025.042114	0.178219
1025.211302	0.178797
1025.380472	0.180728
1025.549624	0.180583
1025.718758	0.182373
1025.887873	0.182742
1026.056970	0.181457
1026.226049	0.181339
1026.395110	0.179363
1026.564153	0.177696
1026.733177	0.179045
1026.902183	0.177546
1027.071171	0.178707
1027.240141	0.176972
1027.409092	0.177962
1027.578026	0.177367
1027.746940	0.176390
1027.915837	0.176858
1028.084716	0.178303
1028.253576	0.177208
1028.422418	0.176928
1028.591242	0.174831
1028.760048	0.175168
1028.928835	0.175748
1029.097604	0.175881
1029.266355	0.175870
1029.435088	0.177132
1029.603803	0.177521
1029.772499	0.177906
1029.941177	0.178005
1030.109837	0.180018
1030.278478	0.181289
1030.447102	0.181490
1030.615707	0.180179
1030.784294	0.181345
1030.952863	0.180823
1031.121413	0.180937
1031.289945	0.180104
1031.458460	0.182571
1031.626955	0.181364
1031.795433	0.182247
1031.963892	0.181743
1032.132334	0.184159
1032.300756	0.183951
1032.469161	0.183911
1032.637548	0.183087
1032.805916	0.184392
1032.974266	0.180148
1033.142598	0.179649
1033.310911	0.177243
1033.479207	0.176309
1033.647484	0.175267
1033.815743	0.175024
1033.983983	0.175699
1034.152206	0.173596
1034.320410	0.173824
1034.488596	0.177125
1034.656764	0.179031
1034.824914	0.177865
1034.993045	0.178919
1035.161158	0.179804
1035.329253	0.179704
1035.497330	0.177153
1035.665388	0.178676
1035.833428	0.177592
1036.001450	0.176735
1036.169454	0.173062
1036.337440	0.173731
1036.505407	0.171994
1036.673356	0.172466
1036.841287	0.173261
1037.009200	0.175284
1037.177094	0.173919
1037.344970	0.174483
1037.512828	0.173502
1037.680668	0.175762
1037.848489	0.175693
1038.016293	0.176694
1038.184078	0.175880
1038.351845	0.174212
1038.519593	0.173739
1038.687324	0.175098
1038.855036	0.176329
1039.022730	0.175935
1039.190406	0.175574
1039.358063	0.177321
1039.525702	0.178018
1039.693323	0.177630
1039.860926	0.179842
1040.028511	0.181646
1040.196077	0.182771
1040.363625	0.179815
1040.531155	0.180291
1040.698667	0.180711
1040.866161	0.181331
1041.033636	0.180189
1041.201093	0.179100
1041.368532	0.177510
1041.535952	0.176835
1041.703355	0.175910
1041.870739	0.177016
1042.038105	0.177355
1042.205452	0.176370
1042.372782	0.175424
1042.540093	0.177043
1042.707386	0.176514
1042.874661	0.177227
1043.041918	0.177985
1043.209156	0.178744
1043.376376	0.178240
1043.543578	0.178027
1043.710762	0.179137
1043.877927	0.179064
1044.045074	0.177285
1044.212203	0.180816
1044.379314	0.180396
1044.546407	0.180108
1044.713481	0.178581
1044.880537	0.178935
1045.047575	0.178947
1045.214595	0.179198
1045.381596	0.177618
1045.548579	0.178057
1045.715544	0.176637
1045.882491	0.177351
1046.049420	0.174054
1046.216330	0.176284
1046.383222	0.178025
1046.550096	0.178687
1046.716951	0.178246
1046.883789	0.178463
1047.050608	0.177310
1047.217409	0.174942
1047.384192	0.175596
1047.550956	0.179444
1047.717703	0.176674
1047.884431	0.177299
1048.051140	0.176317
1048.217832	0.176500
1048.384505	0.176568
1048.551161	0.179752
1048.717798	0.181194
1048.884416	0.180554
1049.051017	0.180420
1049.217599	0.181526
1049.384163	0.178853
1049.550709	0.179928
1049.717237	0.178515
1049.883746	0.179145
1050.050237	0.178103
1050.216710	0.179450
1050.383165	0.180742
1050.549601	0.180020
1050.716019	0.180584
1050.882420	0.180618
1051.048801	0.181510
1051.215165	0.183746
1051.381510	0.184581
1051.547837	0.184948
1051.714146	0.181926
1051.880437	0.178622
1052.046709	0.177309
1052.212964	0.177011
1052.379200	0.178132
1052.545417	0.179653
1052.711617	0.177944
1052.877798	0.176459
1053.043961	0.173811
1053.210106	0.177718
1053.376233	0.179900
1053.542341	0.181131
1053.708432	0.180609
1053.874504	0.179886
1054.040557	0.175743
1054.206593	0.177090
1054.372610	0.179225
1054.538609	0.180845
1054.704590	0.180502
1054.870553	0.177299
1055.036497	0.176074
1055.202424	0.176839
1055.368331	0.177298
1055.534221	0.178357
1055.700093	0.178366
1055.865946	0.178418
1056.031781	0.177312
1056.197598	0.178826
1056.363397	0.181102
1056.529177	0.182067
1056.694939	0.182083
1056.860683	0.180348
1057.026409	0.182004
1057.192116	0.183117
1057.357806	0.180705
1057.523477	0.181340
1057.689130	0.179527
1057.854764	0.178902
1058.020381	0.178268
1058.185979	0.178935
1058.351559	0.180293
1058.517120	0.178934
1058.682664	0.175949
1058.848189	0.178128
1059.013696	0.177981
1059.179185	0.176363
1059.344656	0.175335
1059.510108	0.174810
1059.675542	0.176235
1059.840958	0.174585
1060.006356	0.174708
1060.171735	0.174310
1060.337096	0.173381
1060.502439	0.173918
1060.667764	0.173777
1060.833071	0.178916
1060.998359	0.178682
1061.163629	0.176243
1061.328881	0.177789
1061.494115	0.177510
1061.659330	0.180866
1061.824527	0.181555
1061.989706	0.181213
1062.154867	0.185356
1062.320010	0.183823
1062.485134	0.183764
1062.650240	0.181434
1062.815328	0.181987
1062.980398	0.182129
1063.145449	0.177490
1063.310482	0.176578
1063.475497	0.176460
1063.640494	0.173486
1063.805473	0.171908
1063.970433	0.171886
1064.135375	0.174234
1064.300299	0.174081
1064.465204	0.175179
1064.630092	0.177745
1064.794961	0.180140
1064.959812	0.181211
1065.124645	0.181232
1065.289459	0.183324
1065.454256	0.187760
1065.619034	0.187513
1065.783793	0.190126
1065.948535	0.187695
1066.113258	0.187750
1066.277964	0.185384
1066.442651	0.185729
1066.607319	0.182283
1066.771970	0.181860
1066.936602	0.177246
1067.101216	0.176595
1067.265812	0.175026
1067.430389	0.176313
1067.594949	0.175929
1067.759490	0.175282
1067.924013	0.175582
1068.088518	0.178460
1068.253004	0.178153
1068.417472	0.179966
1068.581922	0.182744
1068.746354	0.182957
1068.910768	0.184541
1069.075163	0.184222
1069.239540	0.185472
1069.403899	0.185459
1069.568240	0.184507
1069.732562	0.181611
1069.896866	0.180505
1070.061152	0.178448
1070.225420	0.176971
1070.389670	0.176968
1070.553901	0.179693
1070.718114	0.180308
1070.882309	0.178628
1071.046486	0.179578
1071.210644	0.180839
1071.374784	0.180687
1071.538906	0.181152
1071.703010	0.183676
1071.867096	0.182062
1072.031163	0.182631
1072.195212	0.183345
1072.359243	0.183400
1072.523256	0.184072
1072.687250	0.181125
1072.851226	0.183384
1073.015184	0.183420
1073.179124	0.178956
1073.343045	0.178277
1073.506949	0.177719
1073.670834	0.177854
1073.834701	0.179169
1073.998549	0.180251
1074.162380	0.183126
1074.326192	0.185074
1074.489986	0.186500
1074.653761	0.188582
1074.817519	0.190146
1074.981258	0.189227
1075.144979	0.188016
1075.308682	0.184441
1075.472367	0.184159
1075.636033	0.187934
1075.799681	0.185448
1075.963311	0.183309
1076.126923	0.181620
1076.290516	0.182091
1076.454092	0.183414
1076.617649	0.185621
1076.781187	0.191558
1076.944708	0.190991
1077.108210	0.191553
1077.271695	0.192058
1077.435160	0.192657
1077.598608	0.193671
1077.762038	0.193566
1077.925449	0.194781
1078.088842	0.195881
1078.252217	0.191629
1078.415573	0.192766
1078.578912	0.190234
1078.742232	0.188227
1078.905534	0.189494
1079.068817	0.190184
1079.232083	0.191983
1079.395330	0.191774
1079.558559	0.190702
1079.721770	0.193613
1079.884962	0.192801
1080.048136	0.191906
1080.211293	0.192728
1080.374430	0.193326
1080.537550	0.195900
1080.700651	0.193957
1080.863735	0.190092
1081.026800	0.187422
1081.189846	0.184265
1081.352875	0.183014
1081.515885	0.182214
1081.678877	0.182082
1081.841851	0.181824
1082.004807	0.178961
1082.167744	0.178911
1082.330663	0.178173
1082.493564	0.176851
1082.656447	0.181800
1082.819312	0.183417
1082.982158	0.184599
1083.144986	0.186561
1083.307796	0.185703
1083.470587	0.187403
1083.633361	0.189913
1083.796116	0.190434
1083.958853	0.194661
1084.121571	0.195827
1084.284272	0.197536
1084.446954	0.198135
1084.609618	0.199212
1084.772264	0.199605
1084.934892	0.200970
1085.097501	0.200833
1085.260092	0.203464
1085.422665	0.203170
1085.585220	0.198618
1085.747756	0.197067
1085.910274	0.197617
1086.072774	0.195115
1086.235256	0.195243
1086.397720	0.194339
1086.560165	0.192900
1086.722592	0.192447
1086.885001	0.191321
1087.047392	0.191085
1087.209764	0.193715
1087.372119	0.190921
1087.534455	0.190646
1087.696772	0.189525
1087.859072	0.186343
1088.021353	0.187259
1088.183616	0.187222
1088.345861	0.188562
1088.508088	0.188500
1088.670296	0.186488
1088.832486	0.190800
1088.994658	0.191777
1089.156812	0.194052
1089.318948	0.197735
1089.481065	0.197205
1089.643164	0.195223
1089.805245	0.194431
1089.967308	0.196133
1090.129352	0.193918
1090.291378	0.192282
1090.453386	0.193180
1090.615376	0.192546
1090.777347	0.188122
1090.939301	0.187484
1091.101236	0.188167
1091.263153	0.185995
1091.425051	0.182487
1091.586932	0.186638
1091.748794	0.184676
1091.910638	0.181936
1092.072463	0.182496
1092.234271	0.183754
1092.396060	0.185704
1092.557831	0.189838
1092.719584	0.190682
1092.881319	0.194277
1093.043035	0.194007
1093.204733	0.194313
1093.366413	0.198574
1093.528075	0.197861
1093.689718	0.201756
1093.851343	0.197285
1094.012950	0.195557
1094.174539	0.197675
1094.336110	0.196788
1094.497662	0.197058
1094.659196	0.195276
1094.820712	0.195627
1094.982210	0.197889
1095.143689	0.196586
1095.305151	0.198637
1095.466594	0.196769
1095.628018	0.194678
1095.789425	0.198039
1095.950813	0.196715
1096.112183	0.201580
1096.273535	0.197504
1096.434869	0.192912
1096.596184	0.190974
1096.757482	0.191810
1096.918761	0.190102
1097.080021	0.194276
1097.241264	0.189784
1097.402488	0.189064
1097.563694	0.189368
1097.724882	0.190440
1097.886052	0.190356
1098.047203	0.192393
1098.208336	0.191977
1098.369451	0.190160
1098.530548	0.183831
1098.691627	0.186977
1098.852687	0.187779
1099.013729	0.185734
1099.174753	0.191674
1099.335758	0.194495
1099.496746	0.198635
1099.657715	0.198364
1099.818666	0.201649
1099.979599	0.202303
1100.140513	0.204356
1100.301409	0.208599
1100.462287	0.204648
1100.623147	0.196179
1100.783989	0.194661
1100.944812	0.192367
1101.105617	0.188306
1101.266404	0.190642
1101.427173	0.191926
1101.587923	0.188863
1101.748656	0.185488
1101.909370	0.191480
1102.070066	0.195050
1102.230743	0.196328
1102.391403	0.193803
1102.552044	0.196850
1102.712667	0.196256
1102.873271	0.196968
1103.033858	0.200433
1103.194426	0.198498
1103.354976	0.196217
1103.515508	0.200200
1103.676021	0.201413
1103.836517	0.204227
1103.996994	0.204070
1104.157453	0.203614
1104.317893	0.206271
1104.478316	0.200008
1104.638720	0.200152
1104.799106	0.202405
1104.959474	0.197130
1105.119823	0.195487
1105.280155	0.194506
1105.440468	0.195551
1105.600763	0.194237
1105.761039	0.190823
1105.921298	0.198521
1106.081538	0.198487
1106.241760	0.196101
1106.401964	0.194675
1106.562149	0.199046
1106.722316	0.197972
1106.882465	0.199746
1107.042596	0.202598
1107.202709	0.208667
1107.362803	0.203915
1107.522879	0.204777
1107.682937	0.208213
1107.842977	0.213857
1108.002999	0.206051
1108.163002	0.207127
1108.322987	0.207791
1108.482954	0.209897
1108.642902	0.204201
1108.802833	0.201519
1108.962745	0.201054
1109.122639	0.194398
1109.282515	0.190474
1109.442372	0.191477
1109.602211	0.193020
1109.762032	0.194095
1109.921835	0.187542
1110.081620	0.189175
1110.241386	0.191912
1110.401134	0.195935
1110.560864	0.201137
1110.720576	0.199649
1110.880269	0.209540
1111.039945	0.214433
1111.199602	0.211713
1111.359240	0.212052
1111.518861	0.215686
1111.678463	0.214613
1111.838047	0.214085
1111.997613	0.215910
1112.157161	0.223616
1112.316690	0.214086
1112.476202	0.209490
1112.635695	0.209355
1112.795169	0.218216
1112.954626	0.218481
1113.114064	0.220286
1113.273484	0.218641
1113.432886	0.217831
1113.592270	0.212525
1113.751635	0.215100
1113.910983	0.211783
1114.070312	0.215037
1114.229622	0.206966
1114.388915	0.197940
1114.548189	0.197826
1114.707445	0.195376
1114.866683	0.195756
1115.025903	0.195348
1115.185104	0.193837
1115.344287	0.191057
1115.503452	0.192269
1115.662599	0.194086
1115.821727	0.202443
1115.980838	0.203901
1116.139930	0.204322
1116.299004	0.204514
1116.458059	0.204507
1116.617097	0.211357
1116.776116	0.212513
1116.935117	0.207776
1117.094099	0.207994
1117.253064	0.200365
1117.412010	0.201225
1117.570938	0.207101
1117.729848	0.208381
1117.888740	0.211320
1118.047613	0.208237
1118.206468	0.213228
1118.365305	0.214572
1118.524124	0.225348
1118.682924	0.223437
1118.841707	0.219686
1119.000471	0.214524
1119.159216	0.212702
1119.317944	0.212577
1119.476653	0.213108
1119.635344	0.210748
1119.794017	0.213859
1119.952672	0.213059
1120.111308	0.226401
1120.269927	0.234307
1120.428527	0.225363
1120.587108	0.227302
1120.745672	0.231298
1120.904217	0.227894
1121.062744	0.232908
1121.221253	0.225170
1121.379744	0.217267
1121.538216	0.212334
1121.696671	0.203605
1121.855107	0.210201
1122.013524	0.204059
1122.171924	0.193782
1122.330305	0.201691
1122.488668	0.199616
1122.647013	0.202687
1122.805340	0.202368
1122.963648	0.201766
1123.121938	0.205316
1123.280210	0.203809
1123.438464	0.213143
1123.596700	0.222825
1123.754917	0.213078
1123.913116	0.212984
1124.071297	0.215244
1124.229459	0.224477
1124.387604	0.222493
1124.545730	0.228728
1124.703838	0.235346
1124.861928	0.224573
1125.019999	0.219988
1125.178052	0.229907
1125.336088	0.230264
1125.494104	0.229268
1125.652103	0.220837
1125.810083	0.217167
1125.968045	0.211582
1126.125989	0.209199
1126.283915	0.213876
1126.441823	0.211728
1126.599712	0.208970
1126.757583	0.205618
1126.915436	0.213796
1127.073270	0.224112
1127.231087	0.233915
1127.388885	0.232502
1127.546665	0.234399
1127.704426	0.230775
1127.862170	0.235735
1128.019895	0.232407
1128.177602	0.239564
1128.335291	0.231088
1128.492961	0.217267
1128.650614	0.210445
1128.808248	0.212370
1128.965864	0.213251
1129.123461	0.213134
1129.281041	0.216370
1129.438602	0.218592
1129.596145	0.206450
1129.753670	0.209259
1129.911176	0.215925
1130.068665	0.216146
1130.226135	0.208323
1130.383587	0.203057
1130.541020	0.205923
1130.698436	0.204474
1130.855833	0.205817
1131.013212	0.216685
1131.170573	0.217383
1131.327915	0.219973
1131.485239	0.216427
1131.642545	0.226663
1131.799833	0.229986
1131.957103	0.227321
1132.114354	0.235348
1132.271588	0.227874
1132.428803	0.227368
1132.585999	0.225191
1132.743178	0.221997
1132.900338	0.224097
1133.057480	0.220640
1133.214604	0.222493
1133.371710	0.227724
1133.528797	0.211833
1133.685866	0.221059
1133.842917	0.218475
1133.999950	0.214870
1134.156964	0.218700
1134.313960	0.217131
1134.470938	0.219190
1134.627898	0.221898
1134.784840	0.219445
1134.941763	0.223362
1135.098668	0.215732
1135.255555	0.227944
1135.412424	0.237768
1135.569274	0.233088
1135.726107	0.245276
1135.882921	0.245126
1136.039716	0.237142
1136.196494	0.242134
1136.353253	0.241731
1136.509995	0.242553
1136.666717	0.232121
1136.823422	0.223418
1136.980109	0.221676
1137.136777	0.206820
1137.293427	0.198438
1137.450059	0.199860
1137.606672	0.190312
1137.763267	0.194261
1137.919844	0.187378
1138.076403	0.182398
1138.232944	0.182812
1138.389466	0.174712
1138.545971	0.191354
1138.702457	0.208630
1138.858924	0.201569
1139.015374	0.205456
1139.171805	0.193489
1139.328218	0.199277
1139.484613	0.202786
1139.640990	0.201001
1139.797348	0.205760
1139.953688	0.203372
1140.110010	0.195217
1140.266314	0.208928
1140.422600	0.207993
1140.578867	0.212518
1140.735116	0.219432
1140.891347	0.217297
1141.047559	0.219699
1141.203754	0.227578
1141.359930	0.222978
1141.516088	0.210162
1141.672228	0.209457
1141.828349	0.218041
1141.984452	0.217001
1142.140537	0.214592
1142.296604	0.216011
1142.452653	0.216071
1142.608683	0.197904
1142.764695	0.194918
1142.920689	0.210660
1143.076665	0.201133
1143.232622	0.197467
1143.388562	0.211734
1143.544483	0.201097
1143.700385	0.200258
1143.856270	0.199205
1144.012136	0.216258
1144.167985	0.211475
1144.323814	0.209131
1144.479626	0.210440
1144.635420	0.209281
1144.791195	0.200857
1144.946952	0.208075
1145.102691	0.210093
1145.258411	0.205970
1145.414113	0.203782
1145.569798	0.198040
1145.725463	0.201712
1145.881111	0.197344
1146.036741	0.199953
1146.192352	0.204210
1146.347945	0.199121
1146.503519	0.194323
1146.659076	0.201587
1146.814614	0.197957
1146.970134	0.215503
1147.125636	0.209307
1147.281120	0.224904
1147.436585	0.220856
1147.592032	0.226755
1147.747461	0.233351
1147.902872	0.230059
1148.058265	0.234063
1148.213639	0.241138
1148.368995	0.230115
1148.524333	0.219672
1148.679653	0.221223
1148.834954	0.229738
1148.990237	0.225364
1149.145502	0.234578
1149.300749	0.236337
1149.455977	0.241617
1149.611188	0.235188
1149.766380	0.243243
1149.921553	0.246633
1150.076709	0.227745
1150.231846	0.217121
1150.386966	0.209211
1150.542066	0.191987
1150.697149	0.193283
1150.852214	0.187849
1151.007260	0.193686
1151.162288	0.198860
1151.317298	0.209096
1151.472289	0.214766
1151.627263	0.207476
1151.782218	0.210477
1151.937155	0.217582
1152.092073	0.225186
1152.246974	0.215066
1152.401856	0.218023
1152.556720	0.204023
1152.711566	0.208844
1152.866393	0.210703
1153.021203	0.230695
1153.175994	0.237230
1153.330767	0.235971
1153.485521	0.220850
1153.640258	0.237438
1153.794976	0.221390
1153.949676	0.228531
1154.104358	0.211856
1154.259021	0.214452
1154.413667	0.200137
1154.568294	0.200885
1154.722903	0.215533
1154.877493	0.233764
1155.032066	0.237000
1155.186620	0.240846
1155.341156	0.231861
1155.495674	0.224848
1155.650173	0.212046
1155.804654	0.216797
1155.959118	0.197333
1156.113562	0.185750
1156.267989	0.193758
1156.422397	0.177343
1156.576788	0.181403
1156.731160	0.186633
1156.885513	0.204425
1157.039849	0.194149
1157.194166	0.205557
1157.348465	0.211845
1157.502746	0.209968
1157.657009	0.188759
1157.811253	0.203022
1157.965479	0.194451
1158.119687	0.180563
1158.273877	0.193554
1158.428048	0.209227
1158.582201	0.195598
1158.736337	0.182255
1158.890453	0.182169
1159.044552	0.195516
1159.198632	0.183867
1159.352694	0.196279
1159.506738	0.208803
1159.660764	0.191784
1159.814771	0.195870
1159.968761	0.199297
1160.122732	0.211585
1160.276685	0.205992
1160.430619	0.189607
1160.584535	0.191488
1160.738434	0.174741
1160.892313	0.179967
1161.046175	0.178144
1161.200019	0.169369
1161.353844	0.160984
1161.507651	0.164635
1161.661440	0.186568
1161.815210	0.188642
1161.968962	0.188109
1162.122697	0.201083
1162.276412	0.209496
1162.430110	0.219500
1162.583789	0.227498
1162.737451	0.237143
1162.891094	0.238571
1163.044718	0.202983
1163.198325	0.195254
1163.351913	0.188969
1163.505483	0.183738
1163.659035	0.174981
1163.812569	0.172479
1163.966084	0.179020
1164.119581	0.188260
1164.273060	0.186851
1164.426521	0.191023
1164.579964	0.215195
1164.733388	0.216077
1164.886794	0.225776
1165.040182	0.212766
1165.193551	0.208076
1165.346903	0.199743
1165.500236	0.190700
1165.653551	0.185754
1165.806848	0.211110
1165.960126	0.205408
1166.113386	0.196960
1166.266628	0.200604
1166.419852	0.212190
1166.573058	0.207172
1166.726245	0.214366
1166.879414	0.213698
1167.032565	0.219431
1167.185698	0.206643
1167.338812	0.202813
1167.491909	0.219526
1167.644987	0.222914
1167.798046	0.213747
1167.951088	0.224076
1168.104111	0.226562
1168.257117	0.220802
1168.410103	0.222494
1168.563072	0.209314
1168.716023	0.181956
1168.868955	0.183966
1169.021869	0.172760
1169.174765	0.166580
1169.327642	0.150141
1169.480501	0.157853
1169.633343	0.159705
1169.786165	0.156039
1169.938970	0.160529
1170.091757	0.175898
1170.244525	0.163748
1170.397275	0.166449
1170.550007	0.172170
1170.702720	0.181325
1170.855415	0.136190
1171.008092	0.134862
1171.160751	0.137096
1171.313392	0.144052
1171.466014	-0.061777
1171.618619	0.194447
1171.771205	0.194447
1171.923772	0.194447
