sample name	sample
index	340
start time	 03-01-2021  11:10:10 AM


Wavelength (nm)	Absorbance
494.344910	-0.050536
494.563924	-0.050536
494.782919	-0.050536
495.001897	-0.101231
495.220856	0.008096
495.439797	-0.003077
495.658719	0.014354
495.877624	0.032317
496.096510	-0.014907
496.315378	-0.052844
496.534227	-0.082137
496.753059	-0.045410
496.971872	-0.046363
497.190667	0.220746
497.409444	0.271871
497.628203	0.279427
497.846943	0.290547
498.065665	0.295859
498.284369	0.298872
498.503055	0.301553
498.721723	0.300739
498.940372	0.303499
499.159003	0.302458
499.377616	0.301892
499.596210	0.302625
499.814787	0.300600
500.033345	0.301342
500.251885	0.300632
500.470406	0.299412
500.688910	0.298602
500.907395	0.296129
501.125862	0.297118
501.344311	0.297058
501.562742	0.295409
501.781154	0.295152
501.999548	0.292733
502.217924	0.291026
502.436282	0.290682
502.654621	0.289887
502.872942	0.289420
503.091245	0.286195
503.309530	0.285611
503.527797	0.286051
503.746045	0.284832
503.964275	0.283638
504.182487	0.283065
504.400681	0.281599
504.618856	0.281070
504.837013	0.279242
505.055152	0.281121
505.273273	0.280301
505.491376	0.278415
505.709460	0.277803
505.927526	0.277357
506.145574	0.277024
506.363604	0.277310
506.581615	0.276585
506.799608	0.277101
507.017583	0.274789
507.235540	0.273575
507.453478	0.272698
507.671399	0.271488
507.889301	0.271962
508.107185	0.271465
508.325050	0.270042
508.542898	0.269612
508.760727	0.268780
508.978538	0.269216
509.196330	0.267832
509.414105	0.268178
509.631861	0.267713
509.849599	0.266074
510.067319	0.265163
510.285021	0.264528
510.502704	0.264852
510.720369	0.263811
510.938016	0.263531
511.155645	0.263589
511.373255	0.262664
511.590848	0.262366
511.808422	0.261789
512.025977	0.261563
512.243515	0.261549
512.461034	0.259751
512.678536	0.259908
512.896018	0.258464
513.113483	0.257318
513.330930	0.256809
513.548358	0.256241
513.765768	0.256013
513.983160	0.256189
514.200533	0.255252
514.417889	0.254635
514.635226	0.253333
514.852545	0.253080
515.069845	0.253193
515.287128	0.252820
515.504392	0.252478
515.721638	0.252252
515.938866	0.250999
516.156075	0.251365
516.373267	0.252161
516.590440	0.251714
516.807594	0.251712
517.024731	0.250971
517.241850	0.250235
517.458950	0.250005
517.676032	0.250103
517.893095	0.248977
518.110141	0.247700
518.327168	0.246974
518.544177	0.247626
518.761168	0.247272
518.978141	0.247985
519.195095	0.248167
519.412031	0.247348
519.628949	0.247365
519.845849	0.247794
520.062731	0.248171
520.279594	0.247560
520.496439	0.247267
520.713266	0.246858
520.930074	0.246433
521.146865	0.245905
521.363637	0.245937
521.580391	0.245026
521.797127	0.244572
522.013844	0.243717
522.230543	0.243485
522.447224	0.243396
522.663887	0.242997
522.880532	0.241815
523.097158	0.241621
523.313766	0.241019
523.530356	0.240878
523.746928	0.240799
523.963481	0.241224
524.180017	0.240645
524.396534	0.240643
524.613032	0.241009
524.829513	0.241768
525.045975	0.241473
525.262420	0.241142
525.478845	0.240776
525.695253	0.240889
525.911643	0.240471
526.128014	0.240609
526.344367	0.238987
526.560702	0.238586
526.777018	0.238571
526.993316	0.238060
527.209597	0.238176
527.425858	0.238044
527.642102	0.237744
527.858328	0.237255
528.074535	0.237445
528.290724	0.238065
528.506894	0.238107
528.723047	0.237315
528.939181	0.237417
529.155297	0.237451
529.371395	0.237207
529.587475	0.237043
529.803536	0.237128
530.019579	0.237662
530.235604	0.237306
530.451611	0.236745
530.667600	0.236705
530.883570	0.236956
531.099522	0.237260
531.315456	0.237365
531.531372	0.236712
531.747269	0.237006
531.963148	0.236957
532.179009	0.237030
532.394852	0.237011
532.610676	0.237084
532.826482	0.237246
533.042271	0.236795
533.258040	0.236524
533.473792	0.236104
533.689525	0.235727
533.905240	0.234911
534.120937	0.235098
534.336616	0.234915
534.552277	0.234985
534.767919	0.234850
534.983543	0.235410
535.199149	0.235091
535.414736	0.235873
535.630306	0.235539
535.845857	0.234904
536.061390	0.234836
536.276904	0.234664
536.492401	0.234593
536.707879	0.234456
536.923339	0.233463
537.138781	0.233874
537.354204	0.234005
537.569610	0.234937
537.784997	0.235041
538.000366	0.235338
538.215716	0.235843
538.431049	0.235191
538.646363	0.235058
538.861659	0.235877
539.076937	0.235846
539.292196	0.235999
539.507438	0.235629
539.722661	0.236466
539.937866	0.236210
540.153052	0.235685
540.368221	0.236006
540.583371	0.235969
540.798503	0.235629
541.013617	0.235553
541.228712	0.235521
541.443789	0.235191
541.658848	0.234788
541.873889	0.234484
542.088912	0.234570
542.303916	0.234749
542.518902	0.234689
542.733870	0.234709
542.948820	0.235438
543.163752	0.235384
543.378665	0.235397
543.593560	0.235517
543.808437	0.235584
544.023295	0.235705
544.238136	0.235929
544.452958	0.235879
544.667762	0.235892
544.882548	0.235660
545.097315	0.235978
545.312064	0.236462
545.526795	0.236609
545.741508	0.236995
545.956203	0.237112
546.170879	0.237283
546.385537	0.237884
546.600177	0.237981
546.814799	0.237908
547.029402	0.237238
547.243988	0.237022
547.458555	0.236655
547.673103	0.236582
547.887634	0.236740
548.102146	0.236534
548.316640	0.236584
548.531116	0.236195
548.745574	0.235820
548.960013	0.236488
549.174435	0.236550
549.388838	0.236579
549.603222	0.236400
549.817589	0.236146
550.031937	0.236446
550.246267	0.235945
550.460579	0.236080
550.674873	0.236226
550.889148	0.235338
551.103405	0.234986
551.317644	0.234712
551.531865	0.234859
551.746068	0.235088
551.960252	0.234416
552.174418	0.234877
552.388566	0.235078
552.602696	0.235161
552.816807	0.236313
553.030900	0.236760
553.244975	0.237125
553.459032	0.237539
553.673070	0.237519
553.887091	0.238200
554.101093	0.238408
554.315077	0.238300
554.529042	0.238705
554.742990	0.238149
554.956919	0.237952
555.170830	0.238389
555.384722	0.238463
555.598597	0.238360
555.812453	0.238287
556.026291	0.237662
556.240111	0.237737
556.453913	0.237259
556.667696	0.237317
556.881461	0.237457
557.095208	0.237018
557.308937	0.236607
557.522647	0.237033
557.736339	0.236599
557.950013	0.237014
558.163669	0.237093
558.377307	0.237171
558.590926	0.237336
558.804527	0.237716
559.018110	0.237733
559.231675	0.237567
559.445221	0.237430
559.658749	0.237629
559.872259	0.237767
560.085751	0.237941
560.299225	0.238024
560.512680	0.238035
560.726117	0.237955
560.939536	0.237997
561.152937	0.238267
561.366319	0.237972
561.579683	0.238316
561.793029	0.238260
562.006357	0.238433
562.219667	0.238606
562.432958	0.238464
562.646231	0.238327
562.859486	0.238979
563.072723	0.239723
563.285941	0.240338
563.499141	0.240465
563.712323	0.240655
563.925487	0.240275
564.138632	0.240460
564.351760	0.240720
564.564869	0.241024
564.777960	0.240955
564.991032	0.240749
565.204087	0.240547
565.417123	0.240603
565.630141	0.240551
565.843140	0.240735
566.056122	0.240652
566.269085	0.240610
566.482030	0.240705
566.694957	0.240334
566.907866	0.240257
567.120756	0.240442
567.333628	0.240291
567.546482	0.240429
567.759318	0.240815
567.972135	0.241035
568.184935	0.241015
568.397716	0.240982
568.610478	0.241174
568.823223	0.241093
569.035949	0.240903
569.248657	0.241200
569.461347	0.241215
569.674019	0.240978
569.886672	0.240995
570.099308	0.241420
570.311925	0.241462
570.524523	0.241587
570.737104	0.241792
570.949666	0.242228
571.162210	0.242262
571.374736	0.242283
571.587244	0.242246
571.799733	0.242444
572.012205	0.242631
572.224658	0.242677
572.437092	0.243239
572.649509	0.243351
572.861907	0.243151
573.074287	0.243223
573.286649	0.243271
573.498993	0.243726
573.711318	0.243493
573.923625	0.243434
574.135914	0.243401
574.348185	0.242914
574.560438	0.242976
574.772672	0.243264
574.984888	0.243255
575.197086	0.243581
575.409266	0.243460
575.621427	0.243872
575.833570	0.243830
576.045695	0.244181
576.257802	0.244312
576.469890	0.244591
576.681961	0.244371
576.894013	0.244579
577.106046	0.244467
577.318062	0.244678
577.530059	0.244511
577.742039	0.244871
577.954000	0.244797
578.165942	0.245021
578.377867	0.245084
578.589773	0.245390
578.801661	0.245740
579.013531	0.246233
579.225382	0.246411
579.437216	0.246576
579.649031	0.246263
579.860828	0.246564
580.072606	0.247018
580.284367	0.246807
580.496109	0.247083
580.707833	0.247137
580.919539	0.246651
581.131227	0.246853
581.342896	0.247396
581.554547	0.248027
581.766180	0.247804
581.977795	0.247744
582.189391	0.248085
582.400969	0.248392
582.612529	0.248552
582.824071	0.249032
583.035595	0.249187
583.247100	0.249188
583.458587	0.249002
583.670056	0.249465
583.881506	0.249646
584.092939	0.249259
584.304353	0.249152
584.515749	0.249027
584.727127	0.249320
584.938486	0.249549
585.149828	0.249659
585.361151	0.249780
585.572456	0.249732
585.783742	0.249427
585.995011	0.250045
586.206261	0.250207
586.417493	0.249944
586.628706	0.249803
586.839902	0.249569
587.051079	0.249378
587.262238	0.249553
587.473379	0.249692
587.684502	0.250437
587.895606	0.250560
588.106692	0.250401
588.317760	0.250833
588.528810	0.250829
588.739841	0.250913
588.950855	0.251128
589.161850	0.251348
589.372827	0.251640
589.583785	0.251493
589.794726	0.251710
590.005648	0.252318
590.216552	0.252549
590.427437	0.252606
590.638305	0.253133
590.849154	0.253055
591.059985	0.253048
591.270798	0.253000
591.481592	0.253159
591.692369	0.253159
591.903127	0.252995
592.113867	0.252959
592.324588	0.253104
592.535292	0.253127
592.745977	0.253493
592.956644	0.253613
593.167293	0.253892
593.377923	0.253897
593.588536	0.254016
593.799130	0.254558
594.009706	0.254915
594.220263	0.255359
594.430803	0.255525
594.641324	0.255557
594.851827	0.255725
595.062312	0.255778
595.272778	0.255957
595.483227	0.255886
595.693657	0.255772
595.904069	0.256046
596.114462	0.255965
596.324838	0.256321
596.535195	0.256356
596.745534	0.256750
596.955855	0.257160
597.166157	0.257309
597.376441	0.258043
597.586707	0.258063
597.796955	0.257651
598.007185	0.258057
598.217396	0.258334
598.427589	0.258719
598.637764	0.258391
598.847921	0.258085
599.058060	0.258089
599.268180	0.257979
599.478282	0.258176
599.688366	0.258463
599.898431	0.258302
600.108479	0.257917
600.318508	0.258113
600.528519	0.258509
600.738511	0.258789
600.948486	0.259022
601.158442	0.259452
601.368380	0.259633
601.578300	0.259719
601.788202	0.260159
601.998085	0.260420
602.207950	0.260698
602.417797	0.261041
602.627626	0.261089
602.837436	0.261292
603.047228	0.261088
603.257002	0.260966
603.466758	0.261559
603.676496	0.261579
603.886215	0.261760
604.095916	0.261728
604.305599	0.261494
604.515264	0.261885
604.724910	0.262101
604.934538	0.262268
605.144148	0.262709
605.353740	0.262657
605.563314	0.262836
605.772869	0.263009
605.982406	0.263340
606.191925	0.263666
606.401425	0.263368
606.610908	0.263069
606.820372	0.263069
607.029818	0.263080
607.239246	0.263348
607.448655	0.263555
607.658047	0.263873
607.867420	0.264040
608.076775	0.264225
608.286111	0.264776
608.495430	0.265334
608.704730	0.265704
608.914012	0.265935
609.123275	0.265790
609.332521	0.265530
609.541748	0.265456
609.750957	0.265402
609.960148	0.265520
610.169321	0.265647
610.378475	0.265570
610.587611	0.265846
610.796729	0.266319
611.005829	0.266608
611.214910	0.267173
611.423974	0.267203
611.633019	0.267514
611.842045	0.267552
612.051054	0.267658
612.260044	0.267749
612.469017	0.267639
612.677970	0.267150
612.886906	0.267287
613.095824	0.267325
613.304723	0.267395
613.513604	0.267701
613.722467	0.267778
613.931311	0.267997
614.140138	0.268227
614.348946	0.268261
614.557736	0.268752
614.766507	0.268685
614.975261	0.268561
615.183996	0.268902
615.392713	0.268438
615.601412	0.268596
615.810092	0.268606
616.018754	0.268695
616.227399	0.268619
616.436024	0.268862
616.644632	0.269153
616.853222	0.269328
617.061793	0.269119
617.270346	0.269646
617.478880	0.270105
617.687397	0.270356
617.895895	0.270253
618.104375	0.270621
618.312837	0.270586
618.521281	0.270545
618.729706	0.270427
618.938113	0.270560
619.146502	0.270269
619.354873	0.270008
619.563226	0.270017
619.771560	0.270396
619.979876	0.270783
620.188174	0.270617
620.396453	0.270895
620.604715	0.271267
620.812958	0.271713
621.021183	0.271996
621.229390	0.271992
621.437578	0.272094
621.645748	0.272131
621.853900	0.272001
622.062034	0.272304
622.270150	0.272581
622.478247	0.272865
622.686326	0.272701
622.894387	0.272933
623.102430	0.273179
623.310454	0.273156
623.518461	0.273391
623.726449	0.273393
623.934418	0.273671
624.142370	0.273898
624.350303	0.274259
624.558218	0.274633
624.766115	0.274668
624.973994	0.275020
625.181855	0.274972
625.389697	0.275091
625.597521	0.275547
625.805327	0.275488
626.013114	0.275321
626.220883	0.275147
626.428634	0.275448
626.636367	0.275464
626.844082	0.275442
627.051778	0.275692
627.259457	0.275869
627.467117	0.275829
627.674758	0.276057
627.882382	0.276391
628.089987	0.276670
628.297574	0.276651
628.505143	0.276931
628.712694	0.277056
628.920226	0.277265
629.127740	0.277341
629.335236	0.277318
629.542714	0.277706
629.750174	0.277528
629.957615	0.277576
630.165038	0.277590
630.372443	0.277961
630.579829	0.278623
630.787198	0.279098
630.994548	0.279359
631.201880	0.279755
631.409194	0.279725
631.616489	0.280009
631.823766	0.280431
632.031025	0.280649
632.238266	0.280859
632.445489	0.280604
632.652693	0.280430
632.859879	0.280715
633.067047	0.280725
633.274197	0.280728
633.481329	0.280988
633.688442	0.280833
633.895537	0.280820
634.102614	0.280900
634.309672	0.280729
634.516713	0.281045
634.723735	0.281168
634.930739	0.281335
635.137724	0.281592
635.344692	0.281879
635.551641	0.282149
635.758572	0.282352
635.965485	0.282350
636.172379	0.282706
636.379256	0.282643
636.586114	0.282440
636.792954	0.282582
636.999775	0.282899
637.206579	0.282392
637.413364	0.282387
637.620131	0.282576
637.826880	0.282834
638.033610	0.283109
638.240323	0.283456
638.447017	0.283814
638.653692	0.283909
638.860350	0.283734
639.066990	0.284434
639.273611	0.284644
639.480214	0.284736
639.686798	0.284794
639.893365	0.284634
640.099913	0.284695
640.306443	0.284691
640.512955	0.285028
640.719449	0.285326
640.925924	0.285074
641.132381	0.285014
641.338820	0.285339
641.545241	0.285307
641.751644	0.285697
641.958028	0.285800
642.164394	0.286065
642.370742	0.285980
642.577071	0.286256
642.783383	0.286640
642.989676	0.287149
643.195951	0.287137
643.402207	0.287477
643.608446	0.287470
643.814666	0.287624
644.020868	0.287909
644.227052	0.288126
644.433218	0.288044
644.639365	0.288239
644.845494	0.288211
645.051605	0.288721
645.257698	0.288746
645.463772	0.288974
645.669828	0.289067
645.875866	0.289073
646.081886	0.289203
646.287888	0.289291
646.493871	0.289395
646.699836	0.289502
646.905783	0.289368
647.111712	0.289424
647.317622	0.289750
647.523514	0.289962
647.729388	0.290228
647.935244	0.290552
648.141082	0.290668
648.346901	0.290849
648.552702	0.290991
648.758485	0.291005
648.964250	0.291202
649.169996	0.291160
649.375724	0.291382
649.581434	0.291663
649.787126	0.291684
649.992800	0.292111
650.198455	0.292264
650.404092	0.292490
650.609711	0.292940
650.815311	0.293216
651.020894	0.293472
651.226458	0.293820
651.432004	0.293944
651.637532	0.294258
651.843041	0.294324
652.048532	0.294576
652.254006	0.294759
652.459460	0.294753
652.664897	0.294969
652.870315	0.294950
653.075716	0.294952
653.281097	0.294914
653.486461	0.294889
653.691807	0.294773
653.897134	0.295016
654.102443	0.294905
654.307734	0.294954
654.513006	0.294950
654.718261	0.295411
654.923497	0.295646
655.128715	0.295765
655.333915	0.295816
655.539096	0.296152
655.744259	0.295967
655.949404	0.296465
656.154531	0.296729
656.359640	0.296940
656.564730	0.297233
656.769802	0.297497
656.974856	0.297730
657.179892	0.298044
657.384909	0.298350
657.589908	0.298837
657.794889	0.298867
657.999852	0.299314
658.204797	0.299660
658.409723	0.299683
658.614631	0.299794
658.819521	0.300148
659.024393	0.300254
659.229246	0.300481
659.434081	0.300493
659.638898	0.300625
659.843697	0.300550
660.048478	0.300445
660.253240	0.300709
660.457984	0.300797
660.662710	0.300793
660.867417	0.300954
661.072107	0.301072
661.276778	0.301413
661.481431	0.301571
661.686066	0.301647
661.890682	0.301918
662.095281	0.302020
662.299861	0.302192
662.504422	0.302500
662.708966	0.302817
662.913491	0.303004
663.117999	0.303350
663.322488	0.303583
663.526958	0.303827
663.731411	0.304157
663.935845	0.304200
664.140261	0.304338
664.344659	0.304407
664.549038	0.304552
664.753400	0.304738
664.957743	0.304644
665.162068	0.304910
665.366375	0.305193
665.570663	0.305226
665.774933	0.305427
665.979185	0.305522
666.183419	0.305740
666.387635	0.305773
666.591832	0.305771
666.796011	0.306196
667.000172	0.306004
667.204315	0.306000
667.408439	0.306277
667.612545	0.306613
667.816634	0.306789
668.020703	0.306719
668.224755	0.307087
668.428788	0.307483
668.632803	0.307648
668.836800	0.308102
669.040779	0.308339
669.244739	0.308644
669.448681	0.308788
669.652605	0.309015
669.856511	0.309408
670.060399	0.309669
670.264268	0.309707
670.468119	0.309691
670.671952	0.309880
670.875767	0.309854
671.079563	0.310004
671.283341	0.310200
671.487101	0.310604
671.690843	0.310551
671.894567	0.310640
672.098272	0.310918
672.301959	0.311028
672.505628	0.310950
672.709278	0.311438
672.912911	0.311571
673.116525	0.311303
673.320121	0.311404
673.523699	0.311702
673.727258	0.311792
673.930799	0.311899
674.134322	0.312111
674.337827	0.312579
674.541314	0.312727
674.744782	0.313087
674.948232	0.313518
675.151664	0.313668
675.355078	0.313740
675.558474	0.313863
675.761851	0.314018
675.965210	0.314239
676.168551	0.314184
676.371873	0.314321
676.575178	0.314197
676.778464	0.314457
676.981732	0.314492
677.184981	0.315049
677.388213	0.315461
677.591426	0.315650
677.794621	0.315886
677.997798	0.316122
678.200956	0.316099
678.404097	0.316381
678.607219	0.316398
678.810323	0.316800
679.013408	0.316779
679.216476	0.316586
679.419525	0.316670
679.622556	0.316776
679.825569	0.317058
680.028563	0.317495
680.231540	0.317450
680.434498	0.317691
680.637438	0.317655
680.840359	0.317770
681.043263	0.317986
681.246148	0.318099
681.449015	0.318060
681.651864	0.318156
681.854694	0.318362
682.057506	0.318404
682.260301	0.318296
682.463076	0.318382
682.665834	0.318690
682.868573	0.319273
683.071295	0.319566
683.273998	0.319927
683.476682	0.320243
683.679349	0.320287
683.881997	0.320772
684.084627	0.321170
684.287239	0.321284
684.489833	0.321332
684.692408	0.321218
684.894965	0.321238
685.097504	0.321320
685.300025	0.321611
685.502527	0.321796
685.705012	0.322011
685.907478	0.322341
686.109925	0.322528
686.312355	0.322778
686.514766	0.323214
686.717159	0.323428
686.919534	0.323578
687.121891	0.323515
687.324230	0.323850
687.526550	0.323712
687.728852	0.323601
687.931136	0.324090
688.133401	0.324248
688.335649	0.324083
688.537878	0.324540
688.740089	0.324798
688.942281	0.325179
689.144456	0.325387
689.346612	0.325713
689.548750	0.326067
689.750870	0.326002
689.952971	0.325938
690.155055	0.326337
690.357120	0.326137
690.559167	0.326403
690.761195	0.326413
690.963206	0.326184
691.165198	0.326421
691.367172	0.326392
691.569128	0.326531
691.771065	0.326909
691.972984	0.326768
692.174885	0.327172
692.376768	0.327075
692.578633	0.327166
692.780479	0.327608
692.982308	0.327608
693.184118	0.327879
693.385909	0.327957
693.587683	0.328018
693.789438	0.328286
693.991175	0.328382
694.192894	0.328448
694.394595	0.328606
694.596277	0.328406
694.797941	0.328665
694.999587	0.328945
695.201215	0.329024
695.402824	0.328949
695.604416	0.329364
695.805989	0.329366
696.007543	0.329478
696.209080	0.329451
696.410598	0.329863
696.612099	0.329798
696.813580	0.329635
697.015044	0.330023
697.216490	0.330339
697.417917	0.330141
697.619326	0.330311
697.820717	0.330570
698.022089	0.330743
698.223444	0.330756
698.424780	0.331109
698.626098	0.331396
698.827397	0.331285
699.028679	0.331357
699.229942	0.331556
699.431187	0.331557
699.632414	0.331758
699.833622	0.332023
700.034813	0.332226
700.235985	0.332156
700.437139	0.332115
700.638274	0.332250
700.839392	0.332600
701.040491	0.332853
701.241572	0.333206
701.442635	0.333386
701.643679	0.333613
701.844706	0.333654
702.045714	0.333734
702.246704	0.333882
702.447675	0.334065
702.648629	0.334055
702.849564	0.333806
703.050481	0.333878
703.251380	0.333925
703.452260	0.333854
703.653122	0.333731
703.853966	0.333785
704.054792	0.333988
704.255600	0.333943
704.456389	0.334013
704.657160	0.334128
704.857913	0.333976
705.058648	0.333807
705.259365	0.333625
705.460063	0.333590
705.660743	0.333527
705.861405	0.333540
706.062048	0.333784
706.262674	0.333563
706.463281	0.333614
706.663870	0.333440
706.864441	0.333367
707.064993	0.333528
707.265527	0.333681
707.466043	0.333850
707.666541	0.333879
707.867021	0.333835
708.067482	0.334080
708.267925	0.334296
708.468350	0.334739
708.668757	0.334954
708.869145	0.335159
709.069516	0.335068
709.269868	0.335335
709.470201	0.335255
709.670517	0.335385
709.870814	0.335386
710.071093	0.335643
710.271354	0.335736
710.471597	0.335808
710.671821	0.335844
710.872028	0.336030
711.072216	0.336024
711.272385	0.336346
711.472537	0.336219
711.672670	0.336259
711.872785	0.335956
712.072882	0.335903
712.272961	0.335859
712.473021	0.336036
712.673063	0.336034
712.873087	0.335867
713.073093	0.335892
713.273081	0.335875
713.473050	0.335742
713.673001	0.335772
713.872934	0.335810
714.072849	0.335957
714.272745	0.335835
714.472623	0.336108
714.672483	0.336363
714.872325	0.336338
715.072148	0.336505
715.271954	0.336619
715.471741	0.336690
715.671509	0.336522
715.871260	0.336510
716.070992	0.336518
716.270707	0.336324
716.470403	0.336306
716.670080	0.336352
716.869740	0.336363
717.069381	0.336435
717.269004	0.336234
717.468609	0.336444
717.668195	0.336276
717.867764	0.336115
718.067314	0.336381
718.266846	0.336346
718.466360	0.336140
718.665855	0.336060
718.865332	0.335841
719.064791	0.335997
719.264232	0.336135
719.463655	0.336188
719.663059	0.336152
719.862445	0.336091
720.061813	0.335897
720.261163	0.335680
720.460494	0.335636
720.659807	0.335678
720.859102	0.335413
721.058379	0.335030
721.257638	0.335223
721.456878	0.335114
721.656100	0.334975
721.855304	0.334957
722.054490	0.335282
722.253657	0.335212
722.452806	0.335410
722.651937	0.335564
722.851050	0.335635
723.050145	0.335403
723.249221	0.335673
723.448279	0.335641
723.647319	0.335616
723.846340	0.335536
724.045344	0.335484
724.244329	0.335283
724.443296	0.335281
724.642245	0.335342
724.841175	0.335368
725.040088	0.335395
725.238982	0.335156
725.437857	0.335105
725.636715	0.335084
725.835554	0.335131
726.034376	0.334929
726.233179	0.334946
726.431963	0.334787
726.630730	0.334774
726.829478	0.334633
727.028208	0.334923
727.226920	0.334904
727.425614	0.334790
727.624289	0.334877
727.822946	0.335129
728.021585	0.335281
728.220206	0.335169
728.418808	0.335186
728.617392	0.335154
728.815958	0.334946
729.014506	0.335012
729.213036	0.334820
729.411547	0.334722
729.610040	0.334717
729.808515	0.334426
730.006972	0.334486
730.205410	0.334462
730.403831	0.334438
730.602233	0.334494
730.800616	0.334375
730.998982	0.334423
731.197329	0.334486
731.395658	0.334387
731.593969	0.334593
731.792262	0.334372
731.990536	0.334349
732.188793	0.334129
732.387031	0.334079
732.585250	0.334190
732.783452	0.334169
732.981635	0.333916
733.179800	0.333856
733.377947	0.333358
733.576076	0.333491
733.774186	0.333336
733.972278	0.333452
734.170352	0.333365
734.368408	0.333324
734.566446	0.333195
734.764465	0.333246
734.962466	0.333012
735.160449	0.332961
735.358413	0.333062
735.556360	0.333003
735.754288	0.332997
735.952198	0.332926
736.150090	0.332521
736.347963	0.332502
736.545818	0.332415
736.743655	0.332527
736.941474	0.332509
737.139275	0.332078
737.337057	0.331878
737.534821	0.331194
737.732567	0.331020
737.930295	0.331165
738.128005	0.330915
738.325696	0.330551
738.523369	0.330404
738.721024	0.329964
738.918660	0.329948
739.116279	0.329642
739.313879	0.329769
739.511461	0.329475
739.709024	0.329310
739.906570	0.329338
740.104097	0.329394
740.301606	0.329042
740.499097	0.329448
740.696569	0.329534
740.894024	0.329671
741.091460	0.329861
741.288878	0.329754
741.486277	0.329587
741.683659	0.329697
741.881022	0.329584
742.078367	0.329565
742.275694	0.329369
742.473002	0.329433
742.670293	0.329465
742.867565	0.329144
743.064819	0.329122
743.262054	0.329047
743.459272	0.328759
743.656471	0.328394
743.853652	0.328238
744.050815	0.328189
744.247959	0.327784
744.445085	0.327443
744.642194	0.327463
744.839283	0.327474
745.036355	0.327139
745.233408	0.327183
745.430444	0.327171
745.627461	0.327166
745.824459	0.326941
746.021440	0.326738
746.218402	0.326636
746.415346	0.326567
746.612272	0.326271
746.809180	0.326394
747.006069	0.326043
747.202940	0.325901
747.399793	0.325593
747.596628	0.325447
747.793444	0.325326
747.990243	0.325282
748.187023	0.324862
748.383784	0.324863
748.580528	0.324810
748.777253	0.324754
748.973960	0.324625
749.170649	0.324710
749.367320	0.324315
749.563973	0.324095
749.760607	0.323781
749.957223	0.323892
750.153821	0.323852
750.350400	0.323503
750.546962	0.323360
750.743505	0.323172
750.940030	0.322994
751.136536	0.322824
751.333025	0.322772
751.529495	0.322694
751.725947	0.322371
751.922381	0.322066
752.118796	0.322067
752.315194	0.321885
752.511573	0.322105
752.707934	0.322124
752.904276	0.322315
753.100601	0.322156
753.296907	0.322214
753.493195	0.322301
753.689465	0.322445
753.885716	0.322282
754.081949	0.322195
754.278164	0.322233
754.474361	0.322032
754.670540	0.321864
754.866700	0.321850
755.062843	0.321559
755.258967	0.321446
755.455072	0.320946
755.651160	0.320915
755.847229	0.320987
756.043280	0.320538
756.239313	0.320457
756.435328	0.320430
756.631324	0.320426
756.827302	0.320567
757.023262	0.320698
757.219204	0.320818
757.415127	0.320863
757.611033	0.320679
757.806920	0.320483
758.002788	0.320568
758.198639	0.320567
758.394471	0.320317
758.590286	0.320443
758.786081	0.320209
758.981859	0.320287
759.177619	0.320090
759.373360	0.320051
759.569083	0.319868
759.764788	0.319740
759.960474	0.319682
760.156143	0.319631
760.351793	0.319384
760.547425	0.319101
760.743038	0.318863
760.938634	0.318645
761.134211	0.318430
761.329770	0.318683
761.525311	0.318543
761.720833	0.318352
761.916338	0.318314
762.111824	0.317968
762.307292	0.318127
762.502741	0.318303
762.698173	0.318180
762.893586	0.318301
763.088981	0.318014
763.284358	0.317738
763.479716	0.317595
763.675057	0.317409
763.870379	0.317290
764.065683	0.317084
764.260968	0.316711
764.456236	0.316436
764.651485	0.316139
764.846716	0.316084
765.041929	0.316218
765.237123	0.316100
765.432299	0.316136
765.627457	0.316321
765.822597	0.316171
766.017719	0.316059
766.212822	0.316431
766.407907	0.316462
766.602974	0.316798
766.798023	0.316512
766.993054	0.316347
767.188066	0.316146
767.383060	0.316046
767.578036	0.316098
767.772993	0.316044
767.967933	0.315816
768.162854	0.315690
768.357757	0.315431
768.552642	0.315392
768.747508	0.315411
768.942356	0.315408
769.137186	0.315369
769.331998	0.315232
769.526792	0.315346
769.721567	0.315117
769.916324	0.315151
770.111063	0.314967
770.305784	0.315068
770.500486	0.315334
770.695171	0.315356
770.889837	0.315062
771.084484	0.314898
771.279114	0.314751
771.473725	0.315065
771.668318	0.314766
771.862893	0.314634
772.057450	0.314373
772.251988	0.314152
772.446509	0.313870
772.641011	0.313770
772.835494	0.313998
773.029960	0.313972
773.224407	0.313825
773.418836	0.314025
773.613247	0.313993
773.807640	0.314096
774.002014	0.314077
774.196370	0.314373
774.390708	0.314403
774.585028	0.314111
774.779330	0.313867
774.973613	0.313563
775.167878	0.313408
775.362125	0.313661
775.556354	0.313620
775.750564	0.313436
775.944756	0.313412
776.138930	0.313234
776.333086	0.313329
776.527223	0.313607
776.721343	0.313639
776.915444	0.313732
777.109526	0.313467
777.303591	0.313406
777.497637	0.313551
777.691666	0.313172
777.885676	0.313446
778.079667	0.313556
778.273641	0.313438
778.467596	0.313330
778.661533	0.312957
778.855452	0.312917
779.049352	0.313017
779.243235	0.312761
779.437099	0.312727
779.630945	0.312639
779.824773	0.312414
780.018582	0.312360
780.212373	0.312713
780.406146	0.312903
780.599901	0.312885
780.793638	0.312841
780.987356	0.313115
781.181056	0.313255
781.374738	0.313417
781.568402	0.313358
781.762047	0.313327
781.955674	0.313072
782.149283	0.313278
782.342874	0.313130
782.536447	0.313041
782.730001	0.313048
782.923537	0.313080
783.117055	0.312980
783.310555	0.313292
783.504036	0.313693
783.697499	0.314019
783.890944	0.314027
784.084371	0.314274
784.277780	0.314488
784.471170	0.314554
784.664542	0.314795
784.857896	0.314883
785.051231	0.314807
785.244549	0.314768
785.437848	0.314871
785.631129	0.314824
785.824392	0.315150
786.017636	0.315144
786.210863	0.315056
786.404071	0.315042
786.597260	0.315166
786.790432	0.315230
786.983585	0.315056
787.176721	0.314893
787.369838	0.314980
787.562936	0.314958
787.756017	0.314836
787.949079	0.314768
788.142123	0.314920
788.335149	0.315123
788.528156	0.315399
788.721146	0.315476
788.914117	0.315623
789.107070	0.315822
789.300005	0.315901
789.492921	0.316232
789.685819	0.316571
789.878699	0.316609
790.071561	0.316553
790.264405	0.316514
790.457230	0.316573
790.650037	0.316749
790.842826	0.316677
791.035597	0.316724
791.228349	0.316589
791.421084	0.316636
791.613800	0.316670
791.806497	0.316507
791.999177	0.316654
792.191838	0.316699
792.384481	0.316620
792.577106	0.316648
792.769713	0.316735
792.962301	0.317225
793.154871	0.317192
793.347423	0.317140
793.539957	0.317512
793.732473	0.317692
793.924970	0.318050
794.117449	0.318122
794.309910	0.318227
794.502353	0.318328
794.694777	0.318008
794.887183	0.318020
795.079571	0.318181
795.271941	0.318196
795.464293	0.317985
795.656626	0.317668
795.848941	0.317816
796.041238	0.317862
796.233516	0.317923
796.425777	0.317974
796.618019	0.318439
796.810243	0.318649
797.002449	0.318579
797.194636	0.318569
797.386805	0.318756
797.578956	0.318769
797.771089	0.319118
797.963204	0.319003
798.155300	0.319111
798.347378	0.319041
798.539438	0.319090
798.731480	0.319222
798.923503	0.319341
799.115509	0.319304
799.307496	0.319512
799.499465	0.319482
799.691415	0.319611
799.883348	0.319892
800.075262	0.320027
800.267158	0.320054
800.459035	0.320416
800.650895	0.320461
800.842736	0.320716
801.034559	0.320813
801.226364	0.321046
801.418150	0.321350
801.609919	0.321292
801.801669	0.321345
801.993401	0.321489
802.185114	0.321404
802.376810	0.321651
802.568487	0.321613
802.760146	0.321795
802.951787	0.321792
803.143409	0.321898
803.335014	0.322040
803.526600	0.322053
803.718168	0.322388
803.909717	0.322364
804.101249	0.322528
804.292762	0.322739
804.484257	0.322805
804.675734	0.322964
804.867192	0.323005
805.058632	0.323543
805.250054	0.323860
805.441458	0.324088
805.632844	0.324616
805.824211	0.324822
806.015561	0.325336
806.206891	0.325649
806.398204	0.325919
806.589499	0.326348
806.780775	0.326260
806.972033	0.326268
807.163273	0.326584
807.354495	0.326773
807.545698	0.327069
807.736883	0.327188
807.928050	0.327233
808.119199	0.327335
808.310329	0.327206
808.501441	0.327450
808.692535	0.327754
808.883611	0.327694
809.074669	0.327763
809.265708	0.327913
809.456729	0.327876
809.647732	0.328179
809.838717	0.328434
810.029683	0.328821
810.220632	0.329170
810.411562	0.329329
810.602474	0.329499
810.793367	0.329702
810.984242	0.329847
811.175100	0.330514
811.365938	0.330823
811.556759	0.331017
811.747562	0.331161
811.938346	0.331287
812.129112	0.331680
812.319860	0.331843
812.510589	0.332095
812.701300	0.332417
812.891994	0.332324
813.082668	0.332121
813.273325	0.332382
813.463964	0.332680
813.654584	0.332676
813.845186	0.332807
814.035769	0.333176
814.226335	0.333196
814.416882	0.333188
814.607411	0.333500
814.797922	0.333905
814.988415	0.334032
815.178889	0.334384
815.369345	0.334747
815.559783	0.334947
815.750203	0.334918
815.940605	0.335392
816.130988	0.335831
816.321353	0.336072
816.511700	0.336368
816.702028	0.336753
816.892339	0.336729
817.082631	0.337125
817.272905	0.337266
817.463161	0.337381
817.653398	0.337640
817.843617	0.337641
818.033819	0.337684
818.224001	0.337908
818.414166	0.338028
818.604312	0.338500
818.794440	0.338610
818.984550	0.339078
819.174642	0.339691
819.364716	0.339874
819.554771	0.340341
819.744808	0.340647
819.934827	0.340956
820.124827	0.341295
820.314810	0.341320
820.504774	0.341296
820.694720	0.341312
820.884647	0.341309
821.074557	0.341424
821.264448	0.341518
821.454321	0.341745
821.644176	0.342074
821.834012	0.342458
822.023831	0.342706
822.213631	0.342942
822.403413	0.343455
822.593176	0.343670
822.782922	0.344088
822.972649	0.344498
823.162358	0.345145
823.352049	0.345324
823.541721	0.345364
823.731376	0.345774
823.921012	0.346107
824.110629	0.346325
824.300229	0.346891
824.489811	0.347246
824.679374	0.347541
824.868919	0.347628
825.058445	0.347805
825.247954	0.348169
825.437444	0.348566
825.626916	0.349197
825.816370	0.349473
826.005806	0.349972
826.195223	0.349879
826.384622	0.350022
826.574003	0.350352
826.763366	0.350799
826.952711	0.350832
827.142037	0.351077
827.331345	0.351199
827.520635	0.351378
827.709906	0.351384
827.899160	0.352028
828.088395	0.352385
828.277612	0.352647
828.466810	0.352738
828.655991	0.353303
828.845153	0.353709
829.034297	0.354116
829.223423	0.354602
829.412531	0.354843
829.601620	0.355007
829.790691	0.355076
829.979744	0.355624
830.168779	0.355895
830.357795	0.356129
830.546793	0.356352
830.735773	0.356125
830.924735	0.356299
831.113679	0.356664
831.302604	0.356870
831.491511	0.357320
831.680400	0.357499
831.869271	0.358150
832.058123	0.358188
832.246957	0.358124
832.435773	0.359099
832.624571	0.359370
832.813351	0.359796
833.002112	0.360233
833.190855	0.360800
833.379580	0.361003
833.568287	0.361056
833.756975	0.361626
833.945645	0.362311
834.134297	0.362642
834.322931	0.363077
834.511547	0.363367
834.700144	0.363604
834.888723	0.363549
835.077284	0.363922
835.265826	0.364222
835.454351	0.364511
835.642857	0.364738
835.831345	0.364783
836.019815	0.365328
836.208266	0.365580
836.396699	0.365820
836.585114	0.366369
836.773511	0.366956
836.961890	0.367535
837.150250	0.367952
837.338592	0.368138
837.526916	0.368731
837.715222	0.368857
837.903510	0.369371
838.091779	0.370176
838.280030	0.370424
838.468263	0.370505
838.656477	0.370802
838.844674	0.371369
839.032852	0.372093
839.221012	0.372577
839.409153	0.372888
839.597277	0.373331
839.785382	0.373505
839.973469	0.373775
840.161538	0.374095
840.349589	0.374138
840.537621	0.373940
840.725635	0.374015
840.913631	0.373836
841.101609	0.373909
841.289568	0.373773
841.477509	0.374132
841.665432	0.374479
841.853337	0.374616
842.041224	0.374911
842.229092	0.375427
842.416942	0.375737
842.604774	0.376040
842.792588	0.376693
842.980383	0.377070
843.168160	0.376932
843.355919	0.377573
843.543660	0.377938
843.731382	0.378587
843.919087	0.378882
844.106773	0.379043
844.294441	0.379625
844.482090	0.379806
844.669722	0.380394
844.857335	0.380838
845.044930	0.381162
845.232507	0.381335
845.420065	0.381596
845.607605	0.382202
845.795127	0.382652
845.982631	0.382693
846.170117	0.382736
846.357584	0.382467
846.545033	0.382852
846.732464	0.383119
846.919877	0.383695
847.107272	0.384161
847.294648	0.384395
847.482006	0.384949
847.669346	0.385318
847.856667	0.386025
848.043971	0.386542
848.231256	0.387006
848.418523	0.387451
848.605771	0.387706
848.793002	0.387944
848.980214	0.388100
849.167408	0.388170
849.354584	0.388956
849.541742	0.389242
849.728881	0.389960
849.916002	0.390627
850.103105	0.390903
850.290190	0.391318
850.477256	0.391840
850.664304	0.392308
850.851334	0.392665
851.038346	0.392713
851.225340	0.393166
851.412315	0.393533
851.599272	0.393578
851.786211	0.393950
851.973132	0.394506
852.160034	0.394714
852.346918	0.394774
852.533784	0.395328
852.720632	0.395678
852.907462	0.396180
853.094273	0.396733
853.281066	0.397180
853.467841	0.397856
853.654598	0.398130
853.841336	0.398445
854.028056	0.399100
854.214758	0.399482
854.401442	0.400180
854.588107	0.400411
854.774755	0.400685
854.961384	0.400962
855.147995	0.400803
855.334587	0.400784
855.521162	0.401200
855.707718	0.401617
855.894256	0.401990
856.080775	0.402369
856.267277	0.402733
856.453760	0.402854
856.640225	0.402957
856.826672	0.403301
857.013101	0.403708
857.199511	0.403789
857.385903	0.404128
857.572277	0.404238
857.758633	0.404368
857.944970	0.404473
858.131290	0.404760
858.317591	0.405459
858.503873	0.405634
858.690138	0.406208
858.876384	0.406739
859.062612	0.406994
859.248822	0.407419
859.435014	0.407558
859.621188	0.407830
859.807343	0.408472
859.993480	0.408533
860.179599	0.409198
860.365699	0.409430
860.551781	0.409860
860.737846	0.410052
860.923891	0.410496
861.109919	0.410755
861.295929	0.411296
861.481920	0.411135
861.667893	0.411500
861.853848	0.411432
862.039784	0.411491
862.225702	0.411590
862.411603	0.412125
862.597484	0.412346
862.783348	0.412789
862.969193	0.413086
863.155021	0.413467
863.340830	0.413899
863.526620	0.414538
863.712393	0.414572
863.898147	0.414974
864.083883	0.415539
864.269601	0.415414
864.455301	0.415832
864.640982	0.416041
864.826645	0.416314
865.012290	0.416390
865.197917	0.416584
865.383526	0.416851
865.569116	0.416801
865.754688	0.416382
865.940242	0.416517
866.125777	0.416489
866.311295	0.416535
866.496794	0.416568
866.682275	0.416874
866.867737	0.416856
867.053182	0.417677
867.238608	0.417774
867.424016	0.417674
867.609406	0.418363
867.794778	0.418414
867.980131	0.418381
868.165466	0.418592
868.350783	0.418674
868.536082	0.418808
868.721362	0.418803
868.906625	0.419389
869.091869	0.420422
869.277094	0.420517
869.462302	0.421259
869.647491	0.421882
869.832662	0.421993
870.017815	0.422268
870.202950	0.422834
870.388066	0.423431
870.573165	0.423326
870.758245	0.423694
870.943306	0.423682
871.128350	0.423667
871.313375	0.424084
871.498382	0.424703
871.683371	0.424948
871.868342	0.425499
872.053294	0.425494
872.238229	0.426365
872.423144	0.426174
872.608042	0.426180
872.792922	0.426661
872.977783	0.426469
873.162626	0.426875
873.347451	0.427087
873.532258	0.426962
873.717046	0.427454
873.901816	0.427269
874.086568	0.427275
874.271302	0.427804
874.456017	0.427459
874.640715	0.428083
874.825394	0.428203
875.010055	0.428452
875.194697	0.428831
875.379322	0.428697
875.563928	0.428912
875.748516	0.429062
875.933085	0.429575
876.117637	0.430159
876.302170	0.430292
876.486685	0.430343
876.671182	0.430459
876.855661	0.430506
877.040121	0.430272
877.224563	0.430179
877.408987	0.430888
877.593393	0.430878
877.777780	0.430872
877.962150	0.430777
878.146501	0.430793
878.330833	0.430522
878.515148	0.430593
878.699444	0.431303
878.883722	0.432139
879.067982	0.431874
879.252224	0.431760
879.436447	0.431775
879.620653	0.432165
879.804840	0.432409
879.989008	0.433119
880.173159	0.433650
880.357291	0.433856
880.541405	0.433317
880.725501	0.433570
880.909579	0.434250
881.093638	0.434532
881.277680	0.434359
881.461703	0.434580
881.645707	0.434700
881.829694	0.434396
882.013662	0.434427
882.197612	0.435141
882.381544	0.435511
882.565458	0.435506
882.749353	0.435754
882.933230	0.436151
883.117089	0.436354
883.300930	0.436300
883.484753	0.436838
883.668557	0.437022
883.852343	0.436608
884.036111	0.435881
884.219861	0.435956
884.403592	0.436099
884.587305	0.435966
884.771000	0.435802
884.954677	0.436196
885.138335	0.435669
885.321976	0.435555
885.505598	0.436306
885.689201	0.437054
885.872787	0.437239
886.056354	0.437215
886.239904	0.437542
886.423434	0.437674
886.606947	0.437700
886.790442	0.437777
886.973918	0.437844
887.157376	0.437676
887.340816	0.437803
887.524237	0.437689
887.707641	0.438047
887.891026	0.437656
888.074393	0.437317
888.257741	0.437680
888.441072	0.437636
888.624384	0.438067
888.807678	0.438177
888.990954	0.438277
889.174211	0.438366
889.357451	0.438197
889.540672	0.438789
889.723875	0.439525
889.907059	0.438857
890.090226	0.439465
890.273374	0.439210
890.456504	0.438822
890.639616	0.438907
890.822709	0.438569
891.005785	0.438253
891.188842	0.438348
891.371881	0.438186
891.554901	0.438736
891.737904	0.438229
891.920888	0.438045
892.103854	0.438318
892.286802	0.438202
892.469731	0.438306
892.652643	0.438695
892.835536	0.438611
893.018410	0.438637
893.201267	0.438054
893.384106	0.438199
893.566926	0.438351
893.749728	0.438293
893.932511	0.438156
894.115277	0.438638
894.298024	0.438215
894.480753	0.437586
894.663464	0.437508
894.846157	0.437885
895.028831	0.438057
895.211487	0.437968
895.394125	0.437279
895.576745	0.437420
895.759346	0.436668
895.941930	0.436531
896.124495	0.436730
896.307041	0.436635
896.489570	0.436192
896.672080	0.436165
896.854573	0.436075
897.037046	0.435931
897.219502	0.435749
897.401940	0.435868
897.584359	0.436060
897.766760	0.435786
897.949143	0.435525
898.131507	0.435888
898.313854	0.434961
898.496182	0.434742
898.678492	0.435527
898.860783	0.435432
899.043057	0.435822
899.225312	0.435260
899.407549	0.435884
899.589768	0.435686
899.771968	0.435293
899.954151	0.435882
900.136315	0.435505
900.318461	0.435036
900.500588	0.434935
900.682698	0.433951
900.864789	0.434469
901.046862	0.433682
901.228917	0.434078
901.410953	0.433841
901.592971	0.433610
901.774972	0.432718
901.956953	0.432397
902.138917	0.431648
902.320862	0.431513
902.502790	0.430688
902.684699	0.429897
902.866589	0.429033
903.048462	0.428275
903.230316	0.427301
903.412152	0.427776
903.593970	0.427560
903.775770	0.427769
903.957551	0.427554
904.139314	0.426992
904.321059	0.427294
904.502786	0.427473
904.684494	0.428025
904.866185	0.428114
905.047857	0.427630
905.229510	0.427563
905.411146	0.426688
905.592763	0.426666
905.774363	0.426876
905.955943	0.426338
906.137506	0.426361
906.319051	0.425381
906.500577	0.425498
906.682085	0.425537
906.863575	0.425030
907.045046	0.425086
907.226500	0.425153
907.407935	0.424911
907.589352	0.424696
907.770750	0.423858
907.952131	0.424084
908.133493	0.423755
908.314837	0.423392
908.496163	0.422629
908.677470	0.421965
908.858760	0.420723
909.040031	0.420408
909.221284	0.420133
909.402518	0.419795
909.583735	0.419339
909.764933	0.418507
909.946113	0.418088
910.127275	0.418204
910.308418	0.417872
910.489544	0.417944
910.670651	0.417679
910.851740	0.417178
911.032810	0.416550
911.213863	0.416156
911.394897	0.416180
911.575913	0.415632
911.756911	0.415381
911.937890	0.414970
912.118851	0.414999
912.299794	0.414844
912.480719	0.414404
912.661626	0.414360
912.842514	0.413839
913.023384	0.413054
913.204236	0.412703
913.385070	0.411586
913.565886	0.411712
913.746683	0.410860
913.927462	0.409955
914.108223	0.409778
914.288965	0.408811
914.469690	0.408432
914.650396	0.408428
914.831084	0.408065
915.011754	0.408194
915.192405	0.407125
915.373038	0.406907
915.553653	0.406854
915.734250	0.406405
915.914829	0.406051
916.095389	0.405397
916.275931	0.404749
916.456455	0.404525
916.636961	0.403972
916.817448	0.404041
916.997917	0.403534
917.178368	0.403019
917.358801	0.402217
917.539216	0.401466
917.719612	0.400808
917.899990	0.400243
918.080350	0.399488
918.260692	0.399203
918.441015	0.398650
918.621320	0.397505
918.801607	0.396701
918.981876	0.396060
919.162127	0.395687
919.342359	0.395029
919.522573	0.394505
919.702769	0.393704
919.882947	0.393366
920.063106	0.392459
920.243247	0.392527
920.423370	0.391954
920.603475	0.391461
920.783562	0.391446
920.963630	0.391397
921.143680	0.391250
921.323712	0.391064
921.503725	0.390212
921.683721	0.389970
921.863698	0.388457
922.043657	0.388233
922.223598	0.388450
922.403520	0.387819
922.583424	0.387140
922.763311	0.386177
922.943178	0.385317
923.123028	0.384333
923.302859	0.383598
923.482673	0.383958
923.662467	0.382892
923.842244	0.381306
924.022003	0.380179
924.201743	0.379480
924.381465	0.379009
924.561169	0.378928
924.740854	0.378916
924.920522	0.378406
925.100171	0.377311
925.279802	0.376927
925.459414	0.376647
925.639009	0.376924
925.818585	0.377072
925.998143	0.376498
926.177683	0.375525
926.357205	0.374531
926.536708	0.374092
926.716193	0.373564
926.895660	0.373200
927.075109	0.372563
927.254539	0.371465
927.433951	0.370488
927.613345	0.369619
927.792721	0.369203
927.972079	0.368690
928.151418	0.368463
928.330739	0.368331
928.510042	0.367565
928.689327	0.367329
928.868593	0.366723
929.047841	0.365684
929.227071	0.364807
929.406283	0.364286
929.585476	0.363480
929.764652	0.362492
929.943809	0.362260
930.122948	0.361757
930.302068	0.361056
930.481171	0.360930
930.660255	0.360211
930.839321	0.360393
931.018369	0.359740
931.197398	0.358996
931.376409	0.358699
931.555402	0.357756
931.734377	0.357183
931.913334	0.356464
932.092272	0.355294
932.271192	0.356410
932.450094	0.355176
932.628978	0.354756
932.807844	0.354947
932.986691	0.354216
933.165520	0.353637
933.344331	0.353322
933.523123	0.353549
933.701898	0.352818
933.880654	0.350457
934.059392	0.350622
934.238111	0.350145
934.416813	0.349697
934.595496	0.347895
934.774161	0.347600
934.952808	0.346293
935.131437	0.345804
935.310047	0.345791
935.488639	0.346163
935.667213	0.345031
935.845769	0.343816
936.024306	0.342799
936.202825	0.343356
936.381326	0.342522
936.559809	0.342629
936.738274	0.341076
936.916720	0.340200
937.095148	0.339509
937.273558	0.339619
937.451950	0.339833
937.630323	0.339741
937.808678	0.339457
937.987015	0.339246
938.165334	0.339222
938.343635	0.339657
938.521917	0.340044
938.700181	0.339078
938.878427	0.338794
939.056655	0.338466
939.234864	0.338428
939.413055	0.337845
939.591228	0.337033
939.769383	0.335304
939.947519	0.335191
940.125638	0.333917
940.303738	0.333739
940.481820	0.333091
940.659883	0.331565
940.837929	0.330801
941.015956	0.330053
941.193965	0.329883
941.371955	0.330442
941.549928	0.329820
941.727882	0.328581
941.905818	0.329054
942.083736	0.327227
942.261636	0.328515
942.439517	0.327132
942.617380	0.326197
942.795225	0.325129
942.973052	0.324284
943.150860	0.324087
943.328651	0.324056
943.506423	0.322949
943.684176	0.323860
943.861912	0.323023
944.039629	0.322797
944.217328	0.322905
944.395009	0.324244
944.572672	0.324332
944.750317	0.323802
944.927943	0.325011
945.105551	0.325198
945.283141	0.325267
945.460712	0.325167
945.638265	0.324688
945.815801	0.323928
945.993317	0.322015
946.170816	0.322129
946.348297	0.319842
946.525759	0.317845
946.703203	0.318003
946.880629	0.317506
947.058036	0.316695
947.235425	0.317866
947.412797	0.319135
947.590149	0.320060
947.767484	0.319694
947.944800	0.320945
948.122099	0.324381
948.299379	0.323902
948.476640	0.325327
948.653884	0.326269
948.831109	0.324438
949.008316	0.325436
949.185505	0.326172
949.362676	0.325796
949.539828	0.326501
949.716962	0.324267
949.894078	0.324065
950.071176	0.323521
950.248256	0.322402
950.425317	0.324147
950.602360	0.323383
950.779385	0.321710
950.956391	0.321647
951.133380	0.321252
951.310350	0.321655
951.487302	0.323497
951.664235	0.322685
951.841151	0.324764
952.018048	0.323912
952.194927	0.322811
952.371788	0.322488
952.548631	0.323608
952.725455	0.321916
952.902261	0.321938
953.079049	0.320398
953.255819	0.320292
953.432570	0.319268
953.609303	0.320918
953.786018	0.322900
953.962715	0.325708
954.139394	0.325378
954.316054	0.329195
954.492696	0.332256
954.669320	0.333902
954.845926	0.335461
955.022513	0.336586
955.199083	0.336848
955.375634	0.337458
955.552166	0.337052
955.728681	0.339018
955.905177	0.339129
956.081655	0.338646
956.258115	0.338723
956.434557	0.338089
956.610980	0.337492
956.787385	0.336225
956.963772	0.335641
957.140141	0.337429
957.316492	0.337275
957.492824	0.337945
957.669138	0.338735
957.845434	0.337510
958.021712	0.338418
958.197971	0.341025
958.374212	0.343370
958.550435	0.346315
958.726640	0.345145
958.902826	0.346345
959.078995	0.346429
959.255145	0.346361
959.431277	0.348379
959.607390	0.350119
959.783486	0.351012
959.959563	0.353828
960.135622	0.353644
960.311662	0.356057
960.487685	0.357071
960.663689	0.356642
960.839675	0.355359
961.015643	0.355616
961.191593	0.357837
961.367524	0.355855
961.543437	0.354294
961.719332	0.354886
961.895209	0.352936
962.071067	0.352712
962.246907	0.353437
962.422730	0.355555
962.598533	0.357058
962.774319	0.354156
962.950086	0.354833
963.125835	0.355683
963.301566	0.356676
963.477279	0.359103
963.652973	0.360675
963.828650	0.363372
964.004308	0.363524
964.179947	0.362112
964.355569	0.366473
964.531172	0.367950
964.706757	0.369589
964.882324	0.369072
965.057873	0.368202
965.233403	0.366970
965.408916	0.367912
965.584410	0.365823
965.759885	0.366767
965.935343	0.364412
966.110782	0.362330
966.286203	0.358462
966.461606	0.360420
966.636991	0.360548
966.812357	0.358288
966.987705	0.356765
967.163035	0.358075
967.338347	0.359811
967.513641	0.360665
967.688916	0.361568
967.864173	0.362345
968.039412	0.359322
968.214632	0.358756
968.389835	0.358581
968.565019	0.361936
968.740185	0.364655
968.915333	0.363219
969.090462	0.360865
969.265573	0.362519
969.440667	0.363649
969.615741	0.364771
969.790798	0.363891
969.965836	0.365775
970.140856	0.362059
970.315858	0.357813
970.490842	0.358083
970.665808	0.359686
970.840755	0.355720
971.015684	0.356596
971.190595	0.356466
971.365487	0.356756
971.540362	0.354688
971.715218	0.352741
971.890056	0.355382
972.064875	0.354232
972.239677	0.355142
972.414460	0.361837
972.589225	0.360107
972.763972	0.360839
972.938700	0.361831
973.113411	0.362293
973.288103	0.365940
973.462777	0.363103
973.637432	0.363517
973.812070	0.361700
973.986689	0.356873
974.161290	0.356181
974.335873	0.357223
974.510437	0.357455
974.684984	0.358334
974.859512	0.355631
975.034022	0.352755
975.208513	0.352667
975.382987	0.351533
975.557442	0.349517
975.731879	0.349476
975.906298	0.344657
976.080698	0.343876
976.255080	0.343223
976.429445	0.345506
976.603790	0.349853
976.778118	0.350532
976.952427	0.350263
977.126719	0.351902
977.300992	0.350565
977.475246	0.352981
977.649483	0.351015
977.823701	0.350936
977.997901	0.346441
978.172083	0.342652
978.346247	0.342911
978.520392	0.345091
978.694519	0.342503
978.868628	0.343486
979.042719	0.342002
979.216791	0.345156
979.390845	0.346705
979.564882	0.348350
979.738899	0.352685
979.912899	0.350700
980.086880	0.346869
980.260843	0.348286
980.434788	0.348410
980.608715	0.349553
980.782623	0.346022
980.956514	0.344471
981.130386	0.342515
981.304240	0.339988
981.478075	0.337144
981.651892	0.339257
981.825692	0.340023
981.999472	0.337942
982.173235	0.336951
982.346980	0.339832
982.520706	0.339146
982.694414	0.337031
982.868104	0.333851
983.041775	0.335432
983.215428	0.332185
983.389064	0.333426
983.562680	0.333118
983.736279	0.332313
983.909860	0.328397
984.083422	0.328241
984.256966	0.330504
984.430491	0.332990
984.603999	0.328249
984.777488	0.328691
984.950959	0.322150
985.124412	0.320944
985.297847	0.321415
985.471263	0.324926
985.644661	0.324678
985.818041	0.324407
985.991403	0.325155
986.164747	0.327743
986.338072	0.329027
986.511379	0.330524
986.684668	0.330639
986.857938	0.330049
987.031191	0.326885
987.204425	0.327797
987.377641	0.328526
987.550839	0.326847
987.724018	0.327489
987.897179	0.325567
988.070322	0.326586
988.243447	0.328011
988.416554	0.326691
988.589642	0.326432
988.762712	0.322256
988.935764	0.320265
989.108798	0.317448
989.281813	0.316672
989.454811	0.316797
989.627790	0.315787
989.800751	0.314469
989.973693	0.312551
990.146617	0.312179
990.319524	0.311085
990.492412	0.310450
990.665281	0.312745
990.838133	0.310102
991.010966	0.308634
991.183781	0.309172
991.356578	0.308964
991.529356	0.307327
991.702117	0.306348
991.874859	0.307371
992.047583	0.306799
992.220288	0.305555
992.392976	0.309337
992.565645	0.309546
992.738296	0.309428
992.910929	0.308935
993.083543	0.311660
993.256139	0.311857
993.428718	0.311519
993.601277	0.310322
993.773819	0.309191
993.946342	0.306523
994.118848	0.307537
994.291335	0.304467
994.463803	0.302902
994.636254	0.302147
994.808686	0.302518
994.981100	0.303610
995.153496	0.305537
995.325874	0.308073
995.498233	0.309894
995.670574	0.307502
995.842897	0.307367
996.015202	0.309154
996.187488	0.306836
996.359757	0.304701
996.532007	0.304522
996.704239	0.302388
996.876452	0.298531
997.048648	0.296992
997.220825	0.298104
997.392984	0.299799
997.565124	0.296808
997.737247	0.299224
997.909351	0.298409
998.081437	0.297229
998.253505	0.296252
998.425554	0.297876
998.597586	0.298227
998.769599	0.297609
998.941594	0.295081
999.113571	0.297136
999.285529	0.292953
999.457469	0.294672
999.629391	0.294544
999.801295	0.294315
999.973181	0.290677
1000.145048	0.288258
1000.316897	0.288685
1000.488728	0.292540
1000.660541	0.291820
1000.832335	0.291260
1001.004111	0.288958
1001.175869	0.286503
1001.347609	0.287393
1001.519331	0.291445
1001.691034	0.292716
1001.862719	0.292093
1002.034386	0.289211
1002.206035	0.286536
1002.377665	0.287338
1002.549277	0.287482
1002.720871	0.288605
1002.892447	0.289187
1003.064004	0.286513
1003.235544	0.284684
1003.407065	0.282834
1003.578568	0.282301
1003.750052	0.283507
1003.921519	0.282921
1004.092967	0.283380
1004.264397	0.283405
1004.435809	0.282889
1004.607202	0.282432
1004.778577	0.282096
1004.949934	0.284001
1005.121273	0.281995
1005.292594	0.283388
1005.463896	0.284684
1005.635180	0.283349
1005.806446	0.282749
1005.977694	0.283007
1006.148923	0.283717
1006.320135	0.284013
1006.491328	0.281986
1006.662503	0.282587
1006.833659	0.282330
1007.004798	0.282112
1007.175918	0.282266
1007.347020	0.281385
1007.518103	0.278198
1007.689169	0.276792
1007.860216	0.273941
1008.031245	0.272133
1008.202256	0.271588
1008.373248	0.270420
1008.544223	0.271168
1008.715179	0.270969
1008.886117	0.269075
1009.057036	0.269088
1009.227938	0.270087
1009.398821	0.270292
1009.569686	0.271071
1009.740533	0.270316
1009.911361	0.269465
1010.082172	0.266174
1010.252964	0.265672
1010.423738	0.266255
1010.594493	0.265378
1010.765231	0.266930
1010.935950	0.267269
1011.106651	0.266234
1011.277334	0.266384
1011.447998	0.264749
1011.618645	0.265753
1011.789273	0.264990
1011.959882	0.266703
1012.130474	0.268432
1012.301048	0.266049
1012.471603	0.265023
1012.642140	0.264239
1012.812658	0.265994
1012.983159	0.268384
1013.153641	0.268166
1013.324105	0.269714
1013.494551	0.266801
1013.664979	0.265210
1013.835388	0.261627
1014.005779	0.264796
1014.176152	0.266235
1014.346507	0.265526
1014.516843	0.262879
1014.687162	0.262516
1014.857462	0.260735
1015.027744	0.261063
1015.198007	0.260447
1015.368252	0.261678
1015.538480	0.257959
1015.708689	0.255785
1015.878879	0.255697
1016.049052	0.254484
1016.219206	0.253174
1016.389342	0.252235
1016.559460	0.249829
1016.729559	0.250639
1016.899641	0.251110
1017.069704	0.251889
1017.239749	0.252968
1017.409775	0.251812
1017.579784	0.252014
1017.749774	0.254125
1017.919746	0.252012
1018.089700	0.252374
1018.259635	0.250744
1018.429553	0.249513
1018.599452	0.250465
1018.769333	0.248148
1018.939195	0.247120
1019.109040	0.246576
1019.278866	0.244752
1019.448674	0.248302
1019.618464	0.250517
1019.788235	0.252168
1019.957989	0.253815
1020.127724	0.252756
1020.297441	0.255430
1020.467139	0.254165
1020.636820	0.254237
1020.806482	0.253501
1020.976126	0.251397
1021.145752	0.250077
1021.315359	0.248842
1021.484948	0.247527
1021.654519	0.246636
1021.824072	0.243155
1021.993607	0.244075
1022.163123	0.244930
1022.332621	0.243414
1022.502101	0.242233
1022.671563	0.242325
1022.841007	0.242984
1023.010432	0.242130
1023.179839	0.240068
1023.349228	0.241780
1023.518598	0.241181
1023.687951	0.239837
1023.857285	0.241174
1024.026601	0.241802
1024.195899	0.242797
1024.365178	0.241716
1024.534439	0.240402
1024.703682	0.242059
1024.872907	0.243025
1025.042114	0.242358
1025.211302	0.243381
1025.380472	0.241597
1025.549624	0.239905
1025.718758	0.238643
1025.887873	0.237991
1026.056970	0.238131
1026.226049	0.237684
1026.395110	0.232978
1026.564153	0.233558
1026.733177	0.233496
1026.902183	0.235899
1027.071171	0.236993
1027.240141	0.236127
1027.409092	0.235129
1027.578026	0.234714
1027.746940	0.234650
1027.915837	0.236576
1028.084716	0.236712
1028.253576	0.235776
1028.422418	0.234110
1028.591242	0.234158
1028.760048	0.233106
1028.928835	0.235032
1029.097604	0.234459
1029.266355	0.234390
1029.435088	0.233827
1029.603803	0.230754
1029.772499	0.230043
1029.941177	0.230468
1030.109837	0.228066
1030.278478	0.230358
1030.447102	0.228756
1030.615707	0.228949
1030.784294	0.227473
1030.952863	0.227427
1031.121413	0.228920
1031.289945	0.229299
1031.458460	0.226473
1031.626955	0.228808
1031.795433	0.228498
1031.963892	0.228496
1032.132334	0.229120
1032.300756	0.230929
1032.469161	0.229421
1032.637548	0.228705
1032.805916	0.227176
1032.974266	0.227196
1033.142598	0.224981
1033.310911	0.222384
1033.479207	0.220146
1033.647484	0.219138
1033.815743	0.217547
1033.983983	0.218859
1034.152206	0.218499
1034.320410	0.217471
1034.488596	0.218602
1034.656764	0.219573
1034.824914	0.219408
1034.993045	0.222504
1035.161158	0.223942
1035.329253	0.223558
1035.497330	0.224346
1035.665388	0.223022
1035.833428	0.224295
1036.001450	0.224373
1036.169454	0.223356
1036.337440	0.224015
1036.505407	0.220687
1036.673356	0.218972
1036.841287	0.219764
1037.009200	0.218096
1037.177094	0.220591
1037.344970	0.221063
1037.512828	0.220408
1037.680668	0.221686
1037.848489	0.221280
1038.016293	0.223669
1038.184078	0.222859
1038.351845	0.222426
1038.519593	0.221543
1038.687324	0.220316
1038.855036	0.220553
1039.022730	0.218726
1039.190406	0.219423
1039.358063	0.217566
1039.525702	0.217640
1039.693323	0.218615
1039.860926	0.217486
1040.028511	0.218297
1040.196077	0.218618
1040.363625	0.218109
1040.531155	0.220524
1040.698667	0.217473
1040.866161	0.219570
1041.033636	0.218454
1041.201093	0.218535
1041.368532	0.217459
1041.535952	0.219919
1041.703355	0.218961
1041.870739	0.217292
1042.038105	0.216171
1042.205452	0.215385
1042.372782	0.213566
1042.540093	0.213311
1042.707386	0.213271
1042.874661	0.214677
1043.041918	0.211492
1043.209156	0.212873
1043.376376	0.212466
1043.543578	0.212508
1043.710762	0.213280
1043.877927	0.213878
1044.045074	0.213577
1044.212203	0.212359
1044.379314	0.210890
1044.546407	0.209822
1044.713481	0.207448
1044.880537	0.208562
1045.047575	0.210700
1045.214595	0.211629
1045.381596	0.210703
1045.548579	0.210263
1045.715544	0.211364
1045.882491	0.211639
1046.049420	0.211941
1046.216330	0.214564
1046.383222	0.212353
1046.550096	0.210361
1046.716951	0.209538
1046.883789	0.210364
1047.050608	0.209617
1047.217409	0.208589
1047.384192	0.208397
1047.550956	0.209709
1047.717703	0.208693
1047.884431	0.211381
1048.051140	0.211192
1048.217832	0.213834
1048.384505	0.213999
1048.551161	0.213315
1048.717798	0.212899
1048.884416	0.213396
1049.051017	0.214425
1049.217599	0.213319
1049.384163	0.213202
1049.550709	0.214648
1049.717237	0.212120
1049.883746	0.210098
1050.050237	0.211989
1050.216710	0.212089
1050.383165	0.210761
1050.549601	0.208938
1050.716019	0.207315
1050.882420	0.205382
1051.048801	0.204790
1051.215165	0.203971
1051.381510	0.205216
1051.547837	0.205407
1051.714146	0.206264
1051.880437	0.207162
1052.046709	0.207424
1052.212964	0.209919
1052.379200	0.209103
1052.545417	0.206047
1052.711617	0.207166
1052.877798	0.208718
1053.043961	0.207068
1053.210106	0.207921
1053.376233	0.206667
1053.542341	0.205746
1053.708432	0.203331
1053.874504	0.203907
1054.040557	0.205816
1054.206593	0.207261
1054.372610	0.205448
1054.538609	0.204781
1054.704590	0.200218
1054.870553	0.203034
1055.036497	0.202637
1055.202424	0.204269
1055.368331	0.204185
1055.534221	0.205041
1055.700093	0.200416
1055.865946	0.200505
1056.031781	0.201257
1056.197598	0.205207
1056.363397	0.201119
1056.529177	0.204214
1056.694939	0.203958
1056.860683	0.204542
1057.026409	0.204542
1057.192116	0.207387
1057.357806	0.205821
1057.523477	0.205809
1057.689130	0.207387
1057.854764	0.209413
1058.020381	0.205617
1058.185979	0.204460
1058.351559	0.202989
1058.517120	0.200621
1058.682664	0.199198
1058.848189	0.198828
1059.013696	0.198721
1059.179185	0.197483
1059.344656	0.196247
1059.510108	0.198662
1059.675542	0.199370
1059.840958	0.201208
1060.006356	0.201779
1060.171735	0.202987
1060.337096	0.203733
1060.502439	0.205143
1060.667764	0.203477
1060.833071	0.203333
1060.998359	0.200797
1061.163629	0.198863
1061.328881	0.196650
1061.494115	0.196854
1061.659330	0.197822
1061.824527	0.199206
1061.989706	0.197080
1062.154867	0.197503
1062.320010	0.197978
1062.485134	0.198996
1062.650240	0.201164
1062.815328	0.201446
1062.980398	0.199235
1063.145449	0.198264
1063.310482	0.195855
1063.475497	0.196745
1063.640494	0.192978
1063.805473	0.194412
1063.970433	0.196086
1064.135375	0.194602
1064.300299	0.194626
1064.465204	0.196415
1064.630092	0.194498
1064.794961	0.195291
1064.959812	0.195582
1065.124645	0.200548
1065.289459	0.200711
1065.454256	0.200398
1065.619034	0.200842
1065.783793	0.203329
1065.948535	0.202937
1066.113258	0.202558
1066.277964	0.202961
1066.442651	0.202158
1066.607319	0.202471
1066.771970	0.202411
1066.936602	0.200913
1067.101216	0.201068
1067.265812	0.199261
1067.430389	0.197159
1067.594949	0.199503
1067.759490	0.200993
1067.924013	0.200954
1068.088518	0.199724
1068.253004	0.199114
1068.417472	0.200250
1068.581922	0.201807
1068.746354	0.202077
1068.910768	0.204011
1069.075163	0.203728
1069.239540	0.201456
1069.403899	0.200240
1069.568240	0.198698
1069.732562	0.196995
1069.896866	0.193747
1070.061152	0.193428
1070.225420	0.191107
1070.389670	0.193164
1070.553901	0.193362
1070.718114	0.193594
1070.882309	0.193872
1071.046486	0.194174
1071.210644	0.197704
1071.374784	0.202017
1071.538906	0.201763
1071.703010	0.201087
1071.867096	0.200385
1072.031163	0.199860
1072.195212	0.200557
1072.359243	0.200476
1072.523256	0.200927
1072.687250	0.198256
1072.851226	0.196550
1073.015184	0.196750
1073.179124	0.198948
1073.343045	0.199334
1073.506949	0.201314
1073.670834	0.202202
1073.834701	0.203141
1073.998549	0.200948
1074.162380	0.202227
1074.326192	0.201625
1074.489986	0.201552
1074.653761	0.201741
1074.817519	0.200722
1074.981258	0.200295
1075.144979	0.197266
1075.308682	0.196902
1075.472367	0.199683
1075.636033	0.197843
1075.799681	0.199453
1075.963311	0.199347
1076.126923	0.199629
1076.290516	0.201114
1076.454092	0.198966
1076.617649	0.204345
1076.781187	0.203203
1076.944708	0.201815
1077.108210	0.204763
1077.271695	0.205615
1077.435160	0.204477
1077.598608	0.206583
1077.762038	0.203926
1077.925449	0.203533
1078.088842	0.201313
1078.252217	0.202084
1078.415573	0.201635
1078.578912	0.201599
1078.742232	0.201065
1078.905534	0.203213
1079.068817	0.202167
1079.232083	0.201451
1079.395330	0.204356
1079.558559	0.204494
1079.721770	0.204087
1079.884962	0.204486
1080.048136	0.201828
1080.211293	0.199637
1080.374430	0.198463
1080.537550	0.199516
1080.700651	0.200661
1080.863735	0.198774
1081.026800	0.198557
1081.189846	0.198169
1081.352875	0.201911
1081.515885	0.203140
1081.678877	0.202127
1081.841851	0.202122
1082.004807	0.201595
1082.167744	0.203118
1082.330663	0.200331
1082.493564	0.202666
1082.656447	0.202056
1082.819312	0.198102
1082.982158	0.198482
1083.144986	0.201039
1083.307796	0.202558
1083.470587	0.202964
1083.633361	0.202028
1083.796116	0.204765
1083.958853	0.201471
1084.121571	0.203428
1084.284272	0.206550
1084.446954	0.204859
1084.609618	0.203418
1084.772264	0.203611
1084.934892	0.204305
1085.097501	0.202897
1085.260092	0.202837
1085.422665	0.205150
1085.585220	0.205020
1085.747756	0.205572
1085.910274	0.207719
1086.072774	0.209958
1086.235256	0.208430
1086.397720	0.208634
1086.560165	0.209974
1086.722592	0.208573
1086.885001	0.206050
1087.047392	0.207063
1087.209764	0.205791
1087.372119	0.203616
1087.534455	0.201251
1087.696772	0.202326
1087.859072	0.201134
1088.021353	0.201477
1088.183616	0.207526
1088.345861	0.206486
1088.508088	0.203897
1088.670296	0.201636
1088.832486	0.203320
1088.994658	0.204516
1089.156812	0.205222
1089.318948	0.202778
1089.481065	0.203370
1089.643164	0.202077
1089.805245	0.207006
1089.967308	0.211816
1090.129352	0.212531
1090.291378	0.212152
1090.453386	0.215066
1090.615376	0.212597
1090.777347	0.212278
1090.939301	0.210335
1091.101236	0.204212
1091.263153	0.203631
1091.425051	0.200219
1091.586932	0.201406
1091.748794	0.199636
1091.910638	0.196045
1092.072463	0.199030
1092.234271	0.199222
1092.396060	0.198181
1092.557831	0.202099
1092.719584	0.201016
1092.881319	0.201478
1093.043035	0.200269
1093.204733	0.203355
1093.366413	0.206277
1093.528075	0.203309
1093.689718	0.206504
1093.851343	0.209438
1094.012950	0.206016
1094.174539	0.206130
1094.336110	0.206777
1094.497662	0.205694
1094.659196	0.205986
1094.820712	0.205811
1094.982210	0.208156
1095.143689	0.206308
1095.305151	0.206522
1095.466594	0.212394
1095.628018	0.210985
1095.789425	0.211071
1095.950813	0.216317
1096.112183	0.213567
1096.273535	0.214408
1096.434869	0.211264
1096.596184	0.209801
1096.757482	0.209525
1096.918761	0.208071
1097.080021	0.208747
1097.241264	0.211176
1097.402488	0.209137
1097.563694	0.209707
1097.724882	0.207511
1097.886052	0.211811
1098.047203	0.213297
1098.208336	0.212927
1098.369451	0.208370
1098.530548	0.207267
1098.691627	0.205954
1098.852687	0.203643
1099.013729	0.202655
1099.174753	0.203239
1099.335758	0.206541
1099.496746	0.204796
1099.657715	0.205716
1099.818666	0.213083
1099.979599	0.210060
1100.140513	0.211708
1100.301409	0.212566
1100.462287	0.215790
1100.623147	0.214044
1100.783989	0.206500
1100.944812	0.207719
1101.105617	0.205425
1101.266404	0.198448
1101.427173	0.206155
1101.587923	0.202781
1101.748656	0.202401
1101.909370	0.203432
1102.070066	0.205427
1102.230743	0.207418
1102.391403	0.209190
1102.552044	0.209518
1102.712667	0.210502
1102.873271	0.205476
1103.033858	0.204132
1103.194426	0.203995
1103.354976	0.202118
1103.515508	0.197104
1103.676021	0.197162
1103.836517	0.197836
1103.996994	0.200390
1104.157453	0.201463
1104.317893	0.199288
1104.478316	0.201528
1104.638720	0.203787
1104.799106	0.201805
1104.959474	0.206468
1105.119823	0.206338
1105.280155	0.206998
1105.440468	0.205718
1105.600763	0.205575
1105.761039	0.209570
1105.921298	0.209760
1106.081538	0.208730
1106.241760	0.211331
1106.401964	0.210114
1106.562149	0.206800
1106.722316	0.204735
1106.882465	0.206432
1107.042596	0.208576
1107.202709	0.204103
1107.362803	0.203477
1107.522879	0.204950
1107.682937	0.204404
1107.842977	0.206242
1108.002999	0.204759
1108.163002	0.200431
1108.322987	0.197404
1108.482954	0.193707
1108.642902	0.196319
1108.802833	0.200672
1108.962745	0.198021
1109.122639	0.197835
1109.282515	0.196226
1109.442372	0.200493
1109.602211	0.200522
1109.762032	0.201252
1109.921835	0.202228
1110.081620	0.202307
1110.241386	0.193608
1110.401134	0.196345
1110.560864	0.196206
1110.720576	0.195540
1110.880269	0.195957
1111.039945	0.203070
1111.199602	0.201827
1111.359240	0.203257
1111.518861	0.204855
1111.678463	0.216778
1111.838047	0.217900
1111.997613	0.219608
1112.157161	0.220577
1112.316690	0.218586
1112.476202	0.217130
1112.635695	0.220405
1112.795169	0.221484
1112.954626	0.225021
1113.114064	0.217573
1113.273484	0.217165
1113.432886	0.211946
1113.592270	0.211953
1113.751635	0.213498
1113.910983	0.212982
1114.070312	0.213725
1114.229622	0.213368
1114.388915	0.209463
1114.548189	0.211416
1114.707445	0.207366
1114.866683	0.210885
1115.025903	0.206144
1115.185104	0.204976
1115.344287	0.203059
1115.503452	0.203744
1115.662599	0.206678
1115.821727	0.208544
1115.980838	0.208880
1116.139930	0.210523
1116.299004	0.208548
1116.458059	0.216662
1116.617097	0.214540
1116.776116	0.222293
1116.935117	0.219529
1117.094099	0.212351
1117.253064	0.213854
1117.412010	0.213193
1117.570938	0.213991
1117.729848	0.216102
1117.888740	0.210746
1118.047613	0.216179
1118.206468	0.210876
1118.365305	0.207101
1118.524124	0.212155
1118.682924	0.203237
1118.841707	0.201930
1119.000471	0.200080
1119.159216	0.202098
1119.317944	0.205988
1119.476653	0.203994
1119.635344	0.204464
1119.794017	0.211506
1119.952672	0.207725
1120.111308	0.211281
1120.269927	0.207004
1120.428527	0.205296
1120.587108	0.204326
1120.745672	0.204560
1120.904217	0.201419
1121.062744	0.200016
1121.221253	0.196567
1121.379744	0.197665
1121.538216	0.202818
1121.696671	0.210061
1121.855107	0.212780
1122.013524	0.208316
1122.171924	0.203736
1122.330305	0.208515
1122.488668	0.206941
1122.647013	0.209199
1122.805340	0.210714
1122.963648	0.203820
1123.121938	0.203990
1123.280210	0.203726
1123.438464	0.206164
1123.596700	0.205408
1123.754917	0.203108
1123.913116	0.204456
1124.071297	0.200408
1124.229459	0.201015
1124.387604	0.204961
1124.545730	0.199231
1124.703838	0.198514
1124.861928	0.204502
1125.019999	0.211736
1125.178052	0.217180
1125.336088	0.213437
1125.494104	0.218418
1125.652103	0.218387
1125.810083	0.219054
1125.968045	0.226578
1126.125989	0.229324
1126.283915	0.227706
1126.441823	0.227288
1126.599712	0.225458
1126.757583	0.226820
1126.915436	0.222771
1127.073270	0.225405
1127.231087	0.223442
1127.388885	0.215087
1127.546665	0.214437
1127.704426	0.210610
1127.862170	0.208614
1128.019895	0.201342
1128.177602	0.198891
1128.335291	0.197587
1128.492961	0.196526
1128.650614	0.197495
1128.808248	0.202832
1128.965864	0.203583
1129.123461	0.205480
1129.281041	0.206695
1129.438602	0.211518
1129.596145	0.216610
1129.753670	0.223942
1129.911176	0.222030
1130.068665	0.222878
1130.226135	0.221080
1130.383587	0.219365
1130.541020	0.220745
1130.698436	0.220147
1130.855833	0.221887
1131.013212	0.224660
1131.170573	0.217418
1131.327915	0.213196
1131.485239	0.204678
1131.642545	0.202010
1131.799833	0.194819
1131.957103	0.189115
1132.114354	0.183443
1132.271588	0.178087
1132.428803	0.177646
1132.585999	0.180119
1132.743178	0.180394
1132.900338	0.188942
1133.057480	0.188876
1133.214604	0.193747
1133.371710	0.194154
1133.528797	0.191019
1133.685866	0.195374
1133.842917	0.197593
1133.999950	0.201053
1134.156964	0.203086
1134.313960	0.202636
1134.470938	0.202913
1134.627898	0.205677
1134.784840	0.214938
1134.941763	0.224163
1135.098668	0.225984
1135.255555	0.225262
1135.412424	0.223777
1135.569274	0.227652
1135.726107	0.226290
1135.882921	0.233840
1136.039716	0.230668
1136.196494	0.221109
1136.353253	0.221767
1136.509995	0.218543
1136.666717	0.213565
1136.823422	0.211726
1136.980109	0.209757
1137.136777	0.211305
1137.293427	0.208383
1137.450059	0.214977
1137.606672	0.214977
1137.763267	0.213492
1137.919844	0.217724
1138.076403	0.223625
1138.232944	0.217524
1138.389466	0.217253
1138.545971	0.220187
1138.702457	0.213447
1138.858924	0.210314
1139.015374	0.210768
1139.171805	0.209000
1139.328218	0.205110
1139.484613	0.199698
1139.640990	0.206303
1139.797348	0.207308
1139.953688	0.196467
1140.110010	0.200041
1140.266314	0.195657
1140.422600	0.202329
1140.578867	0.206491
1140.735116	0.212921
1140.891347	0.216032
1141.047559	0.216567
1141.203754	0.213069
1141.359930	0.216618
1141.516088	0.221846
1141.672228	0.225987
1141.828349	0.222762
1141.984452	0.219159
1142.140537	0.208051
1142.296604	0.210841
1142.452653	0.212351
1142.608683	0.214923
1142.764695	0.214144
1142.920689	0.204741
1143.076665	0.203868
1143.232622	0.200212
1143.388562	0.199600
1143.544483	0.201062
1143.700385	0.201547
1143.856270	0.203063
1144.012136	0.201594
1144.167985	0.209198
1144.323814	0.216141
1144.479626	0.213120
1144.635420	0.222684
1144.791195	0.223945
1144.946952	0.231509
1145.102691	0.229892
1145.258411	0.223110
1145.414113	0.224482
1145.569798	0.217265
1145.725463	0.215406
1145.881111	0.216157
1146.036741	0.211017
1146.192352	0.207786
1146.347945	0.205538
1146.503519	0.200094
1146.659076	0.203500
1146.814614	0.198592
1146.970134	0.197766
1147.125636	0.199634
1147.281120	0.207936
1147.436585	0.203219
1147.592032	0.205947
1147.747461	0.203141
1147.902872	0.207657
1148.058265	0.208301
1148.213639	0.209710
1148.368995	0.212124
1148.524333	0.212460
1148.679653	0.205028
1148.834954	0.212444
1148.990237	0.219743
1149.145502	0.220606
1149.300749	0.218942
1149.455977	0.212738
1149.611188	0.223212
1149.766380	0.226135
1149.921553	0.224610
1150.076709	0.226657
1150.231846	0.232407
1150.386966	0.215643
1150.542066	0.218839
1150.697149	0.223091
1150.852214	0.229591
1151.007260	0.223757
1151.162288	0.228273
1151.317298	0.231094
1151.472289	0.227311
1151.627263	0.222698
1151.782218	0.233370
1151.937155	0.225013
1152.092073	0.221960
1152.246974	0.219640
1152.401856	0.218114
1152.556720	0.209096
1152.711566	0.202928
1152.866393	0.211466
1153.021203	0.206183
1153.175994	0.204255
1153.330767	0.203755
1153.485521	0.196359
1153.640258	0.195167
1153.794976	0.191801
1153.949676	0.209940
1154.104358	0.216415
1154.259021	0.205873
1154.413667	0.205584
1154.568294	0.209584
1154.722903	0.218603
1154.877493	0.217617
1155.032066	0.215740
1155.186620	0.227880
1155.341156	0.209929
1155.495674	0.198874
1155.650173	0.198081
1155.804654	0.194861
1155.959118	0.183994
1156.113562	0.176687
1156.267989	0.186780
1156.422397	0.193126
1156.576788	0.183259
1156.731160	0.178384
1156.885513	0.184544
1157.039849	0.193807
1157.194166	0.189941
1157.348465	0.196524
1157.502746	0.208705
1157.657009	0.199573
1157.811253	0.189852
1157.965479	0.189942
1158.119687	0.198350
1158.273877	0.205944
1158.428048	0.210954
1158.582201	0.218136
1158.736337	0.217114
1158.890453	0.206030
1159.044552	0.202201
1159.198632	0.216395
1159.352694	0.229203
1159.506738	0.233610
1159.660764	0.226992
1159.814771	0.221159
1159.968761	0.223404
1160.122732	0.227165
1160.276685	0.231521
1160.430619	0.239152
1160.584535	0.225827
1160.738434	0.211139
1160.892313	0.210308
1161.046175	0.210880
1161.200019	0.205224
1161.353844	0.202378
1161.507651	0.202801
1161.661440	0.193372
1161.815210	0.195942
1161.968962	0.189885
1162.122697	0.193824
1162.276412	0.192658
1162.430110	0.193530
1162.583789	0.188640
1162.737451	0.193944
1162.891094	0.186634
1163.044718	0.197042
1163.198325	0.184770
1163.351913	0.184444
1163.505483	0.191041
1163.659035	0.190316
1163.812569	0.202732
1163.966084	0.217343
1164.119581	0.207872
1164.273060	0.217223
1164.426521	0.206278
1164.579964	0.214687
1164.733388	0.218014
1164.886794	0.203894
1165.040182	0.206550
1165.193551	0.196866
1165.346903	0.186241
1165.500236	0.182953
1165.653551	0.175328
1165.806848	0.171483
1165.960126	0.173121
1166.113386	0.184832
1166.266628	0.179472
1166.419852	0.165751
1166.573058	0.159561
1166.726245	0.161655
1166.879414	0.167888
1167.032565	0.175119
1167.185698	0.180983
1167.338812	0.184215
1167.491909	0.186241
1167.644987	0.188426
1167.798046	0.199931
1167.951088	0.192080
1168.104111	0.183309
1168.257117	0.184237
1168.410103	0.182758
1168.563072	0.189437
1168.716023	0.179513
1168.868955	0.173375
1169.021869	0.182277
1169.174765	0.167901
1169.327642	0.181065
1169.480501	0.199005
1169.633343	0.198465
1169.786165	0.196146
1169.938970	0.188948
1170.091757	0.189670
1170.244525	0.192492
1170.397275	0.213106
1170.550007	0.218695
1170.702720	0.193833
1170.855415	0.175871
1171.008092	0.183951
1171.160751	0.190426
1171.313392	0.205726
1171.466014	0.129308
1171.618619	0.278453
1171.771205	0.278453
1171.923772	0.278453
