sample name	sample
index	122
start time	 02-15-2021  12:47:39 PM


Wavelength (nm)	Absorbance
494.344910	-0.097934
494.563924	-0.097934
494.782919	-0.097934
495.001897	-0.282714
495.220856	-0.169124
495.439797	-0.166431
495.658719	-0.078309
495.877624	-0.022551
496.096510	0.024365
496.315378	0.218617
496.534227	0.305347
496.753059	0.151444
496.971872	0.355582
497.190667	0.174075
497.409444	0.130640
497.628203	0.112213
497.846943	0.109642
498.065665	0.107889
498.284369	0.104915
498.503055	0.102389
498.721723	0.104390
498.940372	0.104068
499.159003	0.103526
499.377616	0.103575
499.596210	0.106025
499.814787	0.105602
500.033345	0.106523
500.251885	0.106983
500.470406	0.107018
500.688910	0.108529
500.907395	0.108686
501.125862	0.108510
501.344311	0.108225
501.562742	0.106285
501.781154	0.105546
501.999548	0.104641
502.217924	0.103065
502.436282	0.103350
502.654621	0.100160
502.872942	0.100704
503.091245	0.099551
503.309530	0.100695
503.527797	0.101478
503.746045	0.102570
503.964275	0.102425
504.182487	0.105364
504.400681	0.107248
504.618856	0.107640
504.837013	0.105759
505.055152	0.107160
505.273273	0.105786
505.491376	0.106700
505.709460	0.106366
505.927526	0.108998
506.145574	0.108245
506.363604	0.107118
506.581615	0.108299
506.799608	0.109774
507.017583	0.109633
507.235540	0.110882
507.453478	0.108039
507.671399	0.109741
507.889301	0.109100
508.107185	0.107148
508.325050	0.107381
508.542898	0.108125
508.760727	0.106580
508.978538	0.107332
509.196330	0.108706
509.414105	0.112149
509.631861	0.112128
509.849599	0.111672
510.067319	0.115179
510.285021	0.115716
510.502704	0.116674
510.720369	0.116731
510.938016	0.116102
511.155645	0.115027
511.373255	0.112853
511.590848	0.112772
511.808422	0.112811
512.025977	0.111924
512.243515	0.111363
512.461034	0.110148
512.678536	0.111019
512.896018	0.109948
513.113483	0.110433
513.330930	0.113777
513.548358	0.113956
513.765768	0.114222
513.983160	0.113476
514.200533	0.113587
514.417889	0.115620
514.635226	0.116900
514.852545	0.117887
515.069845	0.119339
515.287128	0.117850
515.504392	0.117005
515.721638	0.117250
515.938866	0.116760
516.156075	0.117122
516.373267	0.116228
516.590440	0.115953
516.807594	0.117639
517.024731	0.117279
517.241850	0.117709
517.458950	0.119256
517.676032	0.121483
517.893095	0.123739
518.110141	0.123939
518.327168	0.124966
518.544177	0.125767
518.761168	0.125891
518.978141	0.123774
519.195095	0.124576
519.412031	0.125751
519.628949	0.123910
519.845849	0.123628
520.062731	0.125242
520.279594	0.124101
520.496439	0.123465
520.713266	0.122172
520.930074	0.124258
521.146865	0.123495
521.363637	0.121168
521.580391	0.121105
521.797127	0.121200
522.013844	0.119893
522.230543	0.119642
522.447224	0.120698
522.663887	0.122708
522.880532	0.122220
523.097158	0.122748
523.313766	0.123667
523.530356	0.124705
523.746928	0.125077
523.963481	0.126587
524.180017	0.127178
524.396534	0.127503
524.613032	0.126284
524.829513	0.126888
525.045975	0.126912
525.262420	0.127445
525.478845	0.127585
525.695253	0.127736
525.911643	0.127355
526.128014	0.128385
526.344367	0.128387
526.560702	0.128778
526.777018	0.129356
526.993316	0.130548
527.209597	0.130551
527.425858	0.130690
527.642102	0.130684
527.858328	0.130848
528.074535	0.131185
528.290724	0.130632
528.506894	0.132236
528.723047	0.132885
528.939181	0.132469
529.155297	0.132800
529.371395	0.134122
529.587475	0.134608
529.803536	0.135642
530.019579	0.134972
530.235604	0.136332
530.451611	0.136396
530.667600	0.136709
530.883570	0.138109
531.099522	0.138746
531.315456	0.138191
531.531372	0.138802
531.747269	0.138237
531.963148	0.140206
532.179009	0.139967
532.394852	0.140507
532.610676	0.140181
532.826482	0.139344
533.042271	0.138629
533.258040	0.137424
533.473792	0.137816
533.689525	0.138516
533.905240	0.138730
534.120937	0.138608
534.336616	0.138274
534.552277	0.139498
534.767919	0.139613
534.983543	0.140347
535.199149	0.141442
535.414736	0.142043
535.630306	0.143188
535.845857	0.142242
536.061390	0.142647
536.276904	0.143235
536.492401	0.142635
536.707879	0.142940
536.923339	0.143193
537.138781	0.143207
537.354204	0.143971
537.569610	0.143919
537.784997	0.143521
538.000366	0.144462
538.215716	0.144598
538.431049	0.145115
538.646363	0.144634
538.861659	0.146520
539.076937	0.148436
539.292196	0.147582
539.507438	0.146717
539.722661	0.147490
539.937866	0.147425
540.153052	0.147411
540.368221	0.147528
540.583371	0.148711
540.798503	0.147968
541.013617	0.147831
541.228712	0.149197
541.443789	0.149568
541.658848	0.150530
541.873889	0.151239
542.088912	0.152117
542.303916	0.152006
542.518902	0.152577
542.733870	0.152617
542.948820	0.152656
543.163752	0.151837
543.378665	0.151704
543.593560	0.151729
543.808437	0.152337
544.023295	0.151802
544.238136	0.152543
544.452958	0.153022
544.667762	0.153039
544.882548	0.153433
545.097315	0.153880
545.312064	0.155682
545.526795	0.155496
545.741508	0.154978
545.956203	0.154843
546.170879	0.155803
546.385537	0.155624
546.600177	0.156704
546.814799	0.157456
547.029402	0.158093
547.243988	0.157705
547.458555	0.158794
547.673103	0.158647
547.887634	0.159571
548.102146	0.158938
548.316640	0.159885
548.531116	0.159198
548.745574	0.159554
548.960013	0.158989
549.174435	0.160112
549.388838	0.160099
549.603222	0.161181
549.817589	0.162019
550.031937	0.162709
550.246267	0.162665
550.460579	0.163575
550.674873	0.163216
550.889148	0.163568
551.103405	0.162662
551.317644	0.163336
551.531865	0.163547
551.746068	0.163085
551.960252	0.163502
552.174418	0.163030
552.388566	0.163518
552.602696	0.163603
552.816807	0.164250
553.030900	0.164300
553.244975	0.163882
553.459032	0.164611
553.673070	0.165359
553.887091	0.165135
554.101093	0.166521
554.315077	0.167137
554.529042	0.167482
554.742990	0.167350
554.956919	0.168015
555.170830	0.168108
555.384722	0.167737
555.598597	0.166877
555.812453	0.166826
556.026291	0.166339
556.240111	0.165931
556.453913	0.166029
556.667696	0.167285
556.881461	0.167533
557.095208	0.167667
557.308937	0.167420
557.522647	0.167939
557.736339	0.168820
557.950013	0.169039
558.163669	0.170325
558.377307	0.170301
558.590926	0.169664
558.804527	0.170156
559.018110	0.170684
559.231675	0.170549
559.445221	0.171954
559.658749	0.171517
559.872259	0.171428
560.085751	0.169865
560.299225	0.169988
560.512680	0.170495
560.726117	0.170304
560.939536	0.170098
561.152937	0.171098
561.366319	0.170581
561.579683	0.171410
561.793029	0.172340
562.006357	0.172760
562.219667	0.173365
562.432958	0.173853
562.646231	0.172413
562.859486	0.172785
563.072723	0.172682
563.285941	0.172375
563.499141	0.172629
563.712323	0.172519
563.925487	0.173094
564.138632	0.173134
564.351760	0.172854
564.564869	0.174825
564.777960	0.174986
564.991032	0.175305
565.204087	0.175891
565.417123	0.175872
565.630141	0.175899
565.843140	0.175619
566.056122	0.176444
566.269085	0.176455
566.482030	0.176383
566.694957	0.177290
566.907866	0.177601
567.120756	0.177233
567.333628	0.177402
567.546482	0.177760
567.759318	0.178624
567.972135	0.178333
568.184935	0.179315
568.397716	0.179523
568.610478	0.179250
568.823223	0.177929
569.035949	0.178639
569.248657	0.179472
569.461347	0.179867
569.674019	0.179614
569.886672	0.179136
570.099308	0.178827
570.311925	0.179088
570.524523	0.179646
570.737104	0.181449
570.949666	0.181689
571.162210	0.181040
571.374736	0.180808
571.587244	0.181319
571.799733	0.182426
572.012205	0.182394
572.224658	0.182764
572.437092	0.182891
572.649509	0.183229
572.861907	0.183550
573.074287	0.183457
573.286649	0.183762
573.498993	0.183554
573.711318	0.182744
573.923625	0.182988
574.135914	0.182920
574.348185	0.181447
574.560438	0.181571
574.772672	0.181693
574.984888	0.181959
575.197086	0.182017
575.409266	0.182377
575.621427	0.183634
575.833570	0.183817
576.045695	0.183306
576.257802	0.184649
576.469890	0.184142
576.681961	0.184193
576.894013	0.183917
577.106046	0.184274
577.318062	0.185183
577.530059	0.185142
577.742039	0.184956
577.954000	0.185575
578.165942	0.185804
578.377867	0.186815
578.589773	0.186548
578.801661	0.187268
579.013531	0.187260
579.225382	0.186168
579.437216	0.186193
579.649031	0.186634
579.860828	0.186963
580.072606	0.187350
580.284367	0.187303
580.496109	0.187874
580.707833	0.188141
580.919539	0.188841
581.131227	0.190073
581.342896	0.189935
581.554547	0.189806
581.766180	0.190068
581.977795	0.190070
582.189391	0.189795
582.400969	0.190271
582.612529	0.190563
582.824071	0.190792
583.035595	0.190471
583.247100	0.190886
583.458587	0.191028
583.670056	0.191065
583.881506	0.191654
584.092939	0.191596
584.304353	0.191168
584.515749	0.191142
584.727127	0.190779
584.938486	0.190878
585.149828	0.190612
585.361151	0.190959
585.572456	0.191654
585.783742	0.191227
585.995011	0.191686
586.206261	0.192627
586.417493	0.192980
586.628706	0.192974
586.839902	0.193906
587.051079	0.194280
587.262238	0.194907
587.473379	0.195469
587.684502	0.196152
587.895606	0.196674
588.106692	0.196511
588.317760	0.196534
588.528810	0.196949
588.739841	0.195955
588.950855	0.196178
589.161850	0.195949
589.372827	0.195428
589.583785	0.195192
589.794726	0.195363
590.005648	0.194951
590.216552	0.194527
590.427437	0.195343
590.638305	0.196376
590.849154	0.196638
591.059985	0.196927
591.270798	0.196631
591.481592	0.197280
591.692369	0.197606
591.903127	0.198707
592.113867	0.199602
592.324588	0.198770
592.535292	0.198575
592.745977	0.198774
592.956644	0.198958
593.167293	0.199223
593.377923	0.199191
593.588536	0.199613
593.799130	0.199659
594.009706	0.199863
594.220263	0.200650
594.430803	0.200836
594.641324	0.201665
594.851827	0.202270
595.062312	0.202331
595.272778	0.202090
595.483227	0.201168
595.693657	0.200850
595.904069	0.201021
596.114462	0.201237
596.324838	0.201602
596.535195	0.200909
596.745534	0.200048
596.955855	0.200711
597.166157	0.201564
597.376441	0.202509
597.586707	0.203192
597.796955	0.203758
598.007185	0.204323
598.217396	0.205374
598.427589	0.206341
598.637764	0.207857
598.847921	0.208460
599.058060	0.208226
599.268180	0.208763
599.478282	0.208508
599.688366	0.208116
599.898431	0.207757
600.108479	0.207409
600.318508	0.207552
600.528519	0.207172
600.738511	0.206953
600.948486	0.207747
601.158442	0.206872
601.368380	0.207485
601.578300	0.207900
601.788202	0.207941
601.998085	0.207606
602.207950	0.207216
602.417797	0.207540
602.627626	0.208125
602.837436	0.207275
603.047228	0.208259
603.257002	0.207983
603.466758	0.207639
603.676496	0.207515
603.886215	0.207523
604.095916	0.208442
604.305599	0.208411
604.515264	0.208052
604.724910	0.209044
604.934538	0.209590
605.144148	0.210099
605.353740	0.210986
605.563314	0.211502
605.772869	0.211933
605.982406	0.212146
606.191925	0.212135
606.401425	0.212224
606.610908	0.212574
606.820372	0.212180
607.029818	0.212641
607.239246	0.212420
607.448655	0.212216
607.658047	0.212691
607.867420	0.212501
608.076775	0.212595
608.286111	0.213202
608.495430	0.212151
608.704730	0.212456
608.914012	0.212219
609.123275	0.212389
609.332521	0.213033
609.541748	0.213369
609.750957	0.212842
609.960148	0.213729
610.169321	0.213473
610.378475	0.214846
610.587611	0.214338
610.796729	0.214566
611.005829	0.214945
611.214910	0.215280
611.423974	0.214978
611.633019	0.215564
611.842045	0.215400
612.051054	0.215970
612.260044	0.215792
612.469017	0.216999
612.677970	0.217099
612.886906	0.217094
613.095824	0.216357
613.304723	0.216062
613.513604	0.216433
613.722467	0.216669
613.931311	0.216827
614.140138	0.216830
614.348946	0.216439
614.557736	0.216726
614.766507	0.216929
614.975261	0.217619
615.183996	0.217739
615.392713	0.218071
615.601412	0.218162
615.810092	0.218367
616.018754	0.218388
616.227399	0.218756
616.436024	0.218896
616.644632	0.219072
616.853222	0.219176
617.061793	0.219764
617.270346	0.219502
617.478880	0.219524
617.687397	0.219480
617.895895	0.219477
618.104375	0.219510
618.312837	0.219831
618.521281	0.219675
618.729706	0.220404
618.938113	0.220676
619.146502	0.220787
619.354873	0.220676
619.563226	0.221422
619.771560	0.222091
619.979876	0.222027
620.188174	0.221748
620.396453	0.221341
620.604715	0.221322
620.812958	0.221303
621.021183	0.221464
621.229390	0.222163
621.437578	0.221507
621.645748	0.221757
621.853900	0.222393
622.062034	0.222919
622.270150	0.224326
622.478247	0.224493
622.686326	0.224766
622.894387	0.225017
623.102430	0.224929
623.310454	0.225166
623.518461	0.225336
623.726449	0.225091
623.934418	0.224986
624.142370	0.224557
624.350303	0.224750
624.558218	0.225195
624.766115	0.225505
624.973994	0.225847
625.181855	0.226475
625.389697	0.226693
625.597521	0.227107
625.805327	0.227213
626.013114	0.227184
626.220883	0.227012
626.428634	0.227420
626.636367	0.227741
626.844082	0.227356
627.051778	0.227430
627.259457	0.227588
627.467117	0.227839
627.674758	0.228167
627.882382	0.228999
628.089987	0.229145
628.297574	0.228475
628.505143	0.228655
628.712694	0.229592
628.920226	0.229316
629.127740	0.229263
629.335236	0.229108
629.542714	0.228802
629.750174	0.228682
629.957615	0.229152
630.165038	0.229759
630.372443	0.229138
630.579829	0.228884
630.787198	0.229488
630.994548	0.229545
631.201880	0.230071
631.409194	0.230629
631.616489	0.230739
631.823766	0.230677
632.031025	0.230836
632.238266	0.231803
632.445489	0.232181
632.652693	0.232396
632.859879	0.232329
633.067047	0.231954
633.274197	0.232974
633.481329	0.233585
633.688442	0.234050
633.895537	0.234319
634.102614	0.234296
634.309672	0.234189
634.516713	0.234753
634.723735	0.235747
634.930739	0.236680
635.137724	0.236168
635.344692	0.236524
635.551641	0.236308
635.758572	0.236257
635.965485	0.236548
636.172379	0.237184
636.379256	0.237057
636.586114	0.237047
636.792954	0.236765
636.999775	0.237092
637.206579	0.237265
637.413364	0.238316
637.620131	0.238709
637.826880	0.238971
638.033610	0.238782
638.240323	0.239111
638.447017	0.238882
638.653692	0.239298
638.860350	0.239791
639.066990	0.239533
639.273611	0.239173
639.480214	0.239635
639.686798	0.239612
639.893365	0.240697
640.099913	0.240915
640.306443	0.241569
640.512955	0.241749
640.719449	0.241385
640.925924	0.241752
641.132381	0.242017
641.338820	0.241600
641.545241	0.241764
641.751644	0.241495
641.958028	0.241678
642.164394	0.241312
642.370742	0.241234
642.577071	0.241280
642.783383	0.241303
642.989676	0.241675
643.195951	0.242258
643.402207	0.242637
643.608446	0.243095
643.814666	0.243169
644.020868	0.243795
644.227052	0.244052
644.433218	0.244620
644.639365	0.244860
644.845494	0.244918
645.051605	0.245372
645.257698	0.245804
645.463772	0.245525
645.669828	0.245306
645.875866	0.245812
646.081886	0.245606
646.287888	0.245901
646.493871	0.246299
646.699836	0.246704
646.905783	0.246324
647.111712	0.246702
647.317622	0.246991
647.523514	0.247531
647.729388	0.247089
647.935244	0.247986
648.141082	0.248659
648.346901	0.248930
648.552702	0.249292
648.758485	0.250084
648.964250	0.249582
649.169996	0.249469
649.375724	0.249722
649.581434	0.250125
649.787126	0.250120
649.992800	0.250103
650.198455	0.250640
650.404092	0.250573
650.609711	0.250765
650.815311	0.250849
651.020894	0.251367
651.226458	0.251279
651.432004	0.251670
651.637532	0.251985
651.843041	0.252026
652.048532	0.251586
652.254006	0.251736
652.459460	0.251766
652.664897	0.252162
652.870315	0.252486
653.075716	0.252559
653.281097	0.252439
653.486461	0.252750
653.691807	0.252960
653.897134	0.253207
654.102443	0.253047
654.307734	0.253181
654.513006	0.253706
654.718261	0.253902
654.923497	0.254524
655.128715	0.254281
655.333915	0.254271
655.539096	0.254195
655.744259	0.254430
655.949404	0.255167
656.154531	0.255604
656.359640	0.255731
656.564730	0.256005
656.769802	0.256304
656.974856	0.257367
657.179892	0.257858
657.384909	0.258282
657.589908	0.258920
657.794889	0.258956
657.999852	0.259489
658.204797	0.259539
658.409723	0.259821
658.614631	0.260073
658.819521	0.260422
659.024393	0.260705
659.229246	0.261171
659.434081	0.261057
659.638898	0.261891
659.843697	0.261842
660.048478	0.261934
660.253240	0.262026
660.457984	0.261988
660.662710	0.262379
660.867417	0.262856
661.072107	0.262814
661.276778	0.263328
661.481431	0.263064
661.686066	0.263215
661.890682	0.263888
662.095281	0.264188
662.299861	0.264697
662.504422	0.264985
662.708966	0.265411
662.913491	0.266483
663.117999	0.266252
663.322488	0.267281
663.526958	0.267789
663.731411	0.268036
663.935845	0.268601
664.140261	0.268760
664.344659	0.268893
664.549038	0.268768
664.753400	0.268634
664.957743	0.269105
665.162068	0.268609
665.366375	0.268732
665.570663	0.269145
665.774933	0.269091
665.979185	0.269277
666.183419	0.269310
666.387635	0.269679
666.591832	0.269954
666.796011	0.270406
667.000172	0.270517
667.204315	0.271014
667.408439	0.271106
667.612545	0.271292
667.816634	0.271507
668.020703	0.272229
668.224755	0.272391
668.428788	0.272584
668.632803	0.272820
668.836800	0.273350
669.040779	0.272962
669.244739	0.272930
669.448681	0.273210
669.652605	0.273653
669.856511	0.273618
670.060399	0.273637
670.264268	0.273754
670.468119	0.274393
670.671952	0.274413
670.875767	0.275002
671.079563	0.275735
671.283341	0.275949
671.487101	0.276386
671.690843	0.276412
671.894567	0.276535
672.098272	0.276735
672.301959	0.276884
672.505628	0.277313
672.709278	0.277401
672.912911	0.277623
673.116525	0.278202
673.320121	0.278492
673.523699	0.278753
673.727258	0.279562
673.930799	0.279726
674.134322	0.279859
674.337827	0.280367
674.541314	0.280960
674.744782	0.280963
674.948232	0.281620
675.151664	0.282117
675.355078	0.282501
675.558474	0.282694
675.761851	0.283333
675.965210	0.283651
676.168551	0.283481
676.371873	0.283376
676.575178	0.284027
676.778464	0.283566
676.981732	0.282964
677.184981	0.282882
677.388213	0.283124
677.591426	0.282963
677.794621	0.283595
677.997798	0.284427
678.200956	0.284895
678.404097	0.285306
678.607219	0.286105
678.810323	0.286528
679.013408	0.287048
679.216476	0.286753
679.419525	0.286716
679.622556	0.286702
679.825569	0.286902
680.028563	0.287426
680.231540	0.287839
680.434498	0.287497
680.637438	0.288121
680.840359	0.288774
681.043263	0.289265
681.246148	0.290331
681.449015	0.290606
681.651864	0.290402
681.854694	0.290328
682.057506	0.289743
682.260301	0.290502
682.463076	0.290902
682.665834	0.290632
682.868573	0.290879
683.071295	0.290736
683.273998	0.290556
683.476682	0.290500
683.679349	0.290945
683.881997	0.291326
684.084627	0.291194
684.287239	0.291164
684.489833	0.291711
684.692408	0.292054
684.894965	0.292605
685.097504	0.292652
685.300025	0.292933
685.502527	0.292849
685.705012	0.293160
685.907478	0.293268
686.109925	0.293503
686.312355	0.293448
686.514766	0.293920
686.717159	0.293521
686.919534	0.294123
687.121891	0.294586
687.324230	0.295196
687.526550	0.295465
687.728852	0.295816
687.931136	0.296148
688.133401	0.296306
688.335649	0.296626
688.537878	0.296903
688.740089	0.297094
688.942281	0.297650
689.144456	0.297874
689.346612	0.298458
689.548750	0.298742
689.750870	0.298897
689.952971	0.299177
690.155055	0.299058
690.357120	0.299811
690.559167	0.300070
690.761195	0.299935
690.963206	0.299677
691.165198	0.299679
691.367172	0.299490
691.569128	0.299629
691.771065	0.300216
691.972984	0.300187
692.174885	0.299902
692.376768	0.299808
692.578633	0.299943
692.780479	0.300204
692.982308	0.300305
693.184118	0.300980
693.385909	0.301488
693.587683	0.301135
693.789438	0.301239
693.991175	0.301252
694.192894	0.301686
694.394595	0.302127
694.596277	0.302329
694.797941	0.302397
694.999587	0.302062
695.201215	0.301467
695.402824	0.301369
695.604416	0.301932
695.805989	0.302274
696.007543	0.302558
696.209080	0.302462
696.410598	0.302334
696.612099	0.302286
696.813580	0.302787
697.015044	0.303507
697.216490	0.303969
697.417917	0.304253
697.619326	0.304417
697.820717	0.304382
698.022089	0.304581
698.223444	0.304974
698.424780	0.305837
698.626098	0.305618
698.827397	0.305513
699.028679	0.305762
699.229942	0.305502
699.431187	0.305210
699.632414	0.305546
699.833622	0.305862
700.034813	0.306116
700.235985	0.306029
700.437139	0.306822
700.638274	0.307032
700.839392	0.306856
701.040491	0.306674
701.241572	0.307326
701.442635	0.306964
701.643679	0.306806
701.844706	0.306760
702.045714	0.306358
702.246704	0.306269
702.447675	0.306248
702.648629	0.306611
702.849564	0.306580
703.050481	0.306953
703.251380	0.306862
703.452260	0.307069
703.653122	0.306950
703.853966	0.306944
704.054792	0.306727
704.255600	0.306814
704.456389	0.306525
704.657160	0.307013
704.857913	0.306752
705.058648	0.307018
705.259365	0.307048
705.460063	0.307056
705.660743	0.307554
705.861405	0.307539
706.062048	0.307947
706.262674	0.308694
706.463281	0.308990
706.663870	0.309114
706.864441	0.309323
707.064993	0.309506
707.265527	0.309525
707.466043	0.309439
707.666541	0.309739
707.867021	0.308988
708.067482	0.309013
708.267925	0.308923
708.468350	0.308594
708.668757	0.308134
708.869145	0.307817
709.069516	0.307779
709.269868	0.307466
709.470201	0.307233
709.670517	0.307920
709.870814	0.307520
710.071093	0.307414
710.271354	0.307682
710.471597	0.308068
710.671821	0.307925
710.872028	0.308506
711.072216	0.308540
711.272385	0.308533
711.472537	0.308142
711.672670	0.308242
711.872785	0.307979
712.072882	0.307779
712.272961	0.307569
712.473021	0.307155
712.673063	0.306615
712.873087	0.307015
713.073093	0.307124
713.273081	0.307120
713.473050	0.306907
713.673001	0.307318
713.872934	0.307315
714.072849	0.307788
714.272745	0.308320
714.472623	0.308657
714.672483	0.308595
714.872325	0.308240
715.072148	0.307933
715.271954	0.308059
715.471741	0.307875
715.671509	0.307791
715.871260	0.307048
716.070992	0.306999
716.270707	0.306894
716.470403	0.306551
716.670080	0.306649
716.869740	0.306960
717.069381	0.306763
717.269004	0.306495
717.468609	0.306485
717.668195	0.306834
717.867764	0.306680
718.067314	0.306433
718.266846	0.306236
718.466360	0.306341
718.665855	0.306083
718.865332	0.306243
719.064791	0.306172
719.264232	0.306010
719.463655	0.305767
719.663059	0.305782
719.862445	0.305871
720.061813	0.305514
720.261163	0.305374
720.460494	0.305557
720.659807	0.304786
720.859102	0.304817
721.058379	0.304461
721.257638	0.303870
721.456878	0.303653
721.656100	0.303264
721.855304	0.303401
722.054490	0.303200
722.253657	0.302527
722.452806	0.302316
722.651937	0.302226
722.851050	0.302415
723.050145	0.302469
723.249221	0.302221
723.448279	0.302498
723.647319	0.302422
723.846340	0.301928
724.045344	0.302234
724.244329	0.303084
724.443296	0.302776
724.642245	0.302570
724.841175	0.302682
725.040088	0.302418
725.238982	0.301897
725.437857	0.301600
725.636715	0.301239
725.835554	0.300210
726.034376	0.299173
726.233179	0.298973
726.431963	0.298832
726.630730	0.298359
726.829478	0.298258
727.028208	0.298180
727.226920	0.298245
727.425614	0.298427
727.624289	0.298861
727.822946	0.299070
728.021585	0.298081
728.220206	0.297628
728.418808	0.297386
728.617392	0.297258
728.815958	0.296709
729.014506	0.296596
729.213036	0.296486
729.411547	0.296580
729.610040	0.296235
729.808515	0.297034
730.006972	0.297227
730.205410	0.297069
730.403831	0.296764
730.602233	0.296991
730.800616	0.296646
730.998982	0.296617
731.197329	0.296411
731.395658	0.296532
731.593969	0.296098
731.792262	0.295884
731.990536	0.296020
732.188793	0.296213
732.387031	0.296051
732.585250	0.295504
732.783452	0.295447
732.981635	0.295553
733.179800	0.295145
733.377947	0.295250
733.576076	0.295086
733.774186	0.294867
733.972278	0.294428
734.170352	0.294324
734.368408	0.294008
734.566446	0.293579
734.764465	0.292840
734.962466	0.292266
735.160449	0.291497
735.358413	0.290949
735.556360	0.290899
735.754288	0.290210
735.952198	0.289723
736.150090	0.289960
736.347963	0.289446
736.545818	0.289354
736.743655	0.288737
736.941474	0.288912
737.139275	0.288857
737.337057	0.288455
737.534821	0.288405
737.732567	0.287964
737.930295	0.287770
738.128005	0.287945
738.325696	0.287460
738.523369	0.288259
738.721024	0.287797
738.918660	0.287479
739.116279	0.287006
739.313879	0.287113
739.511461	0.286407
739.709024	0.285647
739.906570	0.285342
740.104097	0.285271
740.301606	0.284763
740.499097	0.284867
740.696569	0.284834
740.894024	0.284598
741.091460	0.284432
741.288878	0.284587
741.486277	0.284881
741.683659	0.284689
741.881022	0.284782
742.078367	0.284745
742.275694	0.283876
742.473002	0.283441
742.670293	0.283539
742.867565	0.283438
743.064819	0.283593
743.262054	0.283251
743.459272	0.282677
743.656471	0.282054
743.853652	0.281650
744.050815	0.281826
744.247959	0.281884
744.445085	0.281591
744.642194	0.281092
744.839283	0.280633
745.036355	0.280211
745.233408	0.279808
745.430444	0.279565
745.627461	0.279198
745.824459	0.278752
746.021440	0.278058
746.218402	0.277821
746.415346	0.277409
746.612272	0.277434
746.809180	0.277405
747.006069	0.277539
747.202940	0.276969
747.399793	0.276691
747.596628	0.276614
747.793444	0.276361
747.990243	0.276419
748.187023	0.276374
748.383784	0.275849
748.580528	0.275880
748.777253	0.275539
748.973960	0.275513
749.170649	0.275327
749.367320	0.275361
749.563973	0.275085
749.760607	0.274544
749.957223	0.274537
750.153821	0.274521
750.350400	0.274434
750.546962	0.274551
750.743505	0.274294
750.940030	0.274486
751.136536	0.274383
751.333025	0.274788
751.529495	0.275142
751.725947	0.274722
751.922381	0.274353
752.118796	0.273931
752.315194	0.273859
752.511573	0.273758
752.707934	0.273342
752.904276	0.272884
753.100601	0.272436
753.296907	0.271787
753.493195	0.271906
753.689465	0.271693
753.885716	0.271398
754.081949	0.270539
754.278164	0.270268
754.474361	0.270034
754.670540	0.270254
754.866700	0.269967
755.062843	0.269386
755.258967	0.268948
755.455072	0.268793
755.651160	0.268218
755.847229	0.268177
756.043280	0.267881
756.239313	0.267864
756.435328	0.267123
756.631324	0.266993
756.827302	0.267120
757.023262	0.267086
757.219204	0.266685
757.415127	0.266537
757.611033	0.266327
757.806920	0.266448
758.002788	0.265771
758.198639	0.265727
758.394471	0.265440
758.590286	0.265034
758.786081	0.264844
758.981859	0.264780
759.177619	0.265383
759.373360	0.264935
759.569083	0.264557
759.764788	0.264721
759.960474	0.264596
760.156143	0.264719
760.351793	0.264457
760.547425	0.263984
760.743038	0.263906
760.938634	0.263020
761.134211	0.263285
761.329770	0.263326
761.525311	0.263135
761.720833	0.263212
761.916338	0.262931
762.111824	0.263056
762.307292	0.262660
762.502741	0.262113
762.698173	0.262549
762.893586	0.262088
763.088981	0.261790
763.284358	0.261592
763.479716	0.260763
763.675057	0.260420
763.870379	0.259935
764.065683	0.259969
764.260968	0.259979
764.456236	0.259050
764.651485	0.259183
764.846716	0.259560
765.041929	0.259343
765.237123	0.259607
765.432299	0.259629
765.627457	0.260186
765.822597	0.259758
766.017719	0.260143
766.212822	0.260281
766.407907	0.259832
766.602974	0.259426
766.798023	0.259417
766.993054	0.259333
767.188066	0.258972
767.383060	0.258351
767.578036	0.258453
767.772993	0.257670
767.967933	0.257794
768.162854	0.257148
768.357757	0.256657
768.552642	0.256756
768.747508	0.256158
768.942356	0.256180
769.137186	0.256215
769.331998	0.256255
769.526792	0.256983
769.721567	0.256683
769.916324	0.257515
770.111063	0.257647
770.305784	0.257311
770.500486	0.257589
770.695171	0.257222
770.889837	0.256723
771.084484	0.256586
771.279114	0.256103
771.473725	0.256247
771.668318	0.256457
771.862893	0.256593
772.057450	0.256070
772.251988	0.256173
772.446509	0.256291
772.641011	0.256802
772.835494	0.257073
773.029960	0.257413
773.224407	0.256982
773.418836	0.256285
773.613247	0.256571
773.807640	0.256679
774.002014	0.256281
774.196370	0.256479
774.390708	0.256671
774.585028	0.256718
774.779330	0.256133
774.973613	0.256218
775.167878	0.256220
775.362125	0.255953
775.556354	0.255922
775.750564	0.256383
775.944756	0.256265
776.138930	0.255815
776.333086	0.255838
776.527223	0.255711
776.721343	0.255311
776.915444	0.255476
777.109526	0.255348
777.303591	0.255775
777.497637	0.255078
777.691666	0.255090
777.885676	0.255057
778.079667	0.254253
778.273641	0.254737
778.467596	0.254785
778.661533	0.254958
778.855452	0.254425
779.049352	0.254156
779.243235	0.254612
779.437099	0.254604
779.630945	0.254753
779.824773	0.254835
780.018582	0.254700
780.212373	0.254976
780.406146	0.254989
780.599901	0.255525
780.793638	0.255611
780.987356	0.255509
781.181056	0.254946
781.374738	0.254844
781.568402	0.254777
781.762047	0.254717
781.955674	0.254565
782.149283	0.254539
782.342874	0.254314
782.536447	0.253787
782.730001	0.253873
782.923537	0.254766
783.117055	0.254443
783.310555	0.254610
783.504036	0.254361
783.697499	0.254860
783.890944	0.254747
784.084371	0.254783
784.277780	0.255380
784.471170	0.255595
784.664542	0.254939
784.857896	0.255410
785.051231	0.255290
785.244549	0.255602
785.437848	0.255641
785.631129	0.255711
785.824392	0.255558
786.017636	0.255631
786.210863	0.255354
786.404071	0.255873
786.597260	0.255546
786.790432	0.255947
786.983585	0.255847
787.176721	0.255565
787.369838	0.255654
787.562936	0.255925
787.756017	0.255984
787.949079	0.256286
788.142123	0.256174
788.335149	0.256519
788.528156	0.256783
788.721146	0.257153
788.914117	0.256979
789.107070	0.256827
789.300005	0.257096
789.492921	0.256994
789.685819	0.256339
789.878699	0.256523
790.071561	0.256335
790.264405	0.255944
790.457230	0.255460
790.650037	0.255604
790.842826	0.255691
791.035597	0.255594
791.228349	0.255656
791.421084	0.255910
791.613800	0.255797
791.806497	0.255948
791.999177	0.256402
792.191838	0.256926
792.384481	0.257219
792.577106	0.257646
792.769713	0.257322
792.962301	0.257516
793.154871	0.257687
793.347423	0.258065
793.539957	0.258039
793.732473	0.257808
793.924970	0.257599
794.117449	0.257989
794.309910	0.258074
794.502353	0.259022
794.694777	0.259264
794.887183	0.259585
795.079571	0.259694
795.271941	0.260048
795.464293	0.260593
795.656626	0.260888
795.848941	0.260909
796.041238	0.260830
796.233516	0.260923
796.425777	0.260637
796.618019	0.260928
796.810243	0.260849
797.002449	0.260783
797.194636	0.260792
797.386805	0.260929
797.578956	0.260964
797.771089	0.261218
797.963204	0.261156
798.155300	0.261840
798.347378	0.261929
798.539438	0.262515
798.731480	0.263031
798.923503	0.263109
799.115509	0.263670
799.307496	0.264053
799.499465	0.264061
799.691415	0.264448
799.883348	0.263914
800.075262	0.264190
800.267158	0.264477
800.459035	0.264951
800.650895	0.265194
800.842736	0.265275
801.034559	0.265193
801.226364	0.265794
801.418150	0.265677
801.609919	0.266585
801.801669	0.266621
801.993401	0.266482
802.185114	0.266623
802.376810	0.266836
802.568487	0.266881
802.760146	0.267671
802.951787	0.267904
803.143409	0.267874
803.335014	0.268167
803.526600	0.268624
803.718168	0.268765
803.909717	0.268390
804.101249	0.268694
804.292762	0.268258
804.484257	0.267718
804.675734	0.267738
804.867192	0.268159
805.058632	0.268233
805.250054	0.268172
805.441458	0.267995
805.632844	0.267981
805.824211	0.268164
806.015561	0.268645
806.206891	0.268471
806.398204	0.268399
806.589499	0.268698
806.780775	0.268477
806.972033	0.269036
807.163273	0.269164
807.354495	0.270061
807.545698	0.270107
807.736883	0.270680
807.928050	0.271426
808.119199	0.272026
808.310329	0.272043
808.501441	0.272556
808.692535	0.272953
808.883611	0.273642
809.074669	0.273909
809.265708	0.274486
809.456729	0.274718
809.647732	0.275599
809.838717	0.275441
810.029683	0.275624
810.220632	0.276048
810.411562	0.275372
810.602474	0.275195
810.793367	0.274579
810.984242	0.274789
811.175100	0.274706
811.365938	0.274220
811.556759	0.274534
811.747562	0.275250
811.938346	0.274895
812.129112	0.275616
812.319860	0.275953
812.510589	0.276897
812.701300	0.277048
812.891994	0.278008
813.082668	0.278718
813.273325	0.279575
813.463964	0.279806
813.654584	0.280382
813.845186	0.280426
814.035769	0.281547
814.226335	0.282052
814.416882	0.282342
814.607411	0.282302
814.797922	0.282279
814.988415	0.281950
815.178889	0.282181
815.369345	0.282586
815.559783	0.283329
815.750203	0.282963
815.940605	0.282571
816.130988	0.283013
816.321353	0.283118
816.511700	0.283431
816.702028	0.283998
816.892339	0.284424
817.082631	0.284504
817.272905	0.284874
817.463161	0.285735
817.653398	0.286848
817.843617	0.286880
818.033819	0.287405
818.224001	0.287957
818.414166	0.288147
818.604312	0.288153
818.794440	0.289058
818.984550	0.289245
819.174642	0.289287
819.364716	0.289370
819.554771	0.289986
819.744808	0.289951
819.934827	0.290551
820.124827	0.291370
820.314810	0.291606
820.504774	0.291748
820.694720	0.291861
820.884647	0.292097
821.074557	0.292422
821.264448	0.292401
821.454321	0.292835
821.644176	0.292810
821.834012	0.292914
822.023831	0.293113
822.213631	0.293645
822.403413	0.294139
822.593176	0.294657
822.782922	0.294849
822.972649	0.294932
823.162358	0.295513
823.352049	0.295342
823.541721	0.295234
823.731376	0.295886
823.921012	0.295834
824.110629	0.295762
824.300229	0.295705
824.489811	0.296133
824.679374	0.296795
824.868919	0.297501
825.058445	0.297927
825.247954	0.298523
825.437444	0.298777
825.626916	0.299898
825.816370	0.300683
826.005806	0.301066
826.195223	0.301481
826.384622	0.302495
826.574003	0.302633
826.763366	0.303509
826.952711	0.303639
827.142037	0.304131
827.331345	0.303914
827.520635	0.303845
827.709906	0.304088
827.899160	0.304824
828.088395	0.304572
828.277612	0.304341
828.466810	0.304944
828.655991	0.305723
828.845153	0.306121
829.034297	0.306609
829.223423	0.307739
829.412531	0.308592
829.601620	0.309167
829.790691	0.309744
829.979744	0.310701
830.168779	0.310829
830.357795	0.311291
830.546793	0.311327
830.735773	0.311680
830.924735	0.312167
831.113679	0.312593
831.302604	0.312501
831.491511	0.312875
831.680400	0.313257
831.869271	0.313774
832.058123	0.313822
832.246957	0.314946
832.435773	0.315247
832.624571	0.315411
832.813351	0.315313
833.002112	0.316073
833.190855	0.316344
833.379580	0.316899
833.568287	0.316904
833.756975	0.317228
833.945645	0.317068
834.134297	0.317569
834.322931	0.318058
834.511547	0.319049
834.700144	0.319318
834.888723	0.320036
835.077284	0.320035
835.265826	0.320810
835.454351	0.322256
835.642857	0.323302
835.831345	0.324161
836.019815	0.324377
836.208266	0.324840
836.396699	0.325466
836.585114	0.326054
836.773511	0.326956
836.961890	0.327947
837.150250	0.326990
837.338592	0.327639
837.526916	0.327052
837.715222	0.327361
837.903510	0.327218
838.091779	0.327159
838.280030	0.327448
838.468263	0.327257
838.656477	0.327293
838.844674	0.328423
839.032852	0.327789
839.221012	0.329187
839.409153	0.329985
839.597277	0.331397
839.785382	0.331823
839.973469	0.332304
840.161538	0.333314
840.349589	0.333892
840.537621	0.334493
840.725635	0.335142
840.913631	0.335351
841.101609	0.336474
841.289568	0.336549
841.477509	0.337409
841.665432	0.337405
841.853337	0.337051
842.041224	0.337472
842.229092	0.338156
842.416942	0.339166
842.604774	0.339574
842.792588	0.339295
842.980383	0.339488
843.168160	0.340031
843.355919	0.341773
843.543660	0.342624
843.731382	0.343464
843.919087	0.343623
844.106773	0.343209
844.294441	0.343913
844.482090	0.344113
844.669722	0.344083
844.857335	0.344132
845.044930	0.343938
845.232507	0.344856
845.420065	0.344760
845.607605	0.345582
845.795127	0.346718
845.982631	0.346193
846.170117	0.347127
846.357584	0.347463
846.545033	0.348389
846.732464	0.348905
846.919877	0.349454
847.107272	0.350001
847.294648	0.350045
847.482006	0.350779
847.669346	0.352162
847.856667	0.351727
848.043971	0.353091
848.231256	0.352860
848.418523	0.352944
848.605771	0.353433
848.793002	0.353344
848.980214	0.353555
849.167408	0.354670
849.354584	0.355090
849.541742	0.355792
849.728881	0.356093
849.916002	0.356140
850.103105	0.357092
850.290190	0.357435
850.477256	0.358340
850.664304	0.358790
850.851334	0.357868
851.038346	0.358625
851.225340	0.359571
851.412315	0.360119
851.599272	0.360883
851.786211	0.361142
851.973132	0.361251
852.160034	0.361901
852.346918	0.362659
852.533784	0.364339
852.720632	0.364064
852.907462	0.365122
853.094273	0.365516
853.281066	0.366419
853.467841	0.366220
853.654598	0.367266
853.841336	0.367984
854.028056	0.368212
854.214758	0.367829
854.401442	0.368145
854.588107	0.368328
854.774755	0.369303
854.961384	0.369683
855.147995	0.370706
855.334587	0.371466
855.521162	0.371870
855.707718	0.373084
855.894256	0.373705
856.080775	0.375054
856.267277	0.375341
856.453760	0.374339
856.640225	0.374729
856.826672	0.375807
857.013101	0.375242
857.199511	0.375491
857.385903	0.375566
857.572277	0.375574
857.758633	0.375381
857.944970	0.376146
858.131290	0.377877
858.317591	0.379089
858.503873	0.378624
858.690138	0.379135
858.876384	0.379142
859.062612	0.380044
859.248822	0.379695
859.435014	0.380297
859.621188	0.380009
859.807343	0.380053
859.993480	0.380475
860.179599	0.380850
860.365699	0.381935
860.551781	0.383132
860.737846	0.383254
860.923891	0.383877
861.109919	0.383742
861.295929	0.384789
861.481920	0.385166
861.667893	0.384973
861.853848	0.385889
862.039784	0.385831
862.225702	0.385297
862.411603	0.386341
862.597484	0.387576
862.783348	0.388673
862.969193	0.388661
863.155021	0.389283
863.340830	0.390304
863.526620	0.390670
863.712393	0.391342
863.898147	0.391896
864.083883	0.391346
864.269601	0.391421
864.455301	0.390507
864.640982	0.390567
864.826645	0.389149
865.012290	0.388625
865.197917	0.388991
865.383526	0.388821
865.569116	0.389057
865.754688	0.388997
865.940242	0.389321
866.125777	0.390052
866.311295	0.389551
866.496794	0.391275
866.682275	0.391252
866.867737	0.391059
867.053182	0.392454
867.238608	0.392103
867.424016	0.392207
867.609406	0.393330
867.794778	0.393727
867.980131	0.393896
868.165466	0.394395
868.350783	0.394378
868.536082	0.394378
868.721362	0.393811
868.906625	0.394746
869.091869	0.395895
869.277094	0.395792
869.462302	0.397005
869.647491	0.398298
869.832662	0.399010
870.017815	0.399988
870.202950	0.400970
870.388066	0.401059
870.573165	0.401252
870.758245	0.402456
870.943306	0.402224
871.128350	0.402537
871.313375	0.403618
871.498382	0.403414
871.683371	0.403418
871.868342	0.403015
872.053294	0.403023
872.238229	0.402537
872.423144	0.401578
872.608042	0.401975
872.792922	0.402224
872.977783	0.402074
873.162626	0.402778
873.347451	0.403324
873.532258	0.403614
873.717046	0.404874
873.901816	0.405800
874.086568	0.406307
874.271302	0.406796
874.456017	0.406523
874.640715	0.405521
874.825394	0.405170
875.010055	0.405880
875.194697	0.406430
875.379322	0.405933
875.563928	0.406406
875.748516	0.406810
875.933085	0.406798
876.117637	0.406851
876.302170	0.407785
876.486685	0.408088
876.671182	0.408851
876.855661	0.408874
877.040121	0.409455
877.224563	0.410241
877.408987	0.410177
877.593393	0.411546
877.777780	0.411540
877.962150	0.412293
878.146501	0.412054
878.330833	0.411481
878.515148	0.412118
878.699444	0.412364
878.883722	0.411673
879.067982	0.410941
879.252224	0.410383
879.436447	0.410935
879.620653	0.409892
879.804840	0.410250
879.989008	0.409382
880.173159	0.408559
880.357291	0.408328
880.541405	0.408997
880.725501	0.410087
880.909579	0.409221
881.093638	0.409437
881.277680	0.410266
881.461703	0.409802
881.645707	0.409166
881.829694	0.409769
882.013662	0.410986
882.197612	0.410621
882.381544	0.410881
882.565458	0.412481
882.749353	0.412032
882.933230	0.412412
883.117089	0.414386
883.300930	0.415092
883.484753	0.415206
883.668557	0.413727
883.852343	0.415089
884.036111	0.414819
884.219861	0.413600
884.403592	0.414070
884.587305	0.413199
884.771000	0.411740
884.954677	0.413581
885.138335	0.414826
885.321976	0.414878
885.505598	0.414091
885.689201	0.413899
885.872787	0.414447
886.056354	0.415111
886.239904	0.415555
886.423434	0.415982
886.606947	0.413775
886.790442	0.412768
886.973918	0.414903
887.157376	0.414580
887.340816	0.414522
887.524237	0.414476
887.707641	0.413840
887.891026	0.412649
888.074393	0.412874
888.257741	0.414430
888.441072	0.415199
888.624384	0.413857
888.807678	0.413753
888.990954	0.414134
889.174211	0.414610
889.357451	0.414702
889.540672	0.416926
889.723875	0.417269
889.907059	0.417686
890.090226	0.416580
890.273374	0.415748
890.456504	0.416714
890.639616	0.416674
890.822709	0.416704
891.005785	0.417056
891.188842	0.417359
891.371881	0.417306
891.554901	0.417310
891.737904	0.417714
891.920888	0.418370
892.103854	0.418379
892.286802	0.418554
892.469731	0.418342
892.652643	0.417962
892.835536	0.416616
893.018410	0.415687
893.201267	0.415331
893.384106	0.414599
893.566926	0.414875
893.749728	0.414311
893.932511	0.413519
894.115277	0.414052
894.298024	0.414049
894.480753	0.414699
894.663464	0.414841
894.846157	0.414936
895.028831	0.416376
895.211487	0.416125
895.394125	0.416932
895.576745	0.417499
895.759346	0.417556
895.941930	0.417163
896.124495	0.416377
896.307041	0.416440
896.489570	0.415226
896.672080	0.414351
896.854573	0.413497
897.037046	0.413183
897.219502	0.412201
897.401940	0.410327
897.584359	0.409811
897.766760	0.409427
897.949143	0.408054
898.131507	0.409210
898.313854	0.407987
898.496182	0.407564
898.678492	0.405474
898.860783	0.405351
899.043057	0.405252
899.225312	0.405217
899.407549	0.405151
899.589768	0.404867
899.771968	0.402341
899.954151	0.402973
900.136315	0.404022
900.318461	0.404654
900.500588	0.404991
900.682698	0.405128
900.864789	0.403756
901.046862	0.404046
901.228917	0.404879
901.410953	0.405381
901.592971	0.405079
901.774972	0.404087
901.956953	0.404022
902.138917	0.403161
902.320862	0.403353
902.502790	0.404476
902.684699	0.403136
902.866589	0.402669
903.048462	0.402501
903.230316	0.400313
903.412152	0.399451
903.593970	0.399070
903.775770	0.397572
903.957551	0.395774
904.139314	0.394497
904.321059	0.393117
904.502786	0.392806
904.684494	0.392761
904.866185	0.394395
905.047857	0.394563
905.229510	0.393399
905.411146	0.394552
905.592763	0.394181
905.774363	0.393789
905.955943	0.394268
906.137506	0.393845
906.319051	0.392645
906.500577	0.392633
906.682085	0.391731
906.863575	0.391551
907.045046	0.391550
907.226500	0.391810
907.407935	0.391295
907.589352	0.391261
907.770750	0.390869
907.952131	0.392388
908.133493	0.391102
908.314837	0.391126
908.496163	0.391100
908.677470	0.389750
908.858760	0.389130
909.040031	0.389334
909.221284	0.388884
909.402518	0.389675
909.583735	0.387269
909.764933	0.386915
909.946113	0.385737
910.127275	0.385003
910.308418	0.383585
910.489544	0.383583
910.670651	0.382523
910.851740	0.381535
911.032810	0.379320
911.213863	0.378868
911.394897	0.377546
911.575913	0.377683
911.756911	0.378141
911.937890	0.376780
912.118851	0.375553
912.299794	0.376088
912.480719	0.375821
912.661626	0.376744
912.842514	0.376025
913.023384	0.375542
913.204236	0.373427
913.385070	0.371254
913.565886	0.373465
913.746683	0.373262
913.927462	0.371875
914.108223	0.371752
914.288965	0.369491
914.469690	0.368927
914.650396	0.369520
914.831084	0.371231
915.011754	0.371143
915.192405	0.369128
915.373038	0.367268
915.553653	0.366514
915.734250	0.366435
915.914829	0.366752
916.095389	0.366878
916.275931	0.366707
916.456455	0.364946
916.636961	0.365903
916.817448	0.366043
916.997917	0.365734
917.178368	0.365574
917.358801	0.363826
917.539216	0.362656
917.719612	0.360859
917.899990	0.357992
918.080350	0.356684
918.260692	0.353643
918.441015	0.350679
918.621320	0.351470
918.801607	0.349520
918.981876	0.349495
919.162127	0.348704
919.342359	0.347477
919.522573	0.348267
919.702769	0.348827
919.882947	0.347561
920.063106	0.348426
920.243247	0.346575
920.423370	0.346949
920.603475	0.344218
920.783562	0.341839
920.963630	0.341491
921.143680	0.342033
921.323712	0.339732
921.503725	0.340044
921.683721	0.338428
921.863698	0.339062
922.043657	0.337428
922.223598	0.337691
922.403520	0.336261
922.583424	0.334976
922.763311	0.331553
922.943178	0.332412
923.123028	0.330249
923.302859	0.329993
923.482673	0.329107
923.662467	0.328403
923.842244	0.328461
924.022003	0.331195
924.201743	0.333134
924.381465	0.333911
924.561169	0.331787
924.740854	0.332031
924.920522	0.329647
925.100171	0.326780
925.279802	0.328333
925.459414	0.325874
925.639009	0.323116
925.818585	0.320689
925.998143	0.318610
926.177683	0.318078
926.357205	0.317105
926.536708	0.318289
926.716193	0.318369
926.895660	0.313913
927.075109	0.314085
927.254539	0.313849
927.433951	0.314052
927.613345	0.312342
927.792721	0.311508
927.972079	0.312293
928.151418	0.311381
928.330739	0.310174
928.510042	0.311017
928.689327	0.308870
928.868593	0.308098
929.047841	0.305517
929.227071	0.304982
929.406283	0.304819
929.585476	0.301781
929.764652	0.299418
929.943809	0.298837
930.122948	0.297989
930.302068	0.296682
930.481171	0.295712
930.660255	0.295515
930.839321	0.295983
931.018369	0.293865
931.197398	0.293943
931.376409	0.295102
931.555402	0.293783
931.734377	0.289351
931.913334	0.291438
932.092272	0.289129
932.271192	0.286535
932.450094	0.283187
932.628978	0.283295
932.807844	0.282871
932.986691	0.281304
933.165520	0.280454
933.344331	0.283015
933.523123	0.281403
933.701898	0.282470
933.880654	0.282568
934.059392	0.284884
934.238111	0.284149
934.416813	0.282778
934.595496	0.282625
934.774161	0.282339
934.952808	0.280475
935.131437	0.279292
935.310047	0.277980
935.488639	0.278283
935.667213	0.275102
935.845769	0.271732
936.024306	0.270605
936.202825	0.267796
936.381326	0.266554
936.559809	0.264337
936.738274	0.262220
936.916720	0.260533
937.095148	0.260234
937.273558	0.258053
937.451950	0.259453
937.630323	0.256847
937.808678	0.256851
937.987015	0.256066
938.165334	0.257369
938.343635	0.258032
938.521917	0.256016
938.700181	0.256537
938.878427	0.256555
939.056655	0.254923
939.234864	0.254451
939.413055	0.252086
939.591228	0.252494
939.769383	0.251431
939.947519	0.245747
940.125638	0.244840
940.303738	0.238626
940.481820	0.239783
940.659883	0.240522
940.837929	0.241500
941.015956	0.241010
941.193965	0.239035
941.371955	0.237302
941.549928	0.238780
941.727882	0.238380
941.905818	0.240091
942.083736	0.236468
942.261636	0.232305
942.439517	0.231817
942.617380	0.233499
942.795225	0.229686
942.973052	0.230033
943.150860	0.229809
943.328651	0.228945
943.506423	0.226938
943.684176	0.225508
943.861912	0.222608
944.039629	0.223009
944.217328	0.216359
944.395009	0.215277
944.572672	0.211928
944.750317	0.210193
944.927943	0.207786
945.105551	0.206668
945.283141	0.204576
945.460712	0.206806
945.638265	0.200281
945.815801	0.200995
945.993317	0.197451
946.170816	0.198823
946.348297	0.197256
946.525759	0.197692
946.703203	0.192428
946.880629	0.191320
947.058036	0.188655
947.235425	0.186270
947.412797	0.186135
947.590149	0.189435
947.767484	0.185285
947.944800	0.183606
948.122099	0.181169
948.299379	0.185943
948.476640	0.187685
948.653884	0.182609
948.831109	0.183371
949.008316	0.182582
949.185505	0.180319
949.362676	0.177285
949.539828	0.174766
949.716962	0.175803
949.894078	0.171857
950.071176	0.165021
950.248256	0.169608
950.425317	0.168064
950.602360	0.164059
950.779385	0.161366
950.956391	0.165252
951.133380	0.167698
951.310350	0.162656
951.487302	0.162388
951.664235	0.165642
951.841151	0.161149
952.018048	0.160969
952.194927	0.160558
952.371788	0.161009
952.548631	0.155035
952.725455	0.158195
952.902261	0.152789
953.079049	0.152347
953.255819	0.150639
953.432570	0.152608
953.609303	0.146037
953.786018	0.144567
953.962715	0.139306
954.139394	0.139850
954.316054	0.128169
954.492696	0.132501
954.669320	0.128304
954.845926	0.122357
955.022513	0.116043
955.199083	0.121195
955.375634	0.124921
955.552166	0.118634
955.728681	0.121702
955.905177	0.127527
956.081655	0.126615
956.258115	0.125058
956.434557	0.131382
956.610980	0.131015
956.787385	0.128206
956.963772	0.122987
957.140141	0.135976
957.316492	0.131996
957.492824	0.129944
957.669138	0.126501
957.845434	0.128178
958.021712	0.121380
958.197971	0.121155
958.374212	0.122172
958.550435	0.123050
958.726640	0.115786
958.902826	0.112463
959.078995	0.108733
959.255145	0.108787
959.431277	0.109109
959.607390	0.109904
959.783486	0.109624
959.959563	0.106282
960.135622	0.099693
960.311662	0.098382
960.487685	0.101028
960.663689	0.103826
960.839675	0.099768
961.015643	0.100381
961.191593	0.098762
961.367524	0.100378
961.543437	0.094429
961.719332	0.094349
961.895209	0.095729
962.071067	0.096672
962.246907	0.094590
962.422730	0.100629
962.598533	0.096192
962.774319	0.091307
962.950086	0.093439
963.125835	0.099693
963.301566	0.099310
963.477279	0.106091
963.652973	0.102463
963.828650	0.105726
964.004308	0.106466
964.179947	0.106358
964.355569	0.110549
964.531172	0.103399
964.706757	0.100336
964.882324	0.100549
965.057873	0.096202
965.233403	0.094537
965.408916	0.088963
965.584410	0.083884
965.759885	0.087326
965.935343	0.089482
966.110782	0.090323
966.286203	0.093300
966.461606	0.093924
966.636991	0.093506
966.812357	0.095147
966.987705	0.094005
967.163035	0.096002
967.338347	0.092130
967.513641	0.091731
967.688916	0.093785
967.864173	0.090736
968.039412	0.091907
968.214632	0.086892
968.389835	0.081257
968.565019	0.085995
968.740185	0.087864
968.915333	0.089113
969.090462	0.089104
969.265573	0.090658
969.440667	0.091226
969.615741	0.096850
969.790798	0.096797
969.965836	0.100707
970.140856	0.101593
970.315858	0.097028
970.490842	0.096480
970.665808	0.099731
970.840755	0.099309
971.015684	0.096124
971.190595	0.089112
971.365487	0.085170
971.540362	0.091683
971.715218	0.088217
971.890056	0.089974
972.064875	0.087987
972.239677	0.084430
972.414460	0.086715
972.589225	0.089861
972.763972	0.084088
972.938700	0.088157
973.113411	0.079678
973.288103	0.077997
973.462777	0.082336
973.637432	0.085043
973.812070	0.088953
973.986689	0.083198
974.161290	0.087537
974.335873	0.087753
974.510437	0.096823
974.684984	0.094556
974.859512	0.092031
975.034022	0.086868
975.208513	0.079502
975.382987	0.074872
975.557442	0.077279
975.731879	0.071767
975.906298	0.079864
976.080698	0.072490
976.255080	0.085748
976.429445	0.089703
976.603790	0.095391
976.778118	0.099608
976.952427	0.108030
977.126719	0.108228
977.300992	0.105737
977.475246	0.105787
977.649483	0.104429
977.823701	0.094694
977.997901	0.093716
978.172083	0.093371
978.346247	0.092942
978.520392	0.083810
978.694519	0.081661
978.868628	0.089628
979.042719	0.095451
979.216791	0.095605
979.390845	0.097315
979.564882	0.101086
979.738899	0.100222
979.912899	0.097460
980.086880	0.101368
980.260843	0.100376
980.434788	0.094426
980.608715	0.085426
980.782623	0.083553
980.956514	0.084208
981.130386	0.078116
981.304240	0.075553
981.478075	0.081028
981.651892	0.084310
981.825692	0.086330
981.999472	0.092764
982.173235	0.097901
982.346980	0.095634
982.520706	0.093066
982.694414	0.097241
982.868104	0.092224
983.041775	0.092601
983.215428	0.086244
983.389064	0.088066
983.562680	0.087737
983.736279	0.085594
983.909860	0.089222
984.083422	0.091794
984.256966	0.094051
984.430491	0.097484
984.603999	0.097397
984.777488	0.105225
984.950959	0.101583
985.124412	0.100392
985.297847	0.105407
985.471263	0.106693
985.644661	0.104920
985.818041	0.103458
985.991403	0.108853
986.164747	0.104519
986.338072	0.100085
986.511379	0.105047
986.684668	0.104055
986.857938	0.097391
987.031191	0.103703
987.204425	0.104080
987.377641	0.104579
987.550839	0.100049
987.724018	0.105790
987.897179	0.100929
988.070322	0.096484
988.243447	0.092756
988.416554	0.090080
988.589642	0.082112
988.762712	0.080134
988.935764	0.078833
989.108798	0.078713
989.281813	0.076015
989.454811	0.079479
989.627790	0.078898
989.800751	0.086310
989.973693	0.089594
990.146617	0.098479
990.319524	0.098587
990.492412	0.103127
990.665281	0.100519
990.838133	0.102399
991.010966	0.100604
991.183781	0.103493
991.356578	0.097437
991.529356	0.098212
991.702117	0.095654
991.874859	0.104089
992.047583	0.103885
992.220288	0.110106
992.392976	0.109265
992.565645	0.109648
992.738296	0.110817
992.910929	0.112763
993.083543	0.108293
993.256139	0.103399
993.428718	0.100645
993.601277	0.099673
993.773819	0.096584
993.946342	0.097476
994.118848	0.098072
994.291335	0.098596
994.463803	0.098287
994.636254	0.103910
994.808686	0.104200
994.981100	0.101925
995.153496	0.094990
995.325874	0.096700
995.498233	0.097340
995.670574	0.097524
995.842897	0.098344
996.015202	0.101025
996.187488	0.102070
996.359757	0.099082
996.532007	0.096904
996.704239	0.103477
996.876452	0.102751
997.048648	0.101342
997.220825	0.101983
997.392984	0.100820
997.565124	0.099866
997.737247	0.098370
997.909351	0.104315
998.081437	0.094839
998.253505	0.093856
998.425554	0.099952
998.597586	0.103502
998.769599	0.107245
998.941594	0.105148
999.113571	0.106944
999.285529	0.108703
999.457469	0.106493
999.629391	0.119423
999.801295	0.115062
999.973181	0.108566
1000.145048	0.100453
1000.316897	0.097889
1000.488728	0.095725
1000.660541	0.093006
1000.832335	0.092817
1001.004111	0.089733
1001.175869	0.086855
1001.347609	0.089610
1001.519331	0.090184
1001.691034	0.093589
1001.862719	0.091538
1002.034386	0.093975
1002.206035	0.098316
1002.377665	0.099564
1002.549277	0.101915
1002.720871	0.109006
1002.892447	0.113744
1003.064004	0.110481
1003.235544	0.111373
1003.407065	0.112889
1003.578568	0.112557
1003.750052	0.105559
1003.921519	0.108676
1004.092967	0.110218
1004.264397	0.104579
1004.435809	0.099493
1004.607202	0.105636
1004.778577	0.110109
1004.949934	0.110339
1005.121273	0.110500
1005.292594	0.107672
1005.463896	0.103583
1005.635180	0.102323
1005.806446	0.098733
1005.977694	0.096676
1006.148923	0.091230
1006.320135	0.087752
1006.491328	0.081983
1006.662503	0.078675
1006.833659	0.082861
1007.004798	0.083547
1007.175918	0.083481
1007.347020	0.079706
1007.518103	0.077157
1007.689169	0.078038
1007.860216	0.077741
1008.031245	0.089319
1008.202256	0.092200
1008.373248	0.089964
1008.544223	0.085749
1008.715179	0.085083
1008.886117	0.098931
1009.057036	0.107366
1009.227938	0.111040
1009.398821	0.111269
1009.569686	0.106356
1009.740533	0.104982
1009.911361	0.106832
1010.082172	0.109244
1010.252964	0.112619
1010.423738	0.104328
1010.594493	0.099478
1010.765231	0.095034
1010.935950	0.093837
1011.106651	0.095979
1011.277334	0.089787
1011.447998	0.093953
1011.618645	0.093758
1011.789273	0.093919
1011.959882	0.101457
1012.130474	0.100033
1012.301048	0.100055
1012.471603	0.101338
1012.642140	0.093229
1012.812658	0.104450
1012.983159	0.102477
1013.153641	0.105132
1013.324105	0.100792
1013.494551	0.096077
1013.664979	0.099295
1013.835388	0.097888
1014.005779	0.100101
1014.176152	0.106867
1014.346507	0.101811
1014.516843	0.103119
1014.687162	0.099880
1014.857462	0.100591
1015.027744	0.100466
1015.198007	0.102478
1015.368252	0.104344
1015.538480	0.100379
1015.708689	0.096174
1015.878879	0.097119
1016.049052	0.097955
1016.219206	0.103242
1016.389342	0.101942
1016.559460	0.097855
1016.729559	0.092865
1016.899641	0.093654
1017.069704	0.094934
1017.239749	0.094320
1017.409775	0.092983
1017.579784	0.091106
1017.749774	0.084437
1017.919746	0.081407
1018.089700	0.081852
1018.259635	0.081738
1018.429553	0.084246
1018.599452	0.080484
1018.769333	0.081045
1018.939195	0.080078
1019.109040	0.073181
1019.278866	0.071478
1019.448674	0.075425
1019.618464	0.079608
1019.788235	0.081668
1019.957989	0.075752
1020.127724	0.077080
1020.297441	0.073794
1020.467139	0.073645
1020.636820	0.081460
1020.806482	0.085348
1020.976126	0.091361
1021.145752	0.089047
1021.315359	0.087695
1021.484948	0.095325
1021.654519	0.098286
1021.824072	0.105314
1021.993607	0.107440
1022.163123	0.106094
1022.332621	0.103899
1022.502101	0.099556
1022.671563	0.098947
1022.841007	0.096866
1023.010432	0.090978
1023.179839	0.087645
1023.349228	0.086628
1023.518598	0.090510
1023.687951	0.088963
1023.857285	0.090678
1024.026601	0.087740
1024.195899	0.083217
1024.365178	0.084911
1024.534439	0.086953
1024.703682	0.092230
1024.872907	0.093815
1025.042114	0.093031
1025.211302	0.094897
1025.380472	0.094206
1025.549624	0.095641
1025.718758	0.101250
1025.887873	0.099604
1026.056970	0.101116
1026.226049	0.100576
1026.395110	0.094322
1026.564153	0.090621
1026.733177	0.086836
1026.902183	0.089923
1027.071171	0.091477
1027.240141	0.091831
1027.409092	0.095739
1027.578026	0.091641
1027.746940	0.094361
1027.915837	0.093541
1028.084716	0.094101
1028.253576	0.095074
1028.422418	0.093618
1028.591242	0.088607
1028.760048	0.089450
1028.928835	0.090960
1029.097604	0.094499
1029.266355	0.093382
1029.435088	0.093989
1029.603803	0.093643
1029.772499	0.095886
1029.941177	0.095314
1030.109837	0.101146
1030.278478	0.103003
1030.447102	0.098831
1030.615707	0.098584
1030.784294	0.098851
1030.952863	0.105262
1031.121413	0.102452
1031.289945	0.098106
1031.458460	0.096329
1031.626955	0.095331
1031.795433	0.091212
1031.963892	0.093742
1032.132334	0.092052
1032.300756	0.086500
1032.469161	0.084314
1032.637548	0.085912
1032.805916	0.088424
1032.974266	0.087842
1033.142598	0.083264
1033.310911	0.086159
1033.479207	0.084647
1033.647484	0.084853
1033.815743	0.082197
1033.983983	0.082573
1034.152206	0.079916
1034.320410	0.077713
1034.488596	0.077337
1034.656764	0.082234
1034.824914	0.078380
1034.993045	0.072796
1035.161158	0.075743
1035.329253	0.077333
1035.497330	0.074507
1035.665388	0.078506
1035.833428	0.082757
1036.001450	0.084623
1036.169454	0.080864
1036.337440	0.084481
1036.505407	0.089313
1036.673356	0.089675
1036.841287	0.090110
1037.009200	0.090558
1037.177094	0.093698
1037.344970	0.094353
1037.512828	0.096502
1037.680668	0.095204
1037.848489	0.092787
1038.016293	0.097539
1038.184078	0.098457
1038.351845	0.098590
1038.519593	0.097764
1038.687324	0.095939
1038.855036	0.097530
1039.022730	0.093106
1039.190406	0.097130
1039.358063	0.093954
1039.525702	0.093412
1039.693323	0.090562
1039.860926	0.092272
1040.028511	0.095527
1040.196077	0.094920
1040.363625	0.089148
1040.531155	0.091619
1040.698667	0.092276
1040.866161	0.100380
1041.033636	0.100877
1041.201093	0.098463
1041.368532	0.096078
1041.535952	0.097398
1041.703355	0.093161
1041.870739	0.093237
1042.038105	0.093497
1042.205452	0.090672
1042.372782	0.085226
1042.540093	0.083544
1042.707386	0.083960
1042.874661	0.085639
1043.041918	0.083031
1043.209156	0.086837
1043.376376	0.088664
1043.543578	0.081079
1043.710762	0.083296
1043.877927	0.082687
1044.045074	0.081302
1044.212203	0.082138
1044.379314	0.083172
1044.546407	0.083431
1044.713481	0.087913
1044.880537	0.090188
1045.047575	0.095070
1045.214595	0.092523
1045.381596	0.090650
1045.548579	0.094359
1045.715544	0.093246
1045.882491	0.094591
1046.049420	0.097429
1046.216330	0.096015
1046.383222	0.096107
1046.550096	0.098416
1046.716951	0.102432
1046.883789	0.108383
1047.050608	0.101390
1047.217409	0.101301
1047.384192	0.099213
1047.550956	0.094767
1047.717703	0.090759
1047.884431	0.082753
1048.051140	0.080528
1048.217832	0.080096
1048.384505	0.080952
1048.551161	0.081689
1048.717798	0.085191
1048.884416	0.085066
1049.051017	0.090126
1049.217599	0.093758
1049.384163	0.097291
1049.550709	0.102220
1049.717237	0.106795
1049.883746	0.103330
1050.050237	0.105043
1050.216710	0.097106
1050.383165	0.093478
1050.549601	0.090323
1050.716019	0.092452
1050.882420	0.089757
1051.048801	0.082280
1051.215165	0.077877
1051.381510	0.078799
1051.547837	0.079460
1051.714146	0.087003
1051.880437	0.093227
1052.046709	0.095706
1052.212964	0.095094
1052.379200	0.101077
1052.545417	0.108519
1052.711617	0.107645
1052.877798	0.108073
1053.043961	0.107409
1053.210106	0.104008
1053.376233	0.101857
1053.542341	0.099451
1053.708432	0.093184
1053.874504	0.092690
1054.040557	0.094695
1054.206593	0.098562
1054.372610	0.100776
1054.538609	0.106021
1054.704590	0.106013
1054.870553	0.103976
1055.036497	0.106338
1055.202424	0.109154
1055.368331	0.109970
1055.534221	0.106472
1055.700093	0.096950
1055.865946	0.095530
1056.031781	0.091836
1056.197598	0.099617
1056.363397	0.096977
1056.529177	0.088879
1056.694939	0.090634
1056.860683	0.087536
1057.026409	0.084972
1057.192116	0.089798
1057.357806	0.088585
1057.523477	0.089723
1057.689130	0.084602
1057.854764	0.087393
1058.020381	0.090090
1058.185979	0.088728
1058.351559	0.090915
1058.517120	0.094158
1058.682664	0.095120
1058.848189	0.090972
1059.013696	0.087066
1059.179185	0.089298
1059.344656	0.090344
1059.510108	0.089001
1059.675542	0.091070
1059.840958	0.092620
1060.006356	0.091074
1060.171735	0.095372
1060.337096	0.103545
1060.502439	0.111413
1060.667764	0.106789
1060.833071	0.112964
1060.998359	0.115431
1061.163629	0.111508
1061.328881	0.107652
1061.494115	0.108542
1061.659330	0.105060
1061.824527	0.097839
1061.989706	0.093355
1062.154867	0.095632
1062.320010	0.092056
1062.485134	0.094472
1062.650240	0.098590
1062.815328	0.104254
1062.980398	0.104479
1063.145449	0.107197
1063.310482	0.111717
1063.475497	0.114951
1063.640494	0.119240
1063.805473	0.115789
1063.970433	0.118980
1064.135375	0.121268
1064.300299	0.114037
1064.465204	0.116842
1064.630092	0.118161
1064.794961	0.114343
1064.959812	0.108929
1065.124645	0.112857
1065.289459	0.115306
1065.454256	0.115451
1065.619034	0.116209
1065.783793	0.128490
1065.948535	0.131263
1066.113258	0.124078
1066.277964	0.133107
1066.442651	0.134075
1066.607319	0.123731
1066.771970	0.130728
1066.936602	0.125528
1067.101216	0.122431
1067.265812	0.117790
1067.430389	0.116832
1067.594949	0.122924
1067.759490	0.119856
1067.924013	0.122891
1068.088518	0.124296
1068.253004	0.115563
1068.417472	0.112209
1068.581922	0.103729
1068.746354	0.097812
1068.910768	0.092638
1069.075163	0.085427
1069.239540	0.081566
1069.403899	0.084273
1069.568240	0.083929
1069.732562	0.080971
1069.896866	0.086791
1070.061152	0.096152
1070.225420	0.096146
1070.389670	0.100351
1070.553901	0.102076
1070.718114	0.101853
1070.882309	0.101708
1071.046486	0.100195
1071.210644	0.098345
1071.374784	0.095574
1071.538906	0.086631
1071.703010	0.094700
1071.867096	0.095504
1072.031163	0.094144
1072.195212	0.100042
1072.359243	0.090945
1072.523256	0.097007
1072.687250	0.094908
1072.851226	0.097946
1073.015184	0.103574
1073.179124	0.094324
1073.343045	0.084042
1073.506949	0.088048
1073.670834	0.091210
1073.834701	0.102455
1073.998549	0.099552
1074.162380	0.106843
1074.326192	0.103418
1074.489986	0.103875
1074.653761	0.114871
1074.817519	0.123514
1074.981258	0.123970
1075.144979	0.125319
1075.308682	0.120610
1075.472367	0.115126
1075.636033	0.119905
1075.799681	0.124318
1075.963311	0.121960
1076.126923	0.116949
1076.290516	0.110567
1076.454092	0.107827
1076.617649	0.100622
1076.781187	0.104178
1076.944708	0.112485
1077.108210	0.114768
1077.271695	0.113308
1077.435160	0.116623
1077.598608	0.115769
1077.762038	0.132741
1077.925449	0.136549
1078.088842	0.128979
1078.252217	0.131171
1078.415573	0.118814
1078.578912	0.108706
1078.742232	0.109027
1078.905534	0.106037
1079.068817	0.103377
1079.232083	0.092688
1079.395330	0.085022
1079.558559	0.089204
1079.721770	0.077165
1079.884962	0.078322
1080.048136	0.090839
1080.211293	0.087835
1080.374430	0.093768
1080.537550	0.094238
1080.700651	0.104232
1080.863735	0.108722
1081.026800	0.104388
1081.189846	0.107544
1081.352875	0.111333
1081.515885	0.103301
1081.678877	0.104650
1081.841851	0.097405
1082.004807	0.093726
1082.167744	0.089252
1082.330663	0.090142
1082.493564	0.088884
1082.656447	0.089214
1082.819312	0.093608
1082.982158	0.094867
1083.144986	0.094645
1083.307796	0.108945
1083.470587	0.124821
1083.633361	0.114668
1083.796116	0.117339
1083.958853	0.120340
1084.121571	0.129111
1084.284272	0.135986
1084.446954	0.127948
1084.609618	0.124942
1084.772264	0.104899
1084.934892	0.092463
1085.097501	0.093902
1085.260092	0.094798
1085.422665	0.104650
1085.585220	0.096192
1085.747756	0.086460
1085.910274	0.091954
1086.072774	0.101828
1086.235256	0.107805
1086.397720	0.112496
1086.560165	0.109670
1086.722592	0.105635
1086.885001	0.091021
1087.047392	0.085014
1087.209764	0.088150
1087.372119	0.100697
1087.534455	0.107407
1087.696772	0.112988
1087.859072	0.111283
1088.021353	0.119342
1088.183616	0.127315
1088.345861	0.136553
1088.508088	0.140498
1088.670296	0.132572
1088.832486	0.124731
1088.994658	0.110362
1089.156812	0.109324
1089.318948	0.099244
1089.481065	0.097640
1089.643164	0.091378
1089.805245	0.092900
1089.967308	0.107905
1090.129352	0.118772
1090.291378	0.119915
1090.453386	0.119605
1090.615376	0.116948
1090.777347	0.130222
1090.939301	0.139098
1091.101236	0.129075
1091.263153	0.124070
1091.425051	0.112906
1091.586932	0.114268
1091.748794	0.110292
1091.910638	0.111734
1092.072463	0.113559
1092.234271	0.111709
1092.396060	0.113004
1092.557831	0.121718
1092.719584	0.128134
1092.881319	0.141983
1093.043035	0.127321
1093.204733	0.119975
1093.366413	0.127073
1093.528075	0.131471
1093.689718	0.119907
1093.851343	0.109220
1094.012950	0.112745
1094.174539	0.118243
1094.336110	0.114716
1094.497662	0.123100
1094.659196	0.134604
1094.820712	0.126419
1094.982210	0.110933
1095.143689	0.113523
1095.305151	0.110520
1095.466594	0.109269
1095.628018	0.101013
1095.789425	0.092998
1095.950813	0.089971
1096.112183	0.093381
1096.273535	0.093131
1096.434869	0.110415
1096.596184	0.133759
1096.757482	0.140947
1096.918761	0.137953
1097.080021	0.137640
1097.241264	0.120972
1097.402488	0.124903
1097.563694	0.115517
1097.724882	0.125136
1097.886052	0.118535
1098.047203	0.111045
1098.208336	0.101830
1098.369451	0.114000
1098.530548	0.119435
1098.691627	0.145098
1098.852687	0.144795
1099.013729	0.155325
1099.174753	0.164367
1099.335758	0.173413
1099.496746	0.157663
1099.657715	0.175081
1099.818666	0.168080
1099.979599	0.146835
1100.140513	0.143315
1100.301409	0.135312
1100.462287	0.122705
1100.623147	0.103694
1100.783989	0.088823
1100.944812	0.101353
1101.105617	0.097113
1101.266404	0.088046
1101.427173	0.102766
1101.587923	0.090830
1101.748656	0.102186
1101.909370	0.098643
1102.070066	0.079738
1102.230743	0.091793
1102.391403	0.086269
1102.552044	0.068514
1102.712667	0.072052
1102.873271	0.070043
1103.033858	0.075274
1103.194426	0.074684
1103.354976	0.080272
1103.515508	0.108857
1103.676021	0.103768
1103.836517	0.111822
1103.996994	0.124642
1104.157453	0.138598
1104.317893	0.134978
1104.478316	0.138312
1104.638720	0.134696
1104.799106	0.127199
1104.959474	0.115021
1105.119823	0.114278
1105.280155	0.107350
1105.440468	0.111615
1105.600763	0.109742
1105.761039	0.137011
1105.921298	0.138695
1106.081538	0.142992
1106.241760	0.169600
1106.401964	0.181027
1106.562149	0.189413
1106.722316	0.166205
1106.882465	0.170857
1107.042596	0.147243
1107.202709	0.150802
1107.362803	0.144945
1107.522879	0.137353
1107.682937	0.119289
1107.842977	0.126530
1108.002999	0.114249
1108.163002	0.121546
1108.322987	0.112447
1108.482954	0.118775
1108.642902	0.114730
1108.802833	0.123784
1108.962745	0.126863
1109.122639	0.138567
1109.282515	0.129985
1109.442372	0.145254
1109.602211	0.142849
1109.762032	0.142513
1109.921835	0.156487
1110.081620	0.125678
1110.241386	0.107957
1110.401134	0.120039
1110.560864	0.111841
1110.720576	0.109677
1110.880269	0.097125
1111.039945	0.122760
1111.199602	0.121709
1111.359240	0.117348
1111.518861	0.131413
1111.678463	0.155488
1111.838047	0.146343
1111.997613	0.156880
1112.157161	0.159066
1112.316690	0.182283
1112.476202	0.168416
1112.635695	0.182829
1112.795169	0.188556
1112.954626	0.182502
1113.114064	0.149316
1113.273484	0.141412
1113.432886	0.121321
1113.592270	0.121499
1113.751635	0.106730
1113.910983	0.116354
1114.070312	0.130639
1114.229622	0.108283
1114.388915	0.106514
1114.548189	0.129256
1114.707445	0.122684
1114.866683	0.110673
1115.025903	0.114206
1115.185104	0.107554
1115.344287	0.092300
1115.503452	0.063384
1115.662599	0.083246
1115.821727	0.079751
1115.980838	0.081121
1116.139930	0.078755
1116.299004	0.111333
1116.458059	0.114529
1116.617097	0.122093
1116.776116	0.129031
1116.935117	0.148559
1117.094099	0.148872
1117.253064	0.162917
1117.412010	0.164696
1117.570938	0.188007
1117.729848	0.173281
1117.888740	0.187289
1118.047613	0.182219
1118.206468	0.185673
1118.365305	0.161899
1118.524124	0.164901
1118.682924	0.170298
1118.841707	0.148797
1119.000471	0.149915
1119.159216	0.148738
1119.317944	0.124354
1119.476653	0.133421
1119.635344	0.135260
1119.794017	0.143853
1119.952672	0.140288
1120.111308	0.137509
1120.269927	0.138895
1120.428527	0.160566
1120.587108	0.175960
1120.745672	0.166236
1120.904217	0.141376
1121.062744	0.152110
1121.221253	0.157203
1121.379744	0.171511
1121.538216	0.166564
1121.696671	0.179986
1121.855107	0.164388
1122.013524	0.151754
1122.171924	0.179361
1122.330305	0.204620
1122.488668	0.177849
1122.647013	0.197837
1122.805340	0.189172
1122.963648	0.185381
1123.121938	0.204766
1123.280210	0.184046
1123.438464	0.184491
1123.596700	0.169387
1123.754917	0.162182
1123.913116	0.173602
1124.071297	0.150339
1124.229459	0.142338
1124.387604	0.171804
1124.545730	0.150634
1124.703838	0.174047
1124.861928	0.164107
1125.019999	0.185937
1125.178052	0.183643
1125.336088	0.176651
1125.494104	0.152305
1125.652103	0.145140
1125.810083	0.107248
1125.968045	0.118188
1126.125989	0.102200
1126.283915	0.112516
1126.441823	0.076812
1126.599712	0.056417
1126.757583	0.040042
1126.915436	0.081445
1127.073270	0.093418
1127.231087	0.101725
1127.388885	0.083021
1127.546665	0.119434
1127.704426	0.127019
1127.862170	0.120590
1128.019895	0.163102
1128.177602	0.214793
1128.335291	0.174537
1128.492961	0.174077
1128.650614	0.188856
1128.808248	0.205644
1128.965864	0.154099
1129.123461	0.163155
1129.281041	0.231518
1129.438602	0.214561
1129.596145	0.185429
1129.753670	0.174675
1129.911176	0.159888
1130.068665	0.142333
1130.226135	0.135358
1130.383587	0.126311
1130.541020	0.105765
1130.698436	0.061672
1130.855833	0.043748
1131.013212	0.035982
1131.170573	0.058407
1131.327915	0.062304
1131.485239	0.061973
1131.642545	0.089518
1131.799833	0.103303
1131.957103	0.098892
1132.114354	0.129000
1132.271588	0.163437
1132.428803	0.178765
1132.585999	0.170679
1132.743178	0.178129
1132.900338	0.225923
1133.057480	0.194548
1133.214604	0.203382
1133.371710	0.207764
1133.528797	0.197432
1133.685866	0.142361
1133.842917	0.142957
1133.999950	0.150063
1134.156964	0.153385
1134.313960	0.141585
1134.470938	0.134628
1134.627898	0.112180
1134.784840	0.109304
1134.941763	0.116260
1135.098668	0.169744
1135.255555	0.170452
1135.412424	0.153357
1135.569274	0.156935
1135.726107	0.126823
1135.882921	0.112684
1136.039716	0.136769
1136.196494	0.134848
1136.353253	0.143721
1136.509995	0.139345
1136.666717	0.152772
1136.823422	0.174336
1136.980109	0.147095
1137.136777	0.128615
1137.293427	0.148469
1137.450059	0.138266
1137.606672	0.132439
1137.763267	0.098733
1137.919844	0.088030
1138.076403	0.083630
1138.232944	0.042547
1138.389466	0.045304
1138.545971	0.065567
1138.702457	0.074155
1138.858924	0.098534
1139.015374	0.105898
1139.171805	0.131349
1139.328218	0.127600
1139.484613	0.118827
1139.640990	0.167544
1139.797348	0.183171
1139.953688	0.149733
1140.110010	0.132415
1140.266314	0.103157
1140.422600	0.103661
1140.578867	0.116474
1140.735116	0.135219
1140.891347	0.145616
1141.047559	0.145603
1141.203754	0.137669
1141.359930	0.157758
1141.516088	0.152174
1141.672228	0.150229
1141.828349	0.111605
1141.984452	0.089724
1142.140537	0.083963
1142.296604	0.053791
1142.452653	0.029849
1142.608683	0.049054
1142.764695	0.082755
1142.920689	0.109057
1143.076665	0.122040
1143.232622	0.163805
1143.388562	0.154682
1143.544483	0.133461
1143.700385	0.143890
1143.856270	0.168269
1144.012136	0.099630
1144.167985	0.079309
1144.323814	0.072745
1144.479626	0.061550
1144.635420	0.052680
1144.791195	0.046361
1144.946952	0.038078
1145.102691	0.042990
1145.258411	0.054425
1145.414113	0.092446
1145.569798	0.080389
1145.725463	0.092037
1145.881111	0.075949
1146.036741	0.110836
1146.192352	0.145432
1146.347945	0.191001
1146.503519	0.174425
1146.659076	0.157160
1146.814614	0.190814
1146.970134	0.179038
1147.125636	0.149242
1147.281120	0.146609
1147.436585	0.121935
1147.592032	0.083253
1147.747461	0.064733
1147.902872	0.091328
1148.058265	0.093313
1148.213639	0.067509
1148.368995	0.106170
1148.524333	0.081785
1148.679653	0.082854
1148.834954	0.088837
1148.990237	0.116928
1149.145502	0.096547
1149.300749	0.051436
1149.455977	0.083549
1149.611188	0.072778
1149.766380	0.047562
1149.921553	0.108368
1150.076709	0.140928
1150.231846	0.127250
1150.386966	0.079390
1150.542066	0.151042
1150.697149	0.176993
1150.852214	0.168823
1151.007260	0.191667
1151.162288	0.158933
1151.317298	0.114096
1151.472289	0.091601
1151.627263	0.093992
1151.782218	0.140588
1151.937155	0.096927
1152.092073	0.136160
1152.246974	0.113103
1152.401856	0.123145
1152.556720	0.139291
1152.711566	0.132064
1152.866393	0.142423
1153.021203	0.147792
1153.175994	0.144073
1153.330767	0.127818
1153.485521	0.076417
1153.640258	0.069559
1153.794976	0.070942
1153.949676	0.081777
1154.104358	0.106093
1154.259021	0.093013
1154.413667	0.072942
1154.568294	0.046885
1154.722903	0.074388
1154.877493	0.098701
1155.032066	0.113043
1155.186620	0.073010
1155.341156	0.091931
1155.495674	0.083904
1155.650173	0.101901
1155.804654	0.117019
1155.959118	0.150291
1156.113562	0.126055
1156.267989	0.129438
1156.422397	0.105015
1156.576788	0.160723
1156.731160	0.142722
1156.885513	0.137016
1157.039849	0.122756
1157.194166	0.064323
1157.348465	0.047319
1157.502746	0.043387
1157.657009	0.018444
1157.811253	0.066540
1157.965479	0.020822
1158.119687	0.008925
1158.273877	0.012462
1158.428048	0.053539
1158.582201	0.088614
1158.736337	0.143253
1158.890453	0.120071
1159.044552	0.099563
1159.198632	0.052652
1159.352694	0.071765
1159.506738	0.068995
1159.660764	0.056699
1159.814771	0.027132
1159.968761	0.093845
1160.122732	0.035332
1160.276685	0.079048
1160.430619	0.101318
1160.584535	0.118583
1160.738434	0.125350
1160.892313	0.145889
1161.046175	0.176433
1161.200019	0.217476
1161.353844	0.132997
1161.507651	0.186916
1161.661440	0.214180
1161.815210	0.237237
1161.968962	0.271448
1162.122697	0.309178
1162.276412	0.239488
1162.430110	0.318832
1162.583789	0.237041
1162.737451	0.332551
1162.891094	0.372289
1163.044718	0.349490
1163.198325	0.398675
1163.351913	0.296454
1163.505483	0.256303
1163.659035	0.300722
1163.812569	0.198411
1163.966084	0.248638
1164.119581	0.162931
1164.273060	0.080228
1164.426521	0.008249
1164.579964	-0.040377
1164.733388	-0.034769
1164.886794	-0.013680
1165.040182	0.024220
1165.193551	0.025225
1165.346903	0.063573
1165.500236	0.135707
1165.653551	0.171034
1165.806848	0.315381
1165.960126	0.333210
1166.113386	0.356442
1166.266628	0.291861
1166.419852	0.194548
1166.573058	0.182679
1166.726245	0.117662
1166.879414	0.096354
1167.032565	0.103228
1167.185698	0.065287
1167.338812	0.107937
1167.491909	0.104089
1167.644987	0.155968
1167.798046	0.201311
1167.951088	0.191554
1168.104111	0.197874
1168.257117	0.163574
1168.410103	0.145692
1168.563072	0.196075
1168.716023	0.165924
1168.868955	0.181210
1169.021869	0.125348
1169.174765	0.115728
1169.327642	0.156867
1169.480501	0.157374
1169.633343	0.202725
1169.786165	0.247589
1169.938970	0.167487
1170.091757	0.110855
1170.244525	0.069539
1170.397275	0.168177
1170.550007	0.207147
1170.702720	0.204932
1170.855415	0.211354
1171.008092	0.145762
1171.160751	0.084381
1171.313392	0.062909
1171.466014	0.183700
1171.618619	-0.121166
1171.771205	-0.121166
1171.923772	-0.121166
