sample name	sample
index	1159
start time	 04-22-2021  03:56:35 PM


Wavelength (nm)	Absorbance
494.344910	0.117694
494.563924	0.117694
494.782919	0.117694
495.001897	NaN
495.220856	0.065183
495.439797	0.135220
495.658719	0.076007
495.877624	-0.095927
496.096510	-0.066759
496.315378	0.101105
496.534227	0.411641
496.753059	0.653993
496.971872	0.205394
497.190667	0.219940
497.409444	0.210090
497.628203	0.212193
497.846943	0.214256
498.065665	0.213983
498.284369	0.212396
498.503055	0.212418
498.721723	0.212069
498.940372	0.213837
499.159003	0.212541
499.377616	0.213874
499.596210	0.213149
499.814787	0.215236
500.033345	0.215013
500.251885	0.216641
500.470406	0.216853
500.688910	0.216890
500.907395	0.216412
501.125862	0.217827
501.344311	0.217619
501.562742	0.219264
501.781154	0.217612
501.999548	0.217092
502.217924	0.218210
502.436282	0.218078
502.654621	0.218329
502.872942	0.217811
503.091245	0.217464
503.309530	0.216355
503.527797	0.215617
503.746045	0.217442
503.964275	0.217827
504.182487	0.216394
504.400681	0.217596
504.618856	0.216926
504.837013	0.216602
505.055152	0.216605
505.273273	0.216230
505.491376	0.217217
505.709460	0.216730
505.927526	0.218130
506.145574	0.218037
506.363604	0.217690
506.581615	0.218634
506.799608	0.220561
507.017583	0.219875
507.235540	0.221181
507.453478	0.221386
507.671399	0.220815
507.889301	0.220476
508.107185	0.220010
508.325050	0.218647
508.542898	0.219332
508.760727	0.218752
508.978538	0.220189
509.196330	0.220105
509.414105	0.220158
509.631861	0.220991
509.849599	0.220576
510.067319	0.221837
510.285021	0.221876
510.502704	0.221457
510.720369	0.222007
510.938016	0.221339
511.155645	0.222267
511.373255	0.222470
511.590848	0.222502
511.808422	0.223419
512.025977	0.223735
512.243515	0.224772
512.461034	0.224483
512.678536	0.224056
512.896018	0.224868
513.113483	0.224815
513.330930	0.224753
513.548358	0.224669
513.765768	0.224260
513.983160	0.224217
514.200533	0.224005
514.417889	0.223975
514.635226	0.224548
514.852545	0.225326
515.069845	0.226058
515.287128	0.225209
515.504392	0.225296
515.721638	0.225322
515.938866	0.225251
516.156075	0.226038
516.373267	0.226902
516.590440	0.227149
516.807594	0.226902
517.024731	0.226349
517.241850	0.227661
517.458950	0.227697
517.676032	0.227663
517.893095	0.227137
518.110141	0.227239
518.327168	0.228499
518.544177	0.228250
518.761168	0.228173
518.978141	0.228005
519.195095	0.227863
519.412031	0.227799
519.628949	0.228331
519.845849	0.230011
520.062731	0.230562
520.279594	0.229894
520.496439	0.230920
520.713266	0.231791
520.930074	0.233207
521.146865	0.233890
521.363637	0.234519
521.580391	0.235941
521.797127	0.235495
522.013844	0.235864
522.230543	0.235427
522.447224	0.234529
522.663887	0.235057
522.880532	0.234751
523.097158	0.234806
523.313766	0.234984
523.530356	0.235447
523.746928	0.235509
523.963481	0.236073
524.180017	0.237848
524.396534	0.239520
524.613032	0.239478
524.829513	0.239521
525.045975	0.240925
525.262420	0.241767
525.478845	0.240570
525.695253	0.240995
525.911643	0.241753
526.128014	0.242290
526.344367	0.241888
526.560702	0.241635
526.777018	0.242563
526.993316	0.242229
527.209597	0.242498
527.425858	0.243628
527.642102	0.244188
527.858328	0.243326
528.074535	0.242411
528.290724	0.243349
528.506894	0.243611
528.723047	0.243862
528.939181	0.244382
529.155297	0.245142
529.371395	0.245194
529.587475	0.245866
529.803536	0.247495
530.019579	0.248375
530.235604	0.247835
530.451611	0.248973
530.667600	0.249401
530.883570	0.249696
531.099522	0.249953
531.315456	0.250235
531.531372	0.250104
531.747269	0.249675
531.963148	0.249462
532.179009	0.249955
532.394852	0.249912
532.610676	0.250339
532.826482	0.250366
533.042271	0.250112
533.258040	0.250628
533.473792	0.250679
533.689525	0.250601
533.905240	0.251306
534.120937	0.251468
534.336616	0.251819
534.552277	0.252175
534.767919	0.252536
534.983543	0.252482
535.199149	0.251699
535.414736	0.252224
535.630306	0.252603
535.845857	0.252395
536.061390	0.253029
536.276904	0.253040
536.492401	0.253238
536.707879	0.253576
536.923339	0.254685
537.138781	0.255660
537.354204	0.255691
537.569610	0.255774
537.784997	0.256333
538.000366	0.256631
538.215716	0.256689
538.431049	0.256959
538.646363	0.256557
538.861659	0.256143
539.076937	0.256775
539.292196	0.257305
539.507438	0.257244
539.722661	0.257582
539.937866	0.257560
540.153052	0.258320
540.368221	0.258658
540.583371	0.259275
540.798503	0.260239
541.013617	0.260059
541.228712	0.260808
541.443789	0.261847
541.658848	0.261987
541.873889	0.262830
542.088912	0.262878
542.303916	0.262810
542.518902	0.263246
542.733870	0.262926
542.948820	0.263180
543.163752	0.263449
543.378665	0.263530
543.593560	0.264043
543.808437	0.264229
544.023295	0.264345
544.238136	0.264751
544.452958	0.265425
544.667762	0.266005
544.882548	0.266078
545.097315	0.265684
545.312064	0.265788
545.526795	0.266126
545.741508	0.265433
545.956203	0.266300
546.170879	0.265919
546.385537	0.266172
546.600177	0.266646
546.814799	0.267095
547.029402	0.267590
547.243988	0.268323
547.458555	0.268066
547.673103	0.269238
547.887634	0.269195
548.102146	0.269594
548.316640	0.269609
548.531116	0.269406
548.745574	0.270140
548.960013	0.270041
549.174435	0.269732
549.388838	0.269799
549.603222	0.269494
549.817589	0.269623
550.031937	0.270225
550.246267	0.270176
550.460579	0.270402
550.674873	0.270476
550.889148	0.271033
551.103405	0.271242
551.317644	0.271862
551.531865	0.273145
551.746068	0.273428
551.960252	0.273882
552.174418	0.273959
552.388566	0.274453
552.602696	0.274579
552.816807	0.275179
553.030900	0.275472
553.244975	0.276063
553.459032	0.275535
553.673070	0.275857
553.887091	0.275780
554.101093	0.276187
554.315077	0.276498
554.529042	0.277038
554.742990	0.276611
554.956919	0.276882
555.170830	0.277151
555.384722	0.277331
555.598597	0.277419
555.812453	0.277495
556.026291	0.277546
556.240111	0.277584
556.453913	0.277046
556.667696	0.277931
556.881461	0.278177
557.095208	0.277639
557.308937	0.277376
557.522647	0.277626
557.736339	0.277531
557.950013	0.278142
558.163669	0.278322
558.377307	0.278769
558.590926	0.278596
558.804527	0.278654
559.018110	0.279169
559.231675	0.279403
559.445221	0.279574
559.658749	0.279859
559.872259	0.279119
560.085751	0.278969
560.299225	0.279406
560.512680	0.279253
560.726117	0.279361
560.939536	0.279271
561.152937	0.279696
561.366319	0.279486
561.579683	0.279625
561.793029	0.280422
562.006357	0.280593
562.219667	0.280770
562.432958	0.281268
562.646231	0.281382
562.859486	0.281862
563.072723	0.281851
563.285941	0.282648
563.499141	0.283271
563.712323	0.283494
563.925487	0.283791
564.138632	0.283423
564.351760	0.283142
564.564869	0.283439
564.777960	0.283531
564.991032	0.283706
565.204087	0.283379
565.417123	0.283159
565.630141	0.283668
565.843140	0.283958
566.056122	0.283962
566.269085	0.284270
566.482030	0.284662
566.694957	0.284358
566.907866	0.284419
567.120756	0.284662
567.333628	0.284646
567.546482	0.283967
567.759318	0.284032
567.972135	0.284275
568.184935	0.284603
568.397716	0.285009
568.610478	0.285222
568.823223	0.285379
569.035949	0.285363
569.248657	0.285498
569.461347	0.285289
569.674019	0.285168
569.886672	0.285376
570.099308	0.285403
570.311925	0.284382
570.524523	0.284960
570.737104	0.285477
570.949666	0.285889
571.162210	0.285969
571.374736	0.286810
571.587244	0.287480
571.799733	0.287668
572.012205	0.287906
572.224658	0.288720
572.437092	0.288936
572.649509	0.289390
572.861907	0.289541
573.074287	0.289818
573.286649	0.289927
573.498993	0.289891
573.711318	0.290116
573.923625	0.290053
574.135914	0.290089
574.348185	0.289566
574.560438	0.289115
574.772672	0.289380
574.984888	0.289228
575.197086	0.289289
575.409266	0.289595
575.621427	0.289861
575.833570	0.290181
576.045695	0.290468
576.257802	0.291234
576.469890	0.291233
576.681961	0.291048
576.894013	0.291328
577.106046	0.291568
577.318062	0.291365
577.530059	0.291380
577.742039	0.291491
577.954000	0.291801
578.165942	0.291744
578.377867	0.291868
578.589773	0.291808
578.801661	0.292291
579.013531	0.292259
579.225382	0.292417
579.437216	0.292816
579.649031	0.292926
579.860828	0.292763
580.072606	0.292761
580.284367	0.293166
580.496109	0.293693
580.707833	0.293843
580.919539	0.293799
581.131227	0.294417
581.342896	0.294414
581.554547	0.294463
581.766180	0.294839
581.977795	0.295000
582.189391	0.295954
582.400969	0.295671
582.612529	0.295651
582.824071	0.295956
583.035595	0.295851
583.247100	0.296686
583.458587	0.296944
583.670056	0.296646
583.881506	0.296898
584.092939	0.296213
584.304353	0.296765
584.515749	0.297292
584.727127	0.297600
584.938486	0.297802
585.149828	0.297075
585.361151	0.297044
585.572456	0.297516
585.783742	0.297441
585.995011	0.297478
586.206261	0.297439
586.417493	0.297262
586.628706	0.297400
586.839902	0.297189
587.051079	0.297756
587.262238	0.298129
587.473379	0.298136
587.684502	0.298778
587.895606	0.299176
588.106692	0.299513
588.317760	0.300243
588.528810	0.300606
588.739841	0.300700
588.950855	0.300872
589.161850	0.300987
589.372827	0.301421
589.583785	0.301090
589.794726	0.301130
590.005648	0.301041
590.216552	0.300476
590.427437	0.300577
590.638305	0.300761
590.849154	0.300519
591.059985	0.300612
591.270798	0.300668
591.481592	0.301043
591.692369	0.301066
591.903127	0.301278
592.113867	0.302001
592.324588	0.301762
592.535292	0.301755
592.745977	0.302378
592.956644	0.303063
593.167293	0.303431
593.377923	0.303700
593.588536	0.304514
593.799130	0.304706
594.009706	0.304101
594.220263	0.304521
594.430803	0.305261
594.641324	0.305335
594.851827	0.305161
595.062312	0.305032
595.272778	0.304936
595.483227	0.304797
595.693657	0.305127
595.904069	0.305709
596.114462	0.305761
596.324838	0.305094
596.535195	0.305120
596.745534	0.305206
596.955855	0.305495
597.166157	0.306092
597.376441	0.306160
597.586707	0.306298
597.796955	0.306346
598.007185	0.306659
598.217396	0.307194
598.427589	0.307047
598.637764	0.306901
598.847921	0.306888
599.058060	0.306523
599.268180	0.306759
599.478282	0.306839
599.688366	0.307040
599.898431	0.306901
600.108479	0.307016
600.318508	0.307182
600.528519	0.307276
600.738511	0.307563
600.948486	0.307994
601.158442	0.308213
601.368380	0.308471
601.578300	0.308414
601.788202	0.308490
601.998085	0.308619
602.207950	0.308778
602.417797	0.309540
602.627626	0.309489
602.837436	0.309556
603.047228	0.309409
603.257002	0.309636
603.466758	0.309809
603.676496	0.310253
603.886215	0.310704
604.095916	0.311149
604.305599	0.310740
604.515264	0.311552
604.724910	0.311729
604.934538	0.311982
605.144148	0.312166
605.353740	0.312647
605.563314	0.312845
605.772869	0.313134
605.982406	0.313376
606.191925	0.313778
606.401425	0.313601
606.610908	0.313762
606.820372	0.313871
607.029818	0.313713
607.239246	0.313991
607.448655	0.314096
607.658047	0.314082
607.867420	0.314311
608.076775	0.314564
608.286111	0.314353
608.495430	0.314385
608.704730	0.314404
608.914012	0.314715
609.123275	0.314317
609.332521	0.314373
609.541748	0.314462
609.750957	0.314182
609.960148	0.313973
610.169321	0.314121
610.378475	0.314431
610.587611	0.314623
610.796729	0.314807
611.005829	0.315231
611.214910	0.315462
611.423974	0.315529
611.633019	0.315617
611.842045	0.316023
612.051054	0.316397
612.260044	0.316538
612.469017	0.317029
612.677970	0.316917
612.886906	0.317208
613.095824	0.317092
613.304723	0.317051
613.513604	0.317389
613.722467	0.317460
613.931311	0.317349
614.140138	0.317375
614.348946	0.317294
614.557736	0.317591
614.766507	0.317369
614.975261	0.317794
615.183996	0.317872
615.392713	0.317690
615.601412	0.317674
615.810092	0.317817
616.018754	0.317915
616.227399	0.318051
616.436024	0.318064
616.644632	0.318196
616.853222	0.318280
617.061793	0.318734
617.270346	0.319146
617.478880	0.319635
617.687397	0.319853
617.895895	0.320015
618.104375	0.320154
618.312837	0.320452
618.521281	0.320760
618.729706	0.321109
618.938113	0.321042
619.146502	0.321388
619.354873	0.321503
619.563226	0.321861
619.771560	0.322003
619.979876	0.322094
620.188174	0.322189
620.396453	0.322255
620.604715	0.322250
620.812958	0.322376
621.021183	0.322278
621.229390	0.322314
621.437578	0.322164
621.645748	0.322496
621.853900	0.322510
622.062034	0.322257
622.270150	0.322667
622.478247	0.323006
622.686326	0.323371
622.894387	0.323654
623.102430	0.323520
623.310454	0.323460
623.518461	0.323684
623.726449	0.323892
623.934418	0.324192
624.142370	0.324431
624.350303	0.324247
624.558218	0.324433
624.766115	0.324479
624.973994	0.324884
625.181855	0.325238
625.389697	0.325374
625.597521	0.325318
625.805327	0.325485
626.013114	0.325399
626.220883	0.325611
626.428634	0.325738
626.636367	0.325648
626.844082	0.325745
627.051778	0.326007
627.259457	0.326065
627.467117	0.326599
627.674758	0.326975
627.882382	0.326811
628.089987	0.327322
628.297574	0.327394
628.505143	0.327705
628.712694	0.327779
628.920226	0.327851
629.127740	0.328026
629.335236	0.328217
629.542714	0.328246
629.750174	0.329016
629.957615	0.328360
630.165038	0.328423
630.372443	0.328804
630.579829	0.329386
630.787198	0.329708
630.994548	0.329974
631.201880	0.329863
631.409194	0.330083
631.616489	0.329897
631.823766	0.330687
632.031025	0.331045
632.238266	0.331254
632.445489	0.331089
632.652693	0.331272
632.859879	0.331115
633.067047	0.331540
633.274197	0.331926
633.481329	0.332141
633.688442	0.332155
633.895537	0.332013
634.102614	0.332013
634.309672	0.332127
634.516713	0.332149
634.723735	0.332479
634.930739	0.332214
635.137724	0.332097
635.344692	0.332360
635.551641	0.332754
635.758572	0.333405
635.965485	0.333598
636.172379	0.333904
636.379256	0.334060
636.586114	0.334137
636.792954	0.334583
636.999775	0.335407
637.206579	0.335432
637.413364	0.335545
637.620131	0.335697
637.826880	0.336099
638.033610	0.336566
638.240323	0.336960
638.447017	0.337221
638.653692	0.337141
638.860350	0.336960
639.066990	0.337317
639.273611	0.337443
639.480214	0.337046
639.686798	0.336789
639.893365	0.336706
640.099913	0.336768
640.306443	0.336858
640.512955	0.337529
640.719449	0.337310
640.925924	0.337597
641.132381	0.337859
641.338820	0.338275
641.545241	0.338796
641.751644	0.338856
641.958028	0.339043
642.164394	0.339556
642.370742	0.339413
642.577071	0.339682
642.783383	0.339749
642.989676	0.339814
643.195951	0.340150
643.402207	0.340270
643.608446	0.340757
643.814666	0.341014
644.020868	0.340847
644.227052	0.341223
644.433218	0.341543
644.639365	0.341700
644.845494	0.341865
645.051605	0.341752
645.257698	0.341610
645.463772	0.341339
645.669828	0.341342
645.875866	0.341881
646.081886	0.341913
646.287888	0.341983
646.493871	0.342341
646.699836	0.342249
646.905783	0.342735
647.111712	0.342979
647.317622	0.343612
647.523514	0.343816
647.729388	0.343532
647.935244	0.343817
648.141082	0.344248
648.346901	0.344309
648.552702	0.344667
648.758485	0.344733
648.964250	0.345130
649.169996	0.345006
649.375724	0.345218
649.581434	0.345899
649.787126	0.346195
649.992800	0.346504
650.198455	0.346733
650.404092	0.347162
650.609711	0.347440
650.815311	0.347357
651.020894	0.347959
651.226458	0.348057
651.432004	0.347802
651.637532	0.347909
651.843041	0.347822
652.048532	0.347992
652.254006	0.348272
652.459460	0.348533
652.664897	0.348888
652.870315	0.348398
653.075716	0.348855
653.281097	0.349435
653.486461	0.349676
653.691807	0.349909
653.897134	0.349882
654.102443	0.349610
654.307734	0.349475
654.513006	0.349806
654.718261	0.350390
654.923497	0.350561
655.128715	0.350701
655.333915	0.350804
655.539096	0.350825
655.744259	0.350878
655.949404	0.351140
656.154531	0.351563
656.359640	0.351595
656.564730	0.351672
656.769802	0.351706
656.974856	0.351658
657.179892	0.351819
657.384909	0.352012
657.589908	0.352617
657.794889	0.352909
657.999852	0.353224
658.204797	0.353511
658.409723	0.353988
658.614631	0.354501
658.819521	0.354946
659.024393	0.355120
659.229246	0.355563
659.434081	0.355503
659.638898	0.356009
659.843697	0.356171
660.048478	0.356592
660.253240	0.356675
660.457984	0.356751
660.662710	0.356926
660.867417	0.356974
661.072107	0.357389
661.276778	0.357874
661.481431	0.357524
661.686066	0.357633
661.890682	0.357799
662.095281	0.357861
662.299861	0.358188
662.504422	0.358311
662.708966	0.359000
662.913491	0.359025
663.117999	0.359211
663.322488	0.359724
663.526958	0.359989
663.731411	0.359943
663.935845	0.360366
664.140261	0.360265
664.344659	0.360487
664.549038	0.360718
664.753400	0.360804
664.957743	0.360977
665.162068	0.361154
665.366375	0.361198
665.570663	0.361548
665.774933	0.361702
665.979185	0.362135
666.183419	0.362379
666.387635	0.362378
666.591832	0.362782
666.796011	0.363159
667.000172	0.363511
667.204315	0.363916
667.408439	0.364012
667.612545	0.364374
667.816634	0.364729
668.020703	0.365014
668.224755	0.365280
668.428788	0.365180
668.632803	0.365478
668.836800	0.365738
669.040779	0.365998
669.244739	0.366342
669.448681	0.366445
669.652605	0.366511
669.856511	0.366857
670.060399	0.367143
670.264268	0.367501
670.468119	0.367754
670.671952	0.367916
670.875767	0.368112
671.079563	0.368016
671.283341	0.368362
671.487101	0.368490
671.690843	0.368179
671.894567	0.368261
672.098272	0.368735
672.301959	0.368594
672.505628	0.368757
672.709278	0.369209
672.912911	0.369754
673.116525	0.369595
673.320121	0.369877
673.523699	0.370336
673.727258	0.370548
673.930799	0.370452
674.134322	0.370432
674.337827	0.370971
674.541314	0.370818
674.744782	0.370932
674.948232	0.371443
675.151664	0.371580
675.355078	0.371406
675.558474	0.371720
675.761851	0.372098
675.965210	0.372572
676.168551	0.372292
676.371873	0.372830
676.575178	0.373285
676.778464	0.373574
676.981732	0.373929
677.184981	0.375083
677.388213	0.375425
677.591426	0.375731
677.794621	0.376189
677.997798	0.376869
678.200956	0.377002
678.404097	0.377349
678.607219	0.377581
678.810323	0.377949
679.013408	0.377854
679.216476	0.378045
679.419525	0.378069
679.622556	0.378296
679.825569	0.378411
680.028563	0.378623
680.231540	0.378634
680.434498	0.378542
680.637438	0.378418
680.840359	0.378568
681.043263	0.378733
681.246148	0.379080
681.449015	0.379055
681.651864	0.379152
681.854694	0.379591
682.057506	0.379674
682.260301	0.379907
682.463076	0.380322
682.665834	0.380437
682.868573	0.380538
683.071295	0.380699
683.273998	0.381083
683.476682	0.381218
683.679349	0.381157
683.881997	0.381586
684.084627	0.381990
684.287239	0.382140
684.489833	0.382389
684.692408	0.382572
684.894965	0.382875
685.097504	0.383128
685.300025	0.383143
685.502527	0.383082
685.705012	0.383176
685.907478	0.383174
686.109925	0.383221
686.312355	0.383426
686.514766	0.383688
686.717159	0.383821
686.919534	0.383626
687.121891	0.383971
687.324230	0.384392
687.526550	0.384587
687.728852	0.384858
687.931136	0.385117
688.133401	0.385503
688.335649	0.385856
688.537878	0.385912
688.740089	0.386661
688.942281	0.386941
689.144456	0.387115
689.346612	0.387227
689.548750	0.387437
689.750870	0.387858
689.952971	0.387719
690.155055	0.387670
690.357120	0.388026
690.559167	0.388016
690.761195	0.388516
690.963206	0.388532
691.165198	0.388513
691.367172	0.388603
691.569128	0.388310
691.771065	0.388644
691.972984	0.388800
692.174885	0.388792
692.376768	0.388585
692.578633	0.388537
692.780479	0.388620
692.982308	0.389050
693.184118	0.389284
693.385909	0.389714
693.587683	0.389658
693.789438	0.389546
693.991175	0.389960
694.192894	0.390247
694.394595	0.390536
694.596277	0.390796
694.797941	0.390967
694.999587	0.391133
695.201215	0.391553
695.402824	0.391804
695.604416	0.392132
695.805989	0.392141
696.007543	0.392284
696.209080	0.391939
696.410598	0.392231
696.612099	0.392256
696.813580	0.392138
697.015044	0.392054
697.216490	0.392032
697.417917	0.392135
697.619326	0.392318
697.820717	0.392391
698.022089	0.392633
698.223444	0.392661
698.424780	0.392670
698.626098	0.392895
698.827397	0.392827
699.028679	0.393014
699.229942	0.393433
699.431187	0.393182
699.632414	0.393214
699.833622	0.393433
700.034813	0.393638
700.235985	0.394063
700.437139	0.394495
700.638274	0.394929
700.839392	0.395173
701.040491	0.394995
701.241572	0.395679
701.442635	0.395958
701.643679	0.396083
701.844706	0.396266
702.045714	0.395936
702.246704	0.395744
702.447675	0.395819
702.648629	0.395849
702.849564	0.396224
703.050481	0.396155
703.251380	0.396432
703.452260	0.396558
703.653122	0.396501
703.853966	0.396946
704.054792	0.397188
704.255600	0.397158
704.456389	0.397606
704.657160	0.397733
704.857913	0.397723
705.058648	0.397722
705.259365	0.397979
705.460063	0.398140
705.660743	0.398107
705.861405	0.398164
706.062048	0.398122
706.262674	0.397681
706.463281	0.397431
706.663870	0.397213
706.864441	0.397175
707.064993	0.396738
707.265527	0.396501
707.466043	0.396400
707.666541	0.396356
707.867021	0.396293
708.067482	0.396426
708.267925	0.396666
708.468350	0.396971
708.668757	0.396904
708.869145	0.397187
709.069516	0.397455
709.269868	0.397816
709.470201	0.397908
709.670517	0.398047
709.870814	0.398042
710.071093	0.398013
710.271354	0.397836
710.471597	0.398338
710.671821	0.398199
710.872028	0.398228
711.072216	0.398322
711.272385	0.398366
711.472537	0.398423
711.672670	0.398586
711.872785	0.398433
712.072882	0.398444
712.272961	0.398261
712.473021	0.398394
712.673063	0.398332
712.873087	0.397632
713.073093	0.397488
713.273081	0.397263
713.473050	0.396943
713.673001	0.397013
713.872934	0.396918
714.072849	0.396509
714.272745	0.396261
714.472623	0.396299
714.672483	0.396668
714.872325	0.396688
715.072148	0.396597
715.271954	0.396818
715.471741	0.396802
715.671509	0.396895
715.871260	0.397197
716.070992	0.397250
716.270707	0.397145
716.470403	0.396973
716.670080	0.396981
716.869740	0.396996
717.069381	0.396952
717.269004	0.396919
717.468609	0.396897
717.668195	0.396710
717.867764	0.397019
718.067314	0.396726
718.266846	0.397017
718.466360	0.396716
718.665855	0.396824
718.865332	0.396692
719.064791	0.396366
719.264232	0.396188
719.463655	0.395845
719.663059	0.395472
719.862445	0.395462
720.061813	0.394980
720.261163	0.395056
720.460494	0.394986
720.659807	0.395059
720.859102	0.395044
721.058379	0.394879
721.257638	0.394870
721.456878	0.394676
721.656100	0.394783
721.855304	0.394585
722.054490	0.394575
722.253657	0.394433
722.452806	0.394165
722.651937	0.393953
722.851050	0.393703
723.050145	0.393431
723.249221	0.393439
723.448279	0.393178
723.647319	0.393082
723.846340	0.392766
724.045344	0.392346
724.244329	0.391987
724.443296	0.392053
724.642245	0.392312
724.841175	0.392300
725.040088	0.392222
725.238982	0.392444
725.437857	0.392321
725.636715	0.392103
725.835554	0.392330
726.034376	0.392058
726.233179	0.391926
726.431963	0.391584
726.630730	0.391490
726.829478	0.391103
727.028208	0.390635
727.226920	0.390592
727.425614	0.390647
727.624289	0.390363
727.822946	0.390304
728.021585	0.390104
728.220206	0.389971
728.418808	0.389791
728.617392	0.389507
728.815958	0.389118
729.014506	0.389021
729.213036	0.388921
729.411547	0.388612
729.610040	0.388592
729.808515	0.388364
730.006972	0.387999
730.205410	0.388137
730.403831	0.388078
730.602233	0.388257
730.800616	0.388030
730.998982	0.387594
731.197329	0.387517
731.395658	0.387511
731.593969	0.387203
731.792262	0.387111
731.990536	0.386874
732.188793	0.387007
732.387031	0.386766
732.585250	0.386580
732.783452	0.386466
732.981635	0.386500
733.179800	0.386021
733.377947	0.386110
733.576076	0.386088
733.774186	0.385641
733.972278	0.385205
734.170352	0.384995
734.368408	0.384737
734.566446	0.384380
734.764465	0.384076
734.962466	0.383816
735.160449	0.383140
735.358413	0.382745
735.556360	0.382616
735.754288	0.382293
735.952198	0.381770
736.150090	0.381643
736.347963	0.381617
736.545818	0.381115
736.743655	0.381081
736.941474	0.381246
737.139275	0.381138
737.337057	0.380884
737.534821	0.380837
737.732567	0.380846
737.930295	0.380417
738.128005	0.380485
738.325696	0.380555
738.523369	0.380525
738.721024	0.380314
738.918660	0.380235
739.116279	0.379976
739.313879	0.379728
739.511461	0.379493
739.709024	0.379621
739.906570	0.379239
740.104097	0.379162
740.301606	0.378960
740.499097	0.378410
740.696569	0.378068
740.894024	0.378091
741.091460	0.377802
741.288878	0.377514
741.486277	0.377185
741.683659	0.377055
741.881022	0.376812
742.078367	0.376498
742.275694	0.376758
742.473002	0.376444
742.670293	0.375923
742.867565	0.375953
743.064819	0.375928
743.262054	0.375733
743.459272	0.375187
743.656471	0.374757
743.853652	0.374486
744.050815	0.373865
744.247959	0.373523
744.445085	0.373487
744.642194	0.373312
744.839283	0.373076
745.036355	0.372752
745.233408	0.372675
745.430444	0.372493
745.627461	0.372294
745.824459	0.372362
746.021440	0.372463
746.218402	0.372147
746.415346	0.371718
746.612272	0.371348
746.809180	0.371208
747.006069	0.371136
747.202940	0.371101
747.399793	0.370908
747.596628	0.370592
747.793444	0.370575
747.990243	0.370123
748.187023	0.370062
748.383784	0.370083
748.580528	0.369927
748.777253	0.369635
748.973960	0.369388
749.170649	0.369149
749.367320	0.369233
749.563973	0.368525
749.760607	0.368597
749.957223	0.368130
750.153821	0.367469
750.350400	0.367169
750.546962	0.366653
750.743505	0.366246
750.940030	0.365875
751.136536	0.365346
751.333025	0.365290
751.529495	0.364565
751.725947	0.364475
751.922381	0.364565
752.118796	0.364143
752.315194	0.364301
752.511573	0.363876
752.707934	0.363561
752.904276	0.363443
753.100601	0.363546
753.296907	0.363542
753.493195	0.363218
753.689465	0.362772
753.885716	0.362699
754.081949	0.362260
754.278164	0.362118
754.474361	0.362107
754.670540	0.361921
754.866700	0.361455
755.062843	0.361390
755.258967	0.361130
755.455072	0.360902
755.651160	0.360416
755.847229	0.360182
756.043280	0.360078
756.239313	0.359678
756.435328	0.359400
756.631324	0.359038
756.827302	0.358895
757.023262	0.358685
757.219204	0.358848
757.415127	0.358895
757.611033	0.358978
757.806920	0.358275
758.002788	0.358292
758.198639	0.358133
758.394471	0.358041
758.590286	0.358126
758.786081	0.357906
758.981859	0.357485
759.177619	0.357287
759.373360	0.356811
759.569083	0.357171
759.764788	0.356985
759.960474	0.356578
760.156143	0.356406
760.351793	0.355770
760.547425	0.355604
760.743038	0.355479
760.938634	0.355239
761.134211	0.355142
761.329770	0.354862
761.525311	0.354509
761.720833	0.354683
761.916338	0.354429
762.111824	0.354510
762.307292	0.354656
762.502741	0.354437
762.698173	0.354138
762.893586	0.353752
763.088981	0.353633
763.284358	0.353505
763.479716	0.353032
763.675057	0.353250
763.870379	0.352957
764.065683	0.352365
764.260968	0.352009
764.456236	0.351842
764.651485	0.351810
764.846716	0.351531
765.041929	0.351427
765.237123	0.351300
765.432299	0.350855
765.627457	0.350868
765.822597	0.351041
766.017719	0.351042
766.212822	0.351325
766.407907	0.351102
766.602974	0.351046
766.798023	0.350908
766.993054	0.350711
767.188066	0.350550
767.383060	0.350430
767.578036	0.350723
767.772993	0.350783
767.967933	0.350429
768.162854	0.350418
768.357757	0.350272
768.552642	0.350465
768.747508	0.350710
768.942356	0.350711
769.137186	0.350714
769.331998	0.350102
769.526792	0.350036
769.721567	0.350253
769.916324	0.350467
770.111063	0.350338
770.305784	0.350103
770.500486	0.349957
770.695171	0.350013
770.889837	0.349744
771.084484	0.349790
771.279114	0.349568
771.473725	0.349431
771.668318	0.348943
771.862893	0.349288
772.057450	0.349206
772.251988	0.349103
772.446509	0.348996
772.641011	0.348938
772.835494	0.348666
773.029960	0.348624
773.224407	0.348755
773.418836	0.348969
773.613247	0.348612
773.807640	0.348804
774.002014	0.348819
774.196370	0.348703
774.390708	0.348556
774.585028	0.348794
774.779330	0.348640
774.973613	0.348538
775.167878	0.348391
775.362125	0.348229
775.556354	0.347800
775.750564	0.347597
775.944756	0.347471
776.138930	0.347627
776.333086	0.347542
776.527223	0.347584
776.721343	0.347196
776.915444	0.347264
777.109526	0.347172
777.303591	0.346978
777.497637	0.346633
777.691666	0.346446
777.885676	0.346344
778.079667	0.346052
778.273641	0.345975
778.467596	0.345566
778.661533	0.345338
778.855452	0.345502
779.049352	0.345606
779.243235	0.345656
779.437099	0.345441
779.630945	0.345558
779.824773	0.345566
780.018582	0.345535
780.212373	0.345871
780.406146	0.345756
780.599901	0.345644
780.793638	0.345806
780.987356	0.345908
781.181056	0.346145
781.374738	0.346049
781.568402	0.346464
781.762047	0.346351
781.955674	0.346117
782.149283	0.345952
782.342874	0.345924
782.536447	0.345700
782.730001	0.345639
782.923537	0.345584
783.117055	0.345297
783.310555	0.344722
783.504036	0.344689
783.697499	0.345221
783.890944	0.345637
784.084371	0.345864
784.277780	0.346082
784.471170	0.346270
784.664542	0.346531
784.857896	0.346968
785.051231	0.347291
785.244549	0.347592
785.437848	0.347411
785.631129	0.347537
785.824392	0.347577
786.017636	0.347588
786.210863	0.347737
786.404071	0.347960
786.597260	0.347825
786.790432	0.347777
786.983585	0.347701
787.176721	0.347876
787.369838	0.347688
787.562936	0.347711
787.756017	0.348096
787.949079	0.348203
788.142123	0.347840
788.335149	0.347838
788.528156	0.347830
788.721146	0.348105
788.914117	0.348126
789.107070	0.348066
789.300005	0.347815
789.492921	0.347635
789.685819	0.347586
789.878699	0.347532
790.071561	0.347368
790.264405	0.347587
790.457230	0.347433
790.650037	0.347275
790.842826	0.347452
791.035597	0.347703
791.228349	0.347700
791.421084	0.347740
791.613800	0.347847
791.806497	0.348122
791.999177	0.348438
792.191838	0.348666
792.384481	0.349081
792.577106	0.349419
792.769713	0.349549
792.962301	0.349526
793.154871	0.349566
793.347423	0.349898
793.539957	0.350129
793.732473	0.350087
793.924970	0.350268
794.117449	0.350328
794.309910	0.350264
794.502353	0.350865
794.694777	0.351102
794.887183	0.351310
795.079571	0.351568
795.271941	0.351983
795.464293	0.352020
795.656626	0.352157
795.848941	0.352284
796.041238	0.352433
796.233516	0.352250
796.425777	0.352668
796.618019	0.353097
796.810243	0.353348
797.002449	0.353495
797.194636	0.354011
797.386805	0.354509
797.578956	0.354797
797.771089	0.355415
797.963204	0.355926
798.155300	0.356202
798.347378	0.356604
798.539438	0.357031
798.731480	0.357036
798.923503	0.357131
799.115509	0.357181
799.307496	0.357415
799.499465	0.357654
799.691415	0.357724
799.883348	0.357848
800.075262	0.357825
800.267158	0.358349
800.459035	0.358974
800.650895	0.359149
800.842736	0.359366
801.034559	0.359771
801.226364	0.360063
801.418150	0.360526
801.609919	0.360898
801.801669	0.361418
801.993401	0.361413
802.185114	0.361502
802.376810	0.361877
802.568487	0.362042
802.760146	0.362102
802.951787	0.362489
803.143409	0.362407
803.335014	0.362684
803.526600	0.362909
803.718168	0.363390
803.909717	0.363988
804.101249	0.364388
804.292762	0.364956
804.484257	0.365259
804.675734	0.365384
804.867192	0.365825
805.058632	0.365816
805.250054	0.366243
805.441458	0.366167
805.632844	0.366187
805.824211	0.366560
806.015561	0.366427
806.206891	0.366933
806.398204	0.367122
806.589499	0.367464
806.780775	0.367422
806.972033	0.367587
807.163273	0.368144
807.354495	0.368138
807.545698	0.368244
807.736883	0.369096
807.928050	0.369521
808.119199	0.369915
808.310329	0.370176
808.501441	0.371086
808.692535	0.371197
808.883611	0.371440
809.074669	0.372206
809.265708	0.372690
809.456729	0.372787
809.647732	0.373010
809.838717	0.373439
810.029683	0.373897
810.220632	0.374094
810.411562	0.374616
810.602474	0.374648
810.793367	0.374558
810.984242	0.375242
811.175100	0.375501
811.365938	0.375806
811.556759	0.375833
811.747562	0.376196
811.938346	0.376476
812.129112	0.376550
812.319860	0.376989
812.510589	0.377356
812.701300	0.377369
812.891994	0.377717
813.082668	0.378359
813.273325	0.379070
813.463964	0.379361
813.654584	0.380004
813.845186	0.380364
814.035769	0.380803
814.226335	0.381579
814.416882	0.381989
814.607411	0.382720
814.797922	0.382976
814.988415	0.383163
815.178889	0.383567
815.369345	0.383769
815.559783	0.384251
815.750203	0.384937
815.940605	0.385233
816.130988	0.385769
816.321353	0.385804
816.511700	0.385872
816.702028	0.386619
816.892339	0.387389
817.082631	0.387839
817.272905	0.388203
817.463161	0.388459
817.653398	0.389133
817.843617	0.389438
818.033819	0.389994
818.224001	0.390790
818.414166	0.391191
818.604312	0.391227
818.794440	0.391893
818.984550	0.392547
819.174642	0.392802
819.364716	0.392623
819.554771	0.392978
819.744808	0.393461
819.934827	0.393824
820.124827	0.393933
820.314810	0.394277
820.504774	0.394437
820.694720	0.394810
820.884647	0.395400
821.074557	0.396149
821.264448	0.396359
821.454321	0.396667
821.644176	0.396875
821.834012	0.397036
822.023831	0.397565
822.213631	0.398294
822.403413	0.398938
822.593176	0.399291
822.782922	0.399591
822.972649	0.399989
823.162358	0.400890
823.352049	0.401310
823.541721	0.402209
823.731376	0.402287
823.921012	0.402518
824.110629	0.402767
824.300229	0.403146
824.489811	0.403718
824.679374	0.404211
824.868919	0.404002
825.058445	0.404619
825.247954	0.404766
825.437444	0.405659
825.626916	0.405898
825.816370	0.406003
826.005806	0.406514
826.195223	0.406734
826.384622	0.407476
826.574003	0.407965
826.763366	0.408640
826.952711	0.409124
827.142037	0.409427
827.331345	0.410332
827.520635	0.411110
827.709906	0.411657
827.899160	0.412388
828.088395	0.412751
828.277612	0.413353
828.466810	0.413475
828.655991	0.413787
828.845153	0.414213
829.034297	0.414403
829.223423	0.414555
829.412531	0.414831
829.601620	0.415095
829.790691	0.415282
829.979744	0.415435
830.168779	0.415880
830.357795	0.416445
830.546793	0.417090
830.735773	0.417657
830.924735	0.418613
831.113679	0.419516
831.302604	0.420236
831.491511	0.421107
831.680400	0.422156
831.869271	0.422845
832.058123	0.423821
832.246957	0.423934
832.435773	0.424793
832.624571	0.425404
832.813351	0.425529
833.002112	0.425966
833.190855	0.426441
833.379580	0.427014
833.568287	0.427581
833.756975	0.427836
833.945645	0.428655
834.134297	0.428669
834.322931	0.429347
834.511547	0.430071
834.700144	0.430524
834.888723	0.431039
835.077284	0.431569
835.265826	0.431978
835.454351	0.432782
835.642857	0.433728
835.831345	0.434637
836.019815	0.434831
836.208266	0.435554
836.396699	0.436457
836.585114	0.437236
836.773511	0.437748
836.961890	0.438684
837.150250	0.439573
837.338592	0.440055
837.526916	0.440517
837.715222	0.441151
837.903510	0.441302
838.091779	0.442101
838.280030	0.442626
838.468263	0.443664
838.656477	0.444059
838.844674	0.444299
839.032852	0.444716
839.221012	0.445393
839.409153	0.446252
839.597277	0.447283
839.785382	0.447703
839.973469	0.448512
840.161538	0.448838
840.349589	0.449744
840.537621	0.450391
840.725635	0.451201
840.913631	0.451981
841.101609	0.453014
841.289568	0.454019
841.477509	0.454646
841.665432	0.455267
841.853337	0.455992
842.041224	0.456598
842.229092	0.457033
842.416942	0.457429
842.604774	0.458127
842.792588	0.458344
842.980383	0.458561
843.168160	0.459284
843.355919	0.459878
843.543660	0.460155
843.731382	0.460812
843.919087	0.461764
844.106773	0.462320
844.294441	0.463042
844.482090	0.463733
844.669722	0.464543
844.857335	0.465117
845.044930	0.465662
845.232507	0.466089
845.420065	0.466379
845.607605	0.466792
845.795127	0.467707
845.982631	0.467887
846.170117	0.467779
846.357584	0.468071
846.545033	0.468373
846.732464	0.468997
846.919877	0.470324
847.107272	0.470537
847.294648	0.470991
847.482006	0.471339
847.669346	0.471609
847.856667	0.472492
848.043971	0.473327
848.231256	0.473955
848.418523	0.474778
848.605771	0.475098
848.793002	0.475914
848.980214	0.476481
849.167408	0.476968
849.354584	0.478279
849.541742	0.479171
849.728881	0.479267
849.916002	0.479937
850.103105	0.480054
850.290190	0.480549
850.477256	0.481215
850.664304	0.482145
850.851334	0.483259
851.038346	0.483481
851.225340	0.484182
851.412315	0.485015
851.599272	0.485814
851.786211	0.486117
851.973132	0.486684
852.160034	0.487382
852.346918	0.487728
852.533784	0.487683
852.720632	0.488192
852.907462	0.488325
853.094273	0.488869
853.281066	0.489437
853.467841	0.490364
853.654598	0.491141
853.841336	0.491445
854.028056	0.491656
854.214758	0.492480
854.401442	0.493179
854.588107	0.493841
854.774755	0.494463
854.961384	0.495425
855.147995	0.496370
855.334587	0.496733
855.521162	0.497672
855.707718	0.498976
855.894256	0.499858
856.080775	0.499997
856.267277	0.500529
856.453760	0.501324
856.640225	0.501682
856.826672	0.501505
857.013101	0.501840
857.199511	0.502261
857.385903	0.502567
857.572277	0.502943
857.758633	0.504118
857.944970	0.504942
858.131290	0.505540
858.317591	0.505300
858.503873	0.505901
858.690138	0.506822
858.876384	0.507474
859.062612	0.508268
859.248822	0.508634
859.435014	0.508774
859.621188	0.509258
859.807343	0.509498
859.993480	0.510172
860.179599	0.511003
860.365699	0.511218
860.551781	0.511711
860.737846	0.511705
860.923891	0.512307
861.109919	0.512978
861.295929	0.513074
861.481920	0.513886
861.667893	0.514336
861.853848	0.514512
862.039784	0.514883
862.225702	0.515423
862.411603	0.516330
862.597484	0.516468
862.783348	0.516932
862.969193	0.517270
863.155021	0.517222
863.340830	0.517660
863.526620	0.518511
863.712393	0.519148
863.898147	0.519443
864.083883	0.519736
864.269601	0.520539
864.455301	0.521378
864.640982	0.522556
864.826645	0.523210
865.012290	0.523986
865.197917	0.524738
865.383526	0.525741
865.569116	0.526075
865.754688	0.526068
865.940242	0.526625
866.125777	0.526628
866.311295	0.527254
866.496794	0.527747
866.682275	0.528029
866.867737	0.528221
867.053182	0.528470
867.238608	0.529566
867.424016	0.529934
867.609406	0.530403
867.794778	0.530469
867.980131	0.530540
868.165466	0.530856
868.350783	0.531506
868.536082	0.531383
868.721362	0.531666
868.906625	0.531621
869.091869	0.532849
869.277094	0.533247
869.462302	0.534608
869.647491	0.534985
869.832662	0.535141
870.017815	0.535565
870.202950	0.536544
870.388066	0.536825
870.573165	0.537099
870.758245	0.537107
870.943306	0.536889
871.128350	0.536049
871.313375	0.536317
871.498382	0.536821
871.683371	0.537229
871.868342	0.537398
872.053294	0.537162
872.238229	0.537515
872.423144	0.537775
872.608042	0.537947
872.792922	0.538370
872.977783	0.538939
873.162626	0.539801
873.347451	0.539808
873.532258	0.539398
873.717046	0.539838
873.901816	0.540042
874.086568	0.539992
874.271302	0.540646
874.456017	0.541110
874.640715	0.540975
874.825394	0.540572
875.010055	0.540949
875.194697	0.541509
875.379322	0.542216
875.563928	0.543059
875.748516	0.543573
875.933085	0.544267
876.117637	0.545150
876.302170	0.545369
876.486685	0.546195
876.671182	0.546437
876.855661	0.546931
877.040121	0.547175
877.224563	0.547303
877.408987	0.547960
877.593393	0.548167
877.777780	0.548194
877.962150	0.549066
878.146501	0.548871
878.330833	0.549462
878.515148	0.550272
878.699444	0.550532
878.883722	0.550321
879.067982	0.550862
879.252224	0.550777
879.436447	0.550807
879.620653	0.550946
879.804840	0.551343
879.989008	0.551191
880.173159	0.551410
880.357291	0.551709
880.541405	0.552221
880.725501	0.551817
880.909579	0.552581
881.093638	0.552749
881.277680	0.552983
881.461703	0.552790
881.645707	0.553201
881.829694	0.553025
882.013662	0.553040
882.197612	0.552796
882.381544	0.553357
882.565458	0.553689
882.749353	0.554479
882.933230	0.554296
883.117089	0.555430
883.300930	0.555313
883.484753	0.555274
883.668557	0.555790
883.852343	0.555846
884.036111	0.555528
884.219861	0.555329
884.403592	0.555880
884.587305	0.556005
884.771000	0.555098
884.954677	0.555495
885.138335	0.555847
885.321976	0.555329
885.505598	0.554995
885.689201	0.554981
885.872787	0.554213
886.056354	0.553389
886.239904	0.553254
886.423434	0.553956
886.606947	0.554025
886.790442	0.554171
886.973918	0.554602
887.157376	0.555856
887.340816	0.555715
887.524237	0.556487
887.707641	0.556736
887.891026	0.556585
888.074393	0.557141
888.257741	0.557306
888.441072	0.556815
888.624384	0.556699
888.807678	0.556157
888.990954	0.556368
889.174211	0.555826
889.357451	0.555726
889.540672	0.555668
889.723875	0.555030
889.907059	0.554764
890.090226	0.555134
890.273374	0.555076
890.456504	0.554906
890.639616	0.555065
890.822709	0.555583
891.005785	0.555442
891.188842	0.555812
891.371881	0.555108
891.554901	0.554759
891.737904	0.554026
891.920888	0.553623
892.103854	0.553152
892.286802	0.552662
892.469731	0.552496
892.652643	0.552536
892.835536	0.551994
893.018410	0.551940
893.201267	0.552012
893.384106	0.553045
893.566926	0.553329
893.749728	0.553808
893.932511	0.553688
894.115277	0.553408
894.298024	0.553334
894.480753	0.553222
894.663464	0.553694
894.846157	0.553352
895.028831	0.552310
895.211487	0.552427
895.394125	0.551708
895.576745	0.551747
895.759346	0.551758
895.941930	0.551211
896.124495	0.551761
896.307041	0.551854
896.489570	0.552213
896.672080	0.552143
896.854573	0.551371
897.037046	0.551584
897.219502	0.551578
897.401940	0.551249
897.584359	0.550891
897.766760	0.549616
897.949143	0.549022
898.131507	0.548332
898.313854	0.547715
898.496182	0.547997
898.678492	0.547496
898.860783	0.546917
899.043057	0.546316
899.225312	0.545546
899.407549	0.545800
899.589768	0.545126
899.771968	0.544730
899.954151	0.544975
900.136315	0.544444
900.318461	0.544179
900.500588	0.544110
900.682698	0.543919
900.864789	0.544193
901.046862	0.544154
901.228917	0.544049
901.410953	0.543774
901.592971	0.543599
901.774972	0.542934
901.956953	0.542577
902.138917	0.541751
902.320862	0.540443
902.502790	0.540262
902.684699	0.540853
902.866589	0.541047
903.048462	0.540663
903.230316	0.539870
903.412152	0.539775
903.593970	0.540533
903.775770	0.540819
903.957551	0.541448
904.139314	0.540793
904.321059	0.539677
904.502786	0.539227
904.684494	0.539614
904.866185	0.539442
905.047857	0.538957
905.229510	0.537647
905.411146	0.536713
905.592763	0.536206
905.774363	0.536342
905.955943	0.535467
906.137506	0.534171
906.319051	0.532917
906.500577	0.532564
906.682085	0.531937
906.863575	0.531919
907.045046	0.531234
907.226500	0.531234
907.407935	0.530894
907.589352	0.530256
907.770750	0.529809
907.952131	0.529240
908.133493	0.528071
908.314837	0.527888
908.496163	0.527933
908.677470	0.527361
908.858760	0.526759
909.040031	0.526489
909.221284	0.526100
909.402518	0.525850
909.583735	0.525611
909.764933	0.526028
909.946113	0.525669
910.127275	0.523928
910.308418	0.523673
910.489544	0.523076
910.670651	0.522530
910.851740	0.522388
911.032810	0.521961
911.213863	0.521126
911.394897	0.520507
911.575913	0.519199
911.756911	0.518057
911.937890	0.517683
912.118851	0.516384
912.299794	0.515365
912.480719	0.514038
912.661626	0.512772
912.842514	0.512024
913.023384	0.510455
913.204236	0.509564
913.385070	0.510166
913.565886	0.510088
913.746683	0.509740
913.927462	0.509052
914.108223	0.508558
914.288965	0.508279
914.469690	0.507695
914.650396	0.507603
914.831084	0.506451
915.011754	0.505302
915.192405	0.503199
915.373038	0.501756
915.553653	0.500586
915.734250	0.500160
915.914829	0.499268
916.095389	0.498187
916.275931	0.496958
916.456455	0.496810
916.636961	0.495333
916.817448	0.495528
916.997917	0.495298
917.178368	0.494460
917.358801	0.493330
917.539216	0.492615
917.719612	0.492046
917.899990	0.491380
918.080350	0.491355
918.260692	0.490652
918.441015	0.489088
918.621320	0.488620
918.801607	0.487801
918.981876	0.486743
919.162127	0.485881
919.342359	0.485494
919.522573	0.484835
919.702769	0.483450
919.882947	0.482781
920.063106	0.481854
920.243247	0.480416
920.423370	0.480225
920.603475	0.479620
920.783562	0.478590
920.963630	0.477015
921.143680	0.475410
921.323712	0.474305
921.503725	0.474076
921.683721	0.474394
921.863698	0.474678
922.043657	0.473423
922.223598	0.472403
922.403520	0.470987
922.583424	0.469794
922.763311	0.468614
922.943178	0.467635
923.123028	0.466043
923.302859	0.463939
923.482673	0.462074
923.662467	0.460144
923.842244	0.458467
924.022003	0.458361
924.201743	0.457542
924.381465	0.457293
924.561169	0.457151
924.740854	0.456098
924.920522	0.455220
925.100171	0.453894
925.279802	0.453076
925.459414	0.452369
925.639009	0.451170
925.818585	0.450438
925.998143	0.449220
926.177683	0.447625
926.357205	0.446782
926.536708	0.445638
926.716193	0.445032
926.895660	0.443684
927.075109	0.442741
927.254539	0.441922
927.433951	0.440778
927.613345	0.439856
927.792721	0.438915
927.972079	0.437803
928.151418	0.436575
928.330739	0.435144
928.510042	0.434403
928.689327	0.432491
928.868593	0.430937
929.047841	0.429982
929.227071	0.428624
929.406283	0.427258
929.585476	0.425182
929.764652	0.424896
929.943809	0.423679
930.122948	0.422700
930.302068	0.421892
930.481171	0.420459
930.660255	0.418329
930.839321	0.417657
931.018369	0.416178
931.197398	0.416132
931.376409	0.414125
931.555402	0.412816
931.734377	0.411707
931.913334	0.410901
932.092272	0.410110
932.271192	0.409459
932.450094	0.407344
932.628978	0.405802
932.807844	0.404643
932.986691	0.403659
933.165520	0.402939
933.344331	0.401816
933.523123	0.401015
933.701898	0.399156
933.880654	0.398306
934.059392	0.397148
934.238111	0.397511
934.416813	0.394879
934.595496	0.393272
934.774161	0.391890
934.952808	0.390754
935.131437	0.388523
935.310047	0.386676
935.488639	0.384345
935.667213	0.382937
935.845769	0.379922
936.024306	0.379281
936.202825	0.378591
936.381326	0.376680
936.559809	0.374092
936.738274	0.372193
936.916720	0.370677
937.095148	0.369537
937.273558	0.368613
937.451950	0.367299
937.630323	0.366042
937.808678	0.363979
937.987015	0.364091
938.165334	0.364026
938.343635	0.364593
938.521917	0.363746
938.700181	0.363376
938.878427	0.360882
939.056655	0.359653
939.234864	0.358944
939.413055	0.358023
939.591228	0.355770
939.769383	0.354746
939.947519	0.352512
940.125638	0.352607
940.303738	0.351118
940.481820	0.351654
940.659883	0.350109
940.837929	0.347110
941.015956	0.346473
941.193965	0.343823
941.371955	0.342902
941.549928	0.340432
941.727882	0.337303
941.905818	0.335628
942.083736	0.334777
942.261636	0.335298
942.439517	0.336298
942.617380	0.334188
942.795225	0.332403
942.973052	0.329257
943.150860	0.328281
943.328651	0.327801
943.506423	0.327797
943.684176	0.325082
943.861912	0.322931
944.039629	0.319662
944.217328	0.317974
944.395009	0.318110
944.572672	0.316842
944.750317	0.316736
944.927943	0.317355
945.105551	0.313934
945.283141	0.311146
945.460712	0.308504
945.638265	0.308942
945.815801	0.307490
945.993317	0.306799
946.170816	0.305978
946.348297	0.303945
946.525759	0.299937
946.703203	0.299863
946.880629	0.300628
947.058036	0.299548
947.235425	0.297188
947.412797	0.298446
947.590149	0.297318
947.767484	0.296447
947.944800	0.296448
948.122099	0.294768
948.299379	0.293603
948.476640	0.290794
948.653884	0.289392
948.831109	0.289092
949.008316	0.286688
949.185505	0.284420
949.362676	0.283249
949.539828	0.281255
949.716962	0.279263
949.894078	0.276366
950.071176	0.275386
950.248256	0.274513
950.425317	0.273063
950.602360	0.269141
950.779385	0.268789
950.956391	0.267279
951.133380	0.265968
951.310350	0.266851
951.487302	0.266716
951.664235	0.266099
951.841151	0.264116
952.018048	0.262871
952.194927	0.263814
952.371788	0.259656
952.548631	0.257028
952.725455	0.255740
952.902261	0.255106
953.079049	0.252970
953.255819	0.251899
953.432570	0.248980
953.609303	0.246783
953.786018	0.245093
953.962715	0.247827
954.139394	0.248069
954.316054	0.245409
954.492696	0.243635
954.669320	0.244461
954.845926	0.243217
955.022513	0.246254
955.199083	0.242300
955.375634	0.242620
955.552166	0.241166
955.728681	0.239285
955.905177	0.240539
956.081655	0.239189
956.258115	0.237793
956.434557	0.238979
956.610980	0.239196
956.787385	0.238860
956.963772	0.236600
957.140141	0.233488
957.316492	0.233727
957.492824	0.233736
957.669138	0.233421
957.845434	0.230683
958.021712	0.227594
958.197971	0.225120
958.374212	0.225860
958.550435	0.225563
958.726640	0.227467
958.902826	0.227641
959.078995	0.226239
959.255145	0.226699
959.431277	0.225994
959.607390	0.227584
959.783486	0.225463
959.959563	0.225407
960.135622	0.224908
960.311662	0.224964
960.487685	0.223345
960.663689	0.224905
960.839675	0.225002
961.015643	0.227436
961.191593	0.224830
961.367524	0.227015
961.543437	0.227997
961.719332	0.227681
961.895209	0.226641
962.071067	0.224190
962.246907	0.222178
962.422730	0.220309
962.598533	0.217360
962.774319	0.216300
962.950086	0.214750
963.125835	0.211197
963.301566	0.207998
963.477279	0.209082
963.652973	0.209002
963.828650	0.205162
964.004308	0.205813
964.179947	0.205514
964.355569	0.206445
964.531172	0.206663
964.706757	0.208852
964.882324	0.211595
965.057873	0.210303
965.233403	0.212919
965.408916	0.214227
965.584410	0.214381
965.759885	0.215057
965.935343	0.216217
966.110782	0.216609
966.286203	0.215157
966.461606	0.214483
966.636991	0.212225
966.812357	0.211295
966.987705	0.214648
967.163035	0.214705
967.338347	0.214001
967.513641	0.213124
967.688916	0.210620
967.864173	0.210137
968.039412	0.209667
968.214632	0.213112
968.389835	0.210721
968.565019	0.208418
968.740185	0.209810
968.915333	0.210427
969.090462	0.208724
969.265573	0.209317
969.440667	0.211718
969.615741	0.211594
969.790798	0.210883
969.965836	0.212492
970.140856	0.213134
970.315858	0.211105
970.490842	0.211710
970.665808	0.212686
970.840755	0.213636
971.015684	0.210426
971.190595	0.210201
971.365487	0.210609
971.540362	0.209817
971.715218	0.208308
971.890056	0.208078
972.064875	0.209004
972.239677	0.210883
972.414460	0.210105
972.589225	0.214458
972.763972	0.214510
972.938700	0.211986
973.113411	0.212361
973.288103	0.216447
973.462777	0.214726
973.637432	0.214879
973.812070	0.211235
973.986689	0.213318
974.161290	0.209507
974.335873	0.208580
974.510437	0.210157
974.684984	0.211399
974.859512	0.211695
975.034022	0.211853
975.208513	0.208390
975.382987	0.209232
975.557442	0.208038
975.731879	0.207928
975.906298	0.209283
976.080698	0.205808
976.255080	0.203830
976.429445	0.200265
976.603790	0.202664
976.778118	0.206015
976.952427	0.206060
977.126719	0.204231
977.300992	0.206970
977.475246	0.209647
977.649483	0.212651
977.823701	0.211965
977.997901	0.214003
978.172083	0.213928
978.346247	0.213214
978.520392	0.215309
978.694519	0.219343
978.868628	0.218087
979.042719	0.215778
979.216791	0.213876
979.390845	0.215914
979.564882	0.215567
979.738899	0.214567
979.912899	0.214924
980.086880	0.214456
980.260843	0.210875
980.434788	0.211636
980.608715	0.212634
980.782623	0.211498
980.956514	0.212147
981.130386	0.211366
981.304240	0.212520
981.478075	0.208224
981.651892	0.206270
981.825692	0.207213
981.999472	0.208036
982.173235	0.207729
982.346980	0.209469
982.520706	0.207173
982.694414	0.204929
982.868104	0.204455
983.041775	0.209200
983.215428	0.211935
983.389064	0.211470
983.562680	0.208179
983.736279	0.205252
983.909860	0.206674
984.083422	0.207781
984.256966	0.210375
984.430491	0.209504
984.603999	0.206087
984.777488	0.204415
984.950959	0.204354
985.124412	0.205168
985.297847	0.207746
985.471263	0.205431
985.644661	0.206183
985.818041	0.204916
985.991403	0.204215
986.164747	0.205440
986.338072	0.204259
986.511379	0.207702
986.684668	0.207130
986.857938	0.206546
987.031191	0.206634
987.204425	0.208417
987.377641	0.209240
987.550839	0.209400
987.724018	0.209794
987.897179	0.212227
988.070322	0.209114
988.243447	0.208711
988.416554	0.207924
988.589642	0.208410
988.762712	0.209146
988.935764	0.208010
989.108798	0.208765
989.281813	0.209549
989.454811	0.209317
989.627790	0.210962
989.800751	0.212124
989.973693	0.211127
990.146617	0.211917
990.319524	0.210964
990.492412	0.211373
990.665281	0.211228
990.838133	0.211261
991.010966	0.210052
991.183781	0.207030
991.356578	0.206927
991.529356	0.207142
991.702117	0.206048
991.874859	0.205297
992.047583	0.205691
992.220288	0.205888
992.392976	0.205922
992.565645	0.204999
992.738296	0.207232
992.910929	0.205753
993.083543	0.207484
993.256139	0.206190
993.428718	0.205044
993.601277	0.204596
993.773819	0.204179
993.946342	0.203724
994.118848	0.203793
994.291335	0.201644
994.463803	0.203672
994.636254	0.202542
994.808686	0.204371
994.981100	0.204733
995.153496	0.204779
995.325874	0.203983
995.498233	0.203059
995.670574	0.203952
995.842897	0.206445
996.015202	0.205976
996.187488	0.208082
996.359757	0.206006
996.532007	0.205067
996.704239	0.202135
996.876452	0.201808
997.048648	0.201897
997.220825	0.201577
997.392984	0.200696
997.565124	0.199911
997.737247	0.197694
997.909351	0.199774
998.081437	0.200093
998.253505	0.202045
998.425554	0.204789
998.597586	0.202916
998.769599	0.202704
998.941594	0.201914
999.113571	0.203969
999.285529	0.203440
999.457469	0.204492
999.629391	0.204093
999.801295	0.203885
999.973181	0.202171
1000.145048	0.203393
1000.316897	0.200916
1000.488728	0.200925
1000.660541	0.199420
1000.832335	0.200440
1001.004111	0.197550
1001.175869	0.198385
1001.347609	0.200310
1001.519331	0.201968
1001.691034	0.203248
1001.862719	0.206035
1002.034386	0.206383
1002.206035	0.206349
1002.377665	0.204267
1002.549277	0.205910
1002.720871	0.204946
1002.892447	0.204216
1003.064004	0.204163
1003.235544	0.203991
1003.407065	0.205269
1003.578568	0.207693
1003.750052	0.207076
1003.921519	0.208541
1004.092967	0.207821
1004.264397	0.209320
1004.435809	0.209718
1004.607202	0.206820
1004.778577	0.203697
1004.949934	0.202968
1005.121273	0.201938
1005.292594	0.203034
1005.463896	0.204800
1005.635180	0.203632
1005.806446	0.202374
1005.977694	0.200680
1006.148923	0.200840
1006.320135	0.201890
1006.491328	0.201251
1006.662503	0.197989
1006.833659	0.196360
1007.004798	0.194717
1007.175918	0.195150
1007.347020	0.195438
1007.518103	0.197352
1007.689169	0.198757
1007.860216	0.200300
1008.031245	0.203855
1008.202256	0.204048
1008.373248	0.204825
1008.544223	0.203930
1008.715179	0.204868
1008.886117	0.204820
1009.057036	0.203256
1009.227938	0.201657
1009.398821	0.201227
1009.569686	0.197143
1009.740533	0.198769
1009.911361	0.199933
1010.082172	0.202271
1010.252964	0.202401
1010.423738	0.202401
1010.594493	0.200698
1010.765231	0.202547
1010.935950	0.205036
1011.106651	0.206058
1011.277334	0.206637
1011.447998	0.206103
1011.618645	0.206816
1011.789273	0.207430
1011.959882	0.206708
1012.130474	0.207658
1012.301048	0.207703
1012.471603	0.205801
1012.642140	0.205142
1012.812658	0.203992
1012.983159	0.204359
1013.153641	0.202086
1013.324105	0.202134
1013.494551	0.202972
1013.664979	0.203920
1013.835388	0.203581
1014.005779	0.202561
1014.176152	0.202173
1014.346507	0.203467
1014.516843	0.201898
1014.687162	0.201261
1014.857462	0.200765
1015.027744	0.200080
1015.198007	0.200179
1015.368252	0.201427
1015.538480	0.203290
1015.708689	0.204309
1015.878879	0.204094
1016.049052	0.204973
1016.219206	0.207845
1016.389342	0.208768
1016.559460	0.209906
1016.729559	0.210774
1016.899641	0.208267
1017.069704	0.206046
1017.239749	0.207540
1017.409775	0.204676
1017.579784	0.204842
1017.749774	0.201924
1017.919746	0.202532
1018.089700	0.199651
1018.259635	0.199340
1018.429553	0.200846
1018.599452	0.201794
1018.769333	0.199114
1018.939195	0.202546
1019.109040	0.202842
1019.278866	0.204423
1019.448674	0.200096
1019.618464	0.201449
1019.788235	0.201646
1019.957989	0.201934
1020.127724	0.202615
1020.297441	0.202891
1020.467139	0.200131
1020.636820	0.201707
1020.806482	0.203251
1020.976126	0.205161
1021.145752	0.206846
1021.315359	0.204973
1021.484948	0.204429
1021.654519	0.205598
1021.824072	0.205600
1021.993607	0.206796
1022.163123	0.205052
1022.332621	0.204497
1022.502101	0.203216
1022.671563	0.202539
1022.841007	0.204733
1023.010432	0.200951
1023.179839	0.199942
1023.349228	0.200507
1023.518598	0.200552
1023.687951	0.198081
1023.857285	0.196162
1024.026601	0.198791
1024.195899	0.199509
1024.365178	0.198375
1024.534439	0.200906
1024.703682	0.198896
1024.872907	0.198086
1025.042114	0.197865
1025.211302	0.199431
1025.380472	0.199775
1025.549624	0.197349
1025.718758	0.195809
1025.887873	0.195983
1026.056970	0.197192
1026.226049	0.199124
1026.395110	0.199584
1026.564153	0.200468
1026.733177	0.200268
1026.902183	0.198581
1027.071171	0.201088
1027.240141	0.200409
1027.409092	0.199033
1027.578026	0.198212
1027.746940	0.198233
1027.915837	0.200664
1028.084716	0.201387
1028.253576	0.203430
1028.422418	0.206676
1028.591242	0.206589
1028.760048	0.205892
1028.928835	0.206918
1029.097604	0.205607
1029.266355	0.206233
1029.435088	0.203481
1029.603803	0.202095
1029.772499	0.200870
1029.941177	0.200062
1030.109837	0.199478
1030.278478	0.204697
1030.447102	0.204426
1030.615707	0.206523
1030.784294	0.204561
1030.952863	0.201758
1031.121413	0.199921
1031.289945	0.200515
1031.458460	0.201348
1031.626955	0.198655
1031.795433	0.196094
1031.963892	0.195951
1032.132334	0.194156
1032.300756	0.195589
1032.469161	0.198714
1032.637548	0.198891
1032.805916	0.196936
1032.974266	0.193832
1033.142598	0.194733
1033.310911	0.192300
1033.479207	0.190802
1033.647484	0.189770
1033.815743	0.190310
1033.983983	0.189930
1034.152206	0.190931
1034.320410	0.191332
1034.488596	0.192292
1034.656764	0.193907
1034.824914	0.193780
1034.993045	0.196493
1035.161158	0.198482
1035.329253	0.197682
1035.497330	0.197672
1035.665388	0.198535
1035.833428	0.197518
1036.001450	0.197927
1036.169454	0.197061
1036.337440	0.199348
1036.505407	0.195964
1036.673356	0.195396
1036.841287	0.195884
1037.009200	0.196519
1037.177094	0.196465
1037.344970	0.196916
1037.512828	0.195629
1037.680668	0.196066
1037.848489	0.194639
1038.016293	0.194376
1038.184078	0.193614
1038.351845	0.194723
1038.519593	0.194385
1038.687324	0.194413
1038.855036	0.195041
1039.022730	0.196361
1039.190406	0.195902
1039.358063	0.195996
1039.525702	0.198256
1039.693323	0.200439
1039.860926	0.197323
1040.028511	0.196936
1040.196077	0.199296
1040.363625	0.199762
1040.531155	0.199763
1040.698667	0.200513
1040.866161	0.202079
1041.033636	0.203483
1041.201093	0.201086
1041.368532	0.200820
1041.535952	0.200554
1041.703355	0.196795
1041.870739	0.197126
1042.038105	0.196659
1042.205452	0.196998
1042.372782	0.196371
1042.540093	0.196205
1042.707386	0.197667
1042.874661	0.199882
1043.041918	0.201587
1043.209156	0.202431
1043.376376	0.199632
1043.543578	0.199130
1043.710762	0.199231
1043.877927	0.200378
1044.045074	0.201236
1044.212203	0.201200
1044.379314	0.198105
1044.546407	0.197539
1044.713481	0.197802
1044.880537	0.199334
1045.047575	0.199611
1045.214595	0.199972
1045.381596	0.200187
1045.548579	0.198809
1045.715544	0.197489
1045.882491	0.197322
1046.049420	0.196601
1046.216330	0.197028
1046.383222	0.199209
1046.550096	0.199191
1046.716951	0.198602
1046.883789	0.199248
1047.050608	0.198967
1047.217409	0.198258
1047.384192	0.200249
1047.550956	0.200079
1047.717703	0.197403
1047.884431	0.196059
1048.051140	0.195463
1048.217832	0.196131
1048.384505	0.194819
1048.551161	0.193297
1048.717798	0.195331
1048.884416	0.194908
1049.051017	0.195091
1049.217599	0.194795
1049.384163	0.194235
1049.550709	0.193045
1049.717237	0.189760
1049.883746	0.189978
1050.050237	0.192327
1050.216710	0.191431
1050.383165	0.191132
1050.549601	0.192066
1050.716019	0.194421
1050.882420	0.193263
1051.048801	0.194500
1051.215165	0.195738
1051.381510	0.192795
1051.547837	0.192046
1051.714146	0.191488
1051.880437	0.191700
1052.046709	0.190296
1052.212964	0.191342
1052.379200	0.194162
1052.545417	0.196814
1052.711617	0.198105
1052.877798	0.200128
1053.043961	0.198594
1053.210106	0.201226
1053.376233	0.202683
1053.542341	0.202360
1053.708432	0.201217
1053.874504	0.200188
1054.040557	0.198108
1054.206593	0.199143
1054.372610	0.199645
1054.538609	0.201126
1054.704590	0.198375
1054.870553	0.196562
1055.036497	0.195671
1055.202424	0.195146
1055.368331	0.194776
1055.534221	0.194891
1055.700093	0.191974
1055.865946	0.190824
1056.031781	0.191657
1056.197598	0.193943
1056.363397	0.195322
1056.529177	0.197213
1056.694939	0.196160
1056.860683	0.196955
1057.026409	0.193930
1057.192116	0.197955
1057.357806	0.199018
1057.523477	0.198758
1057.689130	0.198060
1057.854764	0.197226
1058.020381	0.195970
1058.185979	0.195300
1058.351559	0.194709
1058.517120	0.197000
1058.682664	0.197708
1058.848189	0.196611
1059.013696	0.196682
1059.179185	0.194611
1059.344656	0.197836
1059.510108	0.201998
1059.675542	0.203306
1059.840958	0.204165
1060.006356	0.205414
1060.171735	0.203728
1060.337096	0.203628
1060.502439	0.204263
1060.667764	0.206359
1060.833071	0.201977
1060.998359	0.201481
1061.163629	0.201411
1061.328881	0.198730
1061.494115	0.198879
1061.659330	0.196542
1061.824527	0.199212
1061.989706	0.198066
1062.154867	0.198016
1062.320010	0.199885
1062.485134	0.195539
1062.650240	0.195359
1062.815328	0.195941
1062.980398	0.196276
1063.145449	0.197529
1063.310482	0.195457
1063.475497	0.196215
1063.640494	0.197379
1063.805473	0.196677
1063.970433	0.199158
1064.135375	0.201371
1064.300299	0.205746
1064.465204	0.203694
1064.630092	0.204585
1064.794961	0.203037
1064.959812	0.202225
1065.124645	0.204760
1065.289459	0.204724
1065.454256	0.204824
1065.619034	0.204629
1065.783793	0.202469
1065.948535	0.202830
1066.113258	0.202465
1066.277964	0.204628
1066.442651	0.203393
1066.607319	0.200426
1066.771970	0.200482
1066.936602	0.200884
1067.101216	0.199278
1067.265812	0.198055
1067.430389	0.200072
1067.594949	0.199356
1067.759490	0.200809
1067.924013	0.204086
1068.088518	0.204297
1068.253004	0.202840
1068.417472	0.200557
1068.581922	0.203803
1068.746354	0.204989
1068.910768	0.204626
1069.075163	0.205463
1069.239540	0.205021
1069.403899	0.203408
1069.568240	0.203303
1069.732562	0.206167
1069.896866	0.208127
1070.061152	0.208106
1070.225420	0.208204
1070.389670	0.209942
1070.553901	0.209487
1070.718114	0.207358
1070.882309	0.209206
1071.046486	0.209661
1071.210644	0.209666
1071.374784	0.208545
1071.538906	0.206501
1071.703010	0.208841
1071.867096	0.206496
1072.031163	0.206293
1072.195212	0.207325
1072.359243	0.207062
1072.523256	0.205489
1072.687250	0.204230
1072.851226	0.203210
1073.015184	0.203500
1073.179124	0.201602
1073.343045	0.202068
1073.506949	0.201117
1073.670834	0.202284
1073.834701	0.200538
1073.998549	0.203428
1074.162380	0.204095
1074.326192	0.205498
1074.489986	0.206165
1074.653761	0.205970
1074.817519	0.205852
1074.981258	0.208517
1075.144979	0.209072
1075.308682	0.209431
1075.472367	0.210431
1075.636033	0.211965
1075.799681	0.212649
1075.963311	0.213372
1076.126923	0.211200
1076.290516	0.210897
1076.454092	0.211456
1076.617649	0.212050
1076.781187	0.210088
1076.944708	0.204221
1077.108210	0.204137
1077.271695	0.205963
1077.435160	0.201282
1077.598608	0.202640
1077.762038	0.203729
1077.925449	0.204384
1078.088842	0.203757
1078.252217	0.205790
1078.415573	0.210463
1078.578912	0.211910
1078.742232	0.211841
1078.905534	0.216893
1079.068817	0.215712
1079.232083	0.215403
1079.395330	0.211525
1079.558559	0.208074
1079.721770	0.208282
1079.884962	0.205165
1080.048136	0.204752
1080.211293	0.202376
1080.374430	0.200986
1080.537550	0.204356
1080.700651	0.207260
1080.863735	0.210288
1081.026800	0.211683
1081.189846	0.210108
1081.352875	0.211145
1081.515885	0.210509
1081.678877	0.209663
1081.841851	0.212758
1082.004807	0.213760
1082.167744	0.212457
1082.330663	0.214945
1082.493564	0.214355
1082.656447	0.214047
1082.819312	0.212807
1082.982158	0.216135
1083.144986	0.219290
1083.307796	0.217967
1083.470587	0.217396
1083.633361	0.216768
1083.796116	0.213487
1083.958853	0.214650
1084.121571	0.217840
1084.284272	0.220633
1084.446954	0.214492
1084.609618	0.217904
1084.772264	0.217721
1084.934892	0.216376
1085.097501	0.214321
1085.260092	0.214032
1085.422665	0.215438
1085.585220	0.217382
1085.747756	0.218388
1085.910274	0.220260
1086.072774	0.217862
1086.235256	0.215843
1086.397720	0.212236
1086.560165	0.216067
1086.722592	0.212622
1086.885001	0.212467
1087.047392	0.212432
1087.209764	0.213060
1087.372119	0.213786
1087.534455	0.213763
1087.696772	0.215031
1087.859072	0.219008
1088.021353	0.216228
1088.183616	0.221120
1088.345861	0.220521
1088.508088	0.218469
1088.670296	0.215972
1088.832486	0.216372
1088.994658	0.209538
1089.156812	0.211075
1089.318948	0.209073
1089.481065	0.211648
1089.643164	0.209645
1089.805245	0.209948
1089.967308	0.211299
1090.129352	0.211836
1090.291378	0.212580
1090.453386	0.215512
1090.615376	0.214158
1090.777347	0.215704
1090.939301	0.215698
1091.101236	0.218113
1091.263153	0.217653
1091.425051	0.220670
1091.586932	0.220278
1091.748794	0.217476
1091.910638	0.219904
1092.072463	0.219889
1092.234271	0.219509
1092.396060	0.219088
1092.557831	0.218260
1092.719584	0.217085
1092.881319	0.214077
1093.043035	0.215441
1093.204733	0.217857
1093.366413	0.216295
1093.528075	0.213245
1093.689718	0.214655
1093.851343	0.214088
1094.012950	0.214055
1094.174539	0.217161
1094.336110	0.211277
1094.497662	0.210118
1094.659196	0.207388
1094.820712	0.211203
1094.982210	0.215325
1095.143689	0.215066
1095.305151	0.218716
1095.466594	0.213776
1095.628018	0.212464
1095.789425	0.218380
1095.950813	0.217569
1096.112183	0.217828
1096.273535	0.213707
1096.434869	0.213397
1096.596184	0.213131
1096.757482	0.208560
1096.918761	0.214926
1097.080021	0.213885
1097.241264	0.211617
1097.402488	0.212440
1097.563694	0.215092
1097.724882	0.216280
1097.886052	0.216684
1098.047203	0.217782
1098.208336	0.220074
1098.369451	0.215816
1098.530548	0.223897
1098.691627	0.225488
1098.852687	0.226477
1099.013729	0.227318
1099.174753	0.232772
1099.335758	0.230677
1099.496746	0.230496
1099.657715	0.230367
1099.818666	0.231995
1099.979599	0.229470
1100.140513	0.229019
1100.301409	0.225559
1100.462287	0.225331
1100.623147	0.220468
1100.783989	0.220893
1100.944812	0.225143
1101.105617	0.224108
1101.266404	0.224609
1101.427173	0.224748
1101.587923	0.221295
1101.748656	0.225620
1101.909370	0.222831
1102.070066	0.223400
1102.230743	0.224327
1102.391403	0.221183
1102.552044	0.222707
1102.712667	0.220897
1102.873271	0.217208
1103.033858	0.222754
1103.194426	0.221648
1103.354976	0.230098
1103.515508	0.230925
1103.676021	0.232088
1103.836517	0.230774
1103.996994	0.233209
1104.157453	0.233003
1104.317893	0.235954
1104.478316	0.238729
1104.638720	0.237772
1104.799106	0.234819
1104.959474	0.238371
1105.119823	0.238812
1105.280155	0.238841
1105.440468	0.229687
1105.600763	0.234242
1105.761039	0.232825
1105.921298	0.228956
1106.081538	0.233864
1106.241760	0.232810
1106.401964	0.227639
1106.562149	0.223129
1106.722316	0.221344
1106.882465	0.225402
1107.042596	0.228546
1107.202709	0.229490
1107.362803	0.229546
1107.522879	0.227795
1107.682937	0.225006
1107.842977	0.224368
1108.002999	0.229106
1108.163002	0.229284
1108.322987	0.232863
1108.482954	0.230445
1108.642902	0.228153
1108.802833	0.231089
1108.962745	0.228380
1109.122639	0.236211
1109.282515	0.237741
1109.442372	0.236771
1109.602211	0.236831
1109.762032	0.232202
1109.921835	0.235285
1110.081620	0.237483
1110.241386	0.235225
1110.401134	0.236957
1110.560864	0.238049
1110.720576	0.239644
1110.880269	0.237740
1111.039945	0.246666
1111.199602	0.252708
1111.359240	0.243993
1111.518861	0.233942
1111.678463	0.230498
1111.838047	0.231791
1111.997613	0.221652
1112.157161	0.224573
1112.316690	0.224613
1112.476202	0.220787
1112.635695	0.217661
1112.795169	0.221496
1112.954626	0.234012
1113.114064	0.242476
1113.273484	0.244173
1113.432886	0.247748
1113.592270	0.254187
1113.751635	0.259111
1113.910983	0.258264
1114.070312	0.266144
1114.229622	0.264561
1114.388915	0.265019
1114.548189	0.256233
1114.707445	0.255711
1114.866683	0.250738
1115.025903	0.244909
1115.185104	0.243847
1115.344287	0.244103
1115.503452	0.247955
1115.662599	0.252707
1115.821727	0.252358
1115.980838	0.254450
1116.139930	0.255315
1116.299004	0.268664
1116.458059	0.268412
1116.617097	0.260837
1116.776116	0.264861
1116.935117	0.252542
1117.094099	0.250467
1117.253064	0.248322
1117.412010	0.254458
1117.570938	0.255604
1117.729848	0.248591
1117.888740	0.252274
1118.047613	0.255809
1118.206468	0.251940
1118.365305	0.256110
1118.524124	0.260614
1118.682924	0.263128
1118.841707	0.256553
1119.000471	0.246597
1119.159216	0.243367
1119.317944	0.233175
1119.476653	0.237053
1119.635344	0.236968
1119.794017	0.226343
1119.952672	0.223874
1120.111308	0.219211
1120.269927	0.220851
1120.428527	0.224575
1120.587108	0.232545
1120.745672	0.237920
1120.904217	0.239759
1121.062744	0.242530
1121.221253	0.246706
1121.379744	0.246855
1121.538216	0.248096
1121.696671	0.252219
1121.855107	0.252585
1122.013524	0.243692
1122.171924	0.241479
1122.330305	0.243042
1122.488668	0.234078
1122.647013	0.235596
1122.805340	0.234559
1122.963648	0.234422
1123.121938	0.235301
1123.280210	0.232921
1123.438464	0.232469
1123.596700	0.233226
1123.754917	0.234123
1123.913116	0.244095
1124.071297	0.252984
1124.229459	0.252190
1124.387604	0.258608
1124.545730	0.252008
1124.703838	0.256800
1124.861928	0.257288
1125.019999	0.254147
1125.178052	0.252746
1125.336088	0.249554
1125.494104	0.248155
1125.652103	0.249765
1125.810083	0.239720
1125.968045	0.236032
1126.125989	0.232854
1126.283915	0.233669
1126.441823	0.244764
1126.599712	0.242495
1126.757583	0.242801
1126.915436	0.237758
1127.073270	0.237245
1127.231087	0.244515
1127.388885	0.247259
1127.546665	0.257881
1127.704426	0.255027
1127.862170	0.249412
1128.019895	0.249882
1128.177602	0.241081
1128.335291	0.250128
1128.492961	0.255008
1128.650614	0.247181
1128.808248	0.254673
1128.965864	0.242866
1129.123461	0.254046
1129.281041	0.258840
1129.438602	0.260727
1129.596145	0.275401
1129.753670	0.264404
1129.911176	0.256190
1130.068665	0.260238
1130.226135	0.248504
1130.383587	0.263379
1130.541020	0.260364
1130.698436	0.262921
1130.855833	0.265296
1131.013212	0.267931
1131.170573	0.278170
1131.327915	0.288009
1131.485239	0.281889
1131.642545	0.280622
1131.799833	0.268898
1131.957103	0.272281
1132.114354	0.259178
1132.271588	0.266168
1132.428803	0.268438
1132.585999	0.251992
1132.743178	0.242592
1132.900338	0.242691
1133.057480	0.253763
1133.214604	0.257873
1133.371710	0.251748
1133.528797	0.249699
1133.685866	0.242971
1133.842917	0.226140
1133.999950	0.239478
1134.156964	0.246146
1134.313960	0.256870
1134.470938	0.258292
1134.627898	0.255208
1134.784840	0.253779
1134.941763	0.263849
1135.098668	0.261147
1135.255555	0.265949
1135.412424	0.267441
1135.569274	0.259694
1135.726107	0.255074
1135.882921	0.253594
1136.039716	0.248665
1136.196494	0.247090
1136.353253	0.248916
1136.509995	0.248794
1136.666717	0.259264
1136.823422	0.245775
1136.980109	0.249301
1137.136777	0.258227
1137.293427	0.267118
1137.450059	0.266572
1137.606672	0.275900
1137.763267	0.275551
1137.919844	0.272036
1138.076403	0.264027
1138.232944	0.271957
1138.389466	0.267937
1138.545971	0.265843
1138.702457	0.257495
1138.858924	0.257988
1139.015374	0.256194
1139.171805	0.254877
1139.328218	0.250163
1139.484613	0.255690
1139.640990	0.260512
1139.797348	0.263119
1139.953688	0.253273
1140.110010	0.248534
1140.266314	0.274367
1140.422600	0.278346
1140.578867	0.274927
1140.735116	0.289882
1140.891347	0.291021
1141.047559	0.297873
1141.203754	0.308781
1141.359930	0.317003
1141.516088	0.332343
1141.672228	0.308679
1141.828349	0.295864
1141.984452	0.296018
1142.140537	0.286561
1142.296604	0.272304
1142.452653	0.267663
1142.608683	0.269207
1142.764695	0.266922
1142.920689	0.256234
1143.076665	0.266926
1143.232622	0.262504
1143.388562	0.260605
1143.544483	0.278596
1143.700385	0.267931
1143.856270	0.262621
1144.012136	0.248366
1144.167985	0.247747
1144.323814	0.246916
1144.479626	0.234140
1144.635420	0.247753
1144.791195	0.247747
1144.946952	0.240132
1145.102691	0.263207
1145.258411	0.269598
1145.414113	0.271713
1145.569798	0.270059
1145.725463	0.277571
1145.881111	0.276372
1146.036741	0.263597
1146.192352	0.271633
1146.347945	0.256804
1146.503519	0.250532
1146.659076	0.235919
1146.814614	0.229696
1146.970134	0.221693
1147.125636	0.209506
1147.281120	0.222069
1147.436585	0.227598
1147.592032	0.224286
1147.747461	0.241797
1147.902872	0.251022
1148.058265	0.262649
1148.213639	0.283232
1148.368995	0.303526
1148.524333	0.309891
1148.679653	0.320539
1148.834954	0.308029
1148.990237	0.311557
1149.145502	0.285192
1149.300749	0.294139
1149.455977	0.298689
1149.611188	0.285563
1149.766380	0.285419
1149.921553	0.284718
1150.076709	0.269669
1150.231846	0.266027
1150.386966	0.266849
1150.542066	0.271710
1150.697149	0.249513
1150.852214	0.238941
1151.007260	0.240310
1151.162288	0.245354
1151.317298	0.260187
1151.472289	0.266772
1151.627263	0.286108
1151.782218	0.279829
1151.937155	0.285010
1152.092073	0.299457
1152.246974	0.302224
1152.401856	0.303571
1152.556720	0.296966
1152.711566	0.277581
1152.866393	0.264541
1153.021203	0.264345
1153.175994	0.253146
1153.330767	0.257514
1153.485521	0.247156
1153.640258	0.246876
1153.794976	0.243321
1153.949676	0.244211
1154.104358	0.250292
1154.259021	0.253965
1154.413667	0.247500
1154.568294	0.264046
1154.722903	0.260220
1154.877493	0.256499
1155.032066	0.253218
1155.186620	0.248912
1155.341156	0.258432
1155.495674	0.256953
1155.650173	0.259861
1155.804654	0.264497
1155.959118	0.264808
1156.113562	0.270824
1156.267989	0.255462
1156.422397	0.281770
1156.576788	0.294107
1156.731160	0.267645
1156.885513	0.271822
1157.039849	0.254146
1157.194166	0.271779
1157.348465	0.287505
1157.502746	0.274531
1157.657009	0.303381
1157.811253	0.275281
1157.965479	0.265556
1158.119687	0.265762
1158.273877	0.271840
1158.428048	0.294310
1158.582201	0.271617
1158.736337	0.259878
1158.890453	0.244532
1159.044552	0.234791
1159.198632	0.243579
1159.352694	0.249305
1159.506738	0.256156
1159.660764	0.254109
1159.814771	0.251902
1159.968761	0.250810
1160.122732	0.231653
1160.276685	0.274013
1160.430619	0.283923
1160.584535	0.283518
1160.738434	0.286064
1160.892313	0.314610
1161.046175	0.309145
1161.200019	0.301923
1161.353844	0.322401
1161.507651	0.333545
1161.661440	0.334195
1161.815210	0.360648
1161.968962	0.345125
1162.122697	0.335706
1162.276412	0.300982
1162.430110	0.304200
1162.583789	0.294950
1162.737451	0.296678
1162.891094	0.280806
1163.044718	0.252173
1163.198325	0.242953
1163.351913	0.271392
1163.505483	0.297886
1163.659035	0.312764
1163.812569	0.312102
1163.966084	0.347002
1164.119581	0.327827
1164.273060	0.332088
1164.426521	0.315156
1164.579964	0.289840
1164.733388	0.271605
1164.886794	0.256106
1165.040182	0.219155
1165.193551	0.214990
1165.346903	0.211029
1165.500236	0.239921
1165.653551	0.245361
1165.806848	0.263647
1165.960126	0.275893
1166.113386	0.288757
1166.266628	0.273662
1166.419852	0.285939
1166.573058	0.283751
1166.726245	0.262471
1166.879414	0.239428
1167.032565	0.239370
1167.185698	0.234828
1167.338812	0.243142
1167.491909	0.238911
1167.644987	0.266949
1167.798046	0.267921
1167.951088	0.266236
1168.104111	0.266939
1168.257117	0.263353
1168.410103	0.250014
1168.563072	0.241822
1168.716023	0.236569
1168.868955	0.221277
1169.021869	0.240541
1169.174765	0.265384
1169.327642	0.269759
1169.480501	0.251746
1169.633343	0.252569
1169.786165	0.279049
1169.938970	0.284013
1170.091757	0.296947
1170.244525	0.282732
1170.397275	0.244020
1170.550007	0.239055
1170.702720	0.232027
1170.855415	0.237257
1171.008092	0.251157
1171.160751	0.266771
1171.313392	0.308045
1171.466014	0.082094
1171.618619	0.526465
1171.771205	0.526465
1171.923772	0.526465
