sample name	sample
index	1016
start time	 04-19-2021  11:47:14 AM
880	0.552080
Peak Time (s)	101.535
Peak Height 	0.5521
calc peak height	100,103
Baseline Time (s)	8.537
Baseline Value 	-0.00415
subtract baseline	10,4
Abs	0.369298
Peak Time (s)	102.036
Peak Height 	0.3693
calc peak height	100,103
Baseline Time (s)	9.04
Baseline Value 	0.001102
subtract baseline	10,3
PK_550	0.200603
Peak Time (s)	102.036
Peak Height 	0.2006
calc peak height	100,103
Baseline Time (s)	10.536
Baseline Value 	5.331E-4
subtract baseline	10,2
PK_880	0.347187
Peak Time (s)	102.036
Peak Height 	0.3472
calc peak height	100,103
Baseline Time (s)	11.536
Baseline Value 	7.6347E-4
subtract baseline	10,1


Time (s)	A880-A510	A880-A775	A880-A975	A880	I510	I775	I975	I880	
0.034500	-0.002097	-0.000976	-0.008383	0.007949	6503.770759	45350.501492	3919.182622	23998.536462
0.535500	-0.003877	-0.000664	-0.003469	0.005871	6506.322360	45585.214983	3938.025796	24100.314659
1.044000	-0.000557	0.000071	0.000358	0.004661	6545.369514	45777.287810	3951.791062	24159.807162
1.539000	0.001909	-0.000632	-0.001089	0.001568	6593.843306	46014.272173	3956.320659	24312.597952
2.038500	-0.001799	-0.000200	0.000009	0.006485	6518.899331	45570.477230	3945.833652	24070.196460
2.536000	-0.000598	-0.000536	-0.000194	0.001500	6572.499052	46030.713917	3958.983354	24316.008643
3.036500	-0.000470	-0.000506	0.002383	-0.001023	6595.709414	46285.498822	3973.166657	24441.491187
3.537000	-0.000928	-0.000519	-0.001612	0.000781	6575.897415	46103.974374	3957.051470	24351.680387
4.039500	-0.002072	0.000001	-0.006101	0.005660	6523.650003	45671.647171	3931.466575	24110.672594
4.534500	0.000101	-0.000112	-0.005212	0.001312	6580.249805	46091.571232	3945.702845	24325.338057
5.034500	-0.001753	0.000020	0.001409	0.000475	6571.364980	46188.273880	3966.270614	24366.892823
5.538000	0.000191	0.000566	0.000910	0.001782	6576.929755	46112.367750	3961.256794	24302.026415
6.035500	-0.000041	-0.000215	0.002834	0.000901	6582.594138	46122.274267	3969.053151	24345.707155
6.535500	0.000085	0.000009	0.001038	0.001256	6580.596208	46109.154409	3963.070643	24328.077080
7.036000	-0.001130	-0.000409	0.002200	0.000522	6576.395452	46140.767319	3968.341034	24364.547674
7.536500	-0.001441	-0.000632	0.000057	0.000379	6574.924810	46132.697840	3962.782657	24371.651848
8.042000	-0.001154	-0.000076	-0.000894	0.000247	6578.590917	46201.449970	3960.512832	24378.246637
8.537000	0.000541	-0.000452	-0.002330	0.000000	6595.598640	46188.589630	3957.224726	24390.510475
9.039500	-0.000890	-0.000906	0.000000	-0.000860	6590.592279	46229.162193	3966.065805	24433.361928
9.537500	-0.000881	-0.000046	0.002422	0.000031	6582.865785	46226.064887	3970.330929	24388.988126
10.037000	0.001770	0.000391	0.003448	0.000273	6604.003611	46245.576489	3972.521950	24376.949195
10.535500	0.001299	0.000000	0.002338	-0.000128	6603.386153	46246.520258	3970.541591	24396.886278
11.035500	-0.001143	0.000101	-0.001082	-0.000098	6581.698363	46253.594094	3960.948977	24395.403814
11.536000	0.000000	0.000189	-0.000471	0.000145	6589.583655	46238.179891	3961.968066	24383.311463
12.041000	-0.002222	-0.000440	-0.001603	-0.000244	6573.541867	46214.070312	3959.907182	24402.633481
12.536500	0.000436	0.000532	0.001708	0.000366	6591.465425	46250.247580	3967.406620	24372.292958
13.042500	0.001722	0.000417	-0.002481	-0.000261	6608.283222	46301.512151	3957.527964	24403.501819
13.536500	0.001526	-0.000426	-0.000056	-0.000343	6607.280873	46225.458675	3964.472619	24407.587341
14.034500	-0.001668	-0.000130	-0.000627	0.002409	6555.266471	45980.581659	3955.276988	24270.945606
14.540000	-0.001707	-0.000204	-0.000573	0.002582	6553.427143	45956.085872	3954.949565	24262.399279
15.036500	-0.000014	-0.000018	0.001775	-0.000264	6593.043531	46258.295361	3969.348195	24403.660132
15.535500	-0.001232	-0.000223	-0.004770	-0.000435	6583.868036	46254.933630	3951.701206	24412.169462
16.035500	0.000288	-0.000467	0.001070	0.002030	6575.606893	45984.797364	3961.015388	24289.744492
16.536000	-0.002602	0.000261	0.003366	0.002691	6544.725128	45991.522473	3965.552713	24257.035003
17.035500	0.001020	0.000419	-0.002206	-0.002988	6626.161424	46575.599624	3965.847689	24539.699411
17.536500	-0.001062	-0.000153	0.004078	0.000341	6578.563248	46184.302734	3974.093498	24373.533332
18.036500	-0.002872	-0.000116	-0.000702	0.001287	6554.553112	46093.623164	3958.164788	24326.543481
18.537000	0.000124	0.000475	0.004762	0.001641	6577.567421	46117.245843	3972.369126	24308.986200
19.036500	0.001815	0.000333	-0.000721	0.001515	6593.478968	46115.696558	3957.482881	24315.230185
19.535000	-0.000594	-0.000553	0.003527	0.000706	6579.476662	46108.080012	3971.534171	24355.429066
20.035500	-0.000832	0.000428	-0.002665	0.001302	6572.186544	46146.465804	3952.715493	24325.823023
20.536000	-0.001754	-0.000575	-0.000806	0.000932	6567.370801	46083.268091	3958.860896	24344.164201
21.036000	-0.000866	0.000322	0.004173	0.001775	6567.764191	46088.725460	3970.351517	24302.358446
21.536000	0.001990	0.000279	-0.001362	0.001700	6593.388995	46091.853089	3955.205086	24306.058061
22.036500	-0.001447	-0.000156	0.002929	0.001140	6568.234016	46104.367485	3968.652242	24333.856865
22.537000	-0.001325	0.000212	-0.000128	0.001627	6565.052161	46092.472576	3958.814607	24309.704076
23.037500	0.001159	0.000520	0.001686	0.001476	6588.081539	46138.323613	3964.258634	24317.207744
23.540000	0.000486	0.000554	-0.001985	0.001833	6579.066671	46106.107787	3953.123770	24299.508334
24.034500	-0.001019	-0.000197	-0.000059	0.001094	6572.372270	46104.823366	3960.479919	24336.146031
24.535500	-0.001398	0.000408	-0.000535	0.001811	6562.816527	46093.688459	3957.182501	24300.600232
25.042000	-0.000399	-0.000041	0.004825	0.000993	6578.662460	46130.473569	3974.357884	24341.145068
25.535500	-0.000034	0.000173	-0.002781	0.001578	6576.736865	46093.440698	3951.636517	24312.115337
26.036000	-0.000173	0.000177	0.000229	0.001221	6578.644970	46129.397450	3960.925153	24329.817696
26.536500	0.000957	0.000499	0.001685	0.001787	6583.586012	46105.148839	3963.392816	24301.784325
27.041000	-0.000280	0.000898	0.000139	-0.000092	6589.205532	46332.845054	3964.317247	24395.088418
27.537000	0.001901	0.000428	0.001218	-0.001858	6623.954892	46462.832871	3972.244636	24483.173311
28.041000	0.000450	0.000880	0.001679	0.001187	6584.392951	46203.027014	3965.043169	24331.524293
28.537000	-0.002214	-0.000353	-0.000963	0.001460	6558.768295	46052.858503	3956.968671	24317.968520
29.036000	0.001399	0.000022	-0.000089	-0.000243	6605.280572	46260.236238	3964.103710	24402.608124
29.535500	-0.000394	0.000184	-0.003143	-0.000241	6589.504502	46276.168506	3955.645966	24402.490055
30.035500	-0.002437	-0.000029	-0.000292	0.003313	6540.762719	45900.957802	3953.710174	24226.293473
30.535500	-0.002319	-0.000104	0.004210	0.002801	6546.215880	45944.220259	3967.592046	24251.555423
31.035500	-0.002566	0.000263	-0.000489	0.002121	6549.974529	46048.361400	3956.450864	24285.212817
31.536000	0.001586	-0.000345	-0.000249	-0.000714	6611.075442	46270.595999	3964.966464	24426.069960
32.036500	-0.001183	-0.000039	0.005284	0.001656	6566.033215	46064.621503	3973.786800	24308.254400
32.540000	-0.002613	-0.000126	-0.000752	0.001349	6556.267042	46086.521330	3957.857040	24323.498089
33.037000	0.000324	-0.000393	0.001235	-0.000469	6597.812238	46241.322186	3968.414899	24413.880628
33.538500	-0.003326	0.000288	0.001973	-0.000152	6563.119006	46277.746062	3969.586967	24398.063482
34.035000	-0.001989	-0.000099	-0.000317	0.001692	6558.706732	46055.060490	3958.111218	24306.477146
34.535000	-0.001147	0.000104	0.000848	0.001831	6564.833232	46061.439949	3960.949648	24299.605767
35.035500	-0.001153	-0.000117	-0.000891	0.001588	6566.892082	46063.567540	3956.814574	24311.641689
35.536000	-0.001098	-0.000175	0.000207	0.001818	6565.359976	46034.894574	3959.210335	24300.207139
36.036000	-0.000373	0.000770	-0.000870	0.002573	6565.101026	46053.812124	3954.154513	24262.841132
36.537000	-0.001643	0.000244	-0.001576	0.001837	6560.461770	46074.718762	3954.240014	24299.295213
37.036500	-0.001078	-0.000303	0.001570	0.001312	6569.950564	46072.525600	3964.390044	24325.296729
37.537000	-0.002106	-0.000115	0.003613	0.001372	6560.474764	46085.335970	3969.911619	24322.341248
38.037500	0.000534	0.000334	0.001627	0.001794	6579.811157	46087.949380	3963.209937	24301.396226
38.534500	-0.001328	-0.000001	-0.000380	0.001778	6563.709338	46056.228382	3957.698966	24302.196100
39.035500	-0.001773	0.000230	0.000856	0.001812	6559.543464	46075.829304	3961.025010	24300.531257
39.535500	-0.002370	0.000143	0.000845	0.001747	6554.921254	46073.657786	3961.172567	24303.743087
40.036000	-0.001006	0.000167	0.000612	0.001504	6568.909281	46100.269299	3961.204051	24315.816488
40.536500	0.000160	0.000185	0.001281	0.001525	6578.894532	46099.946409	3962.997760	24314.730997
41.036500	-0.000138	0.000100	0.001860	0.001534	6576.213036	46090.508536	3964.578105	24314.285021
41.539500	-0.001287	-0.000423	0.003331	0.001151	6569.532915	46076.667823	3969.740686	24333.307651
42.036500	0.000778	0.000227	0.001251	0.001698	6582.794440	46086.923707	3962.436075	24306.184701
42.540000	0.000313	0.000595	0.001114	0.002612	6570.752068	46032.581404	3959.525656	24260.931525
43.037500	-0.000265	0.000326	0.003239	0.001970	6571.306727	46069.719782	3967.204892	24292.714446
43.534500	-0.002786	0.000328	0.001892	0.001531	6553.179656	46113.566147	3964.678031	24314.447519
44.035500	0.002048	0.001107	0.005644	-0.001297	6620.296591	46474.775243	3983.099105	24455.153834
44.535500	-0.001419	0.000930	-0.001329	0.005123	6533.915943	45816.494470	3945.897291	24137.051647
45.036000	0.000186	0.000371	-0.000120	0.000170	6590.996786	46253.842351	3962.870791	24382.063536
45.536500	0.001487	0.000774	0.003222	0.000194	6602.212455	46291.764919	3972.111418	24380.872012
46.039500	0.000605	0.000105	0.004633	0.000395	6592.689223	46204.731500	3975.497350	24370.859374
46.537000	-0.003496	-0.000460	0.004039	0.005615	6511.795779	45630.573664	3959.308230	24112.898919
47.034500	0.000944	0.000016	0.004596	-0.000133	6600.310181	46248.596799	3976.874296	24397.120303
47.537500	-0.002070	-0.000280	-0.000067	0.001603	6558.783365	46045.895245	3959.048714	24310.886213
48.034500	-0.001161	0.000002	0.004543	0.002468	6559.165984	45987.886503	3969.449773	24268.045414
48.535000	-0.004383	0.000364	0.001849	0.005666	6503.740422	45706.823485	3953.125801	24110.360146
49.035500	-0.000199	0.000101	0.004053	-0.000456	6593.108405	46289.498808	3976.256631	24413.230948
49.536000	-0.000340	-0.000351	0.004149	-0.000285	6590.370139	46227.088106	3976.046194	24404.693313
50.036000	0.000498	0.000308	0.005770	-0.000158	6596.607659	46280.289068	3980.242119	24398.365794
50.539000	-0.001001	-0.000243	0.004473	0.007327	6518.514142	45483.437347	3955.778873	24028.938445
51.036500	-0.004943	-0.002312	0.003565	-0.007497	6613.321254	46755.209032	3994.777718	24766.841601
51.537000	0.016134	-0.001137	0.022600	0.302354	4752.747324	24401.743044	3391.171686	13551.713522
52.037000	-0.010287	-0.016105	-0.028156	-0.084281	7298.247501	53613.628469	4129.982549	29019.180742
52.534500	-0.022038	-0.052870	-0.036064	-0.198979	8506.191858	63598.424161	4512.405860	36950.664021
53.035000	-0.021451	-0.060894	-0.030978	-0.211437	8680.716691	64222.220580	4584.721268	37945.086680
53.535500	-0.006373	-0.068142	-0.009476	-0.222777	9050.651754	64803.545398	4728.207213	38875.419891
54.036000	0.005057	-0.054259	0.001640	-0.203933	8944.563309	64099.544674	4693.462974	37342.737721
54.539000	0.014905	-0.024373	0.009641	-0.143729	8269.942578	59967.116648	4474.269166	32868.555218
55.039000	0.012108	-0.009503	0.018961	-0.066690	7348.486312	52344.450290	4226.494768	27977.570929
55.539500	0.021327	0.000755	0.019563	-0.046647	7236.094831	51240.994243	4162.214576	26841.039832
56.036500	0.033309	0.007741	0.034212	-0.032674	7215.724813	50468.202149	4164.402273	26079.207867
56.536500	0.043982	0.014383	0.039440	-0.039107	7393.822173	51924.700491	4202.671289	26426.916701
57.037500	0.060169	0.022439	0.055929	-0.006119	7218.830332	49184.686031	4148.822710	24697.151013
57.534500	0.074054	0.029914	0.070798	0.029396	7003.298213	46285.537952	4084.258371	22976.084464
58.035000	0.088026	0.038451	0.084710	0.042051	7016.115309	45875.297547	4088.101688	22396.028768
58.537000	0.102955	0.045777	0.099177	0.089969	6706.451739	42033.005168	3989.509943	20346.710345
59.035500	0.119931	0.055684	0.121335	0.133160	6476.599964	39139.670582	3931.294971	18683.615120
59.538500	0.136136	0.065053	0.139845	0.167801	6323.066312	37086.209681	3888.517789	17464.250154
60.036000	0.150705	0.073787	0.155571	0.196415	6210.390980	35552.741231	3855.466371	16527.844604
60.536500	0.169066	0.083852	0.173881	0.221268	6159.541184	34456.850076	3839.059135	15763.148689
61.037000	0.182998	0.092727	0.189094	0.249278	6051.824929	33092.967475	3807.672133	14952.137874
61.536500	0.197508	0.101435	0.204028	0.271462	5994.559990	32167.856721	3790.298842	14345.928756
62.037500	0.207871	0.107957	0.219493	0.311507	5782.371044	29987.407476	3733.502526	13327.042456
62.535000	0.219534	0.117716	0.233307	0.331800	5723.346670	29336.218392	3719.060845	12845.500062
63.035000	0.235010	0.123814	0.250708	0.368954	5580.159790	27505.939337	3676.333170	12020.090073
63.535500	0.246920	0.130963	0.261108	0.407201	5415.545848	25799.790349	3619.305517	11241.038570
64.039000	0.262673	0.138380	0.278950	0.412338	5480.695339	25920.690577	3644.869222	11141.516483
64.536000	0.269873	0.146795	0.283481	0.402046	5591.592362	26937.769332	3675.659234	11342.075758
65.036500	0.278751	0.151137	0.291481	0.421308	5525.220556	26123.094985	3652.171441	10970.572126
65.536000	0.278209	0.153285	0.290445	0.431808	5456.362319	25679.090459	3628.736150	10774.880856
66.037000	0.283583	0.158596	0.298265	0.423030	5544.933145	26433.057271	3662.652957	10938.153089
66.538000	0.284884	0.160553	0.298757	0.418580	5581.758993	26784.050234	3673.003596	11022.188228
67.034500	0.289227	0.162868	0.304400	0.421820	5588.876034	26733.062466	3678.079627	10960.914470
67.535000	0.294859	0.165863	0.302958	0.425024	5604.609563	26721.530181	3668.292256	10900.775321
68.034500	0.299495	0.167544	0.307907	0.430789	5597.279275	26497.805643	3666.584272	10793.674961
68.538500	0.300596	0.169207	0.313072	0.437895	5558.625709	26202.796480	3662.530946	10663.587436
69.036000	0.303377	0.171203	0.316074	0.442250	5548.584182	26076.127253	3659.717527	10584.916787
69.536000	0.306806	0.173672	0.319863	0.447892	5534.526984	25906.754778	3655.879080	10484.159259
70.036500	0.308296	0.174691	0.322786	0.452250	5516.408904	25729.910722	3652.918484	10407.227752
70.537000	0.310252	0.176787	0.324308	0.459646	5482.380414	25451.985019	3640.897420	10278.412726
71.037000	0.309313	0.176636	0.328323	0.461461	5465.320318	25349.767378	3645.381711	10247.148881
71.537000	0.312421	0.177355	0.332553	0.466940	5450.705792	25104.116132	3642.832454	10153.505296
72.035000	0.315077	0.179372	0.327354	0.471555	5438.698945	24971.174948	3623.065005	10075.555921
72.535000	0.315647	0.178611	0.325580	0.475384	5418.844307	24738.247592	3611.980163	10011.515591
73.035000	0.319257	0.182051	0.331692	0.479705	5414.533222	24693.835023	3615.507867	9939.903328
73.535500	0.318942	0.181690	0.334139	0.482937	5393.116634	24513.524096	3613.957957	9886.798025
74.036000	0.322021	0.181795	0.330476	0.485201	5398.027242	24405.977535	3602.357942	9849.853241
74.536500	0.320063	0.182797	0.335678	0.489693	5359.465773	24233.156024	3603.739553	9777.086038
75.036500	0.325440	0.184649	0.337735	0.491585	5380.227402	24231.141025	3604.061192	9746.660385
75.537000	0.322051	0.184600	0.340850	0.496069	5333.563688	24008.812951	3601.398721	9675.090267
76.037000	0.324956	0.185543	0.338737	0.497088	5344.664680	24005.112692	3595.339801	9658.936010
76.534500	0.325203	0.185640	0.344120	0.499230	5333.511760	23905.567092	3601.611054	9625.079961
77.035000	0.328437	0.187883	0.340702	0.503155	5329.449101	23823.984066	3587.467635	9563.476066
77.538000	0.327935	0.188969	0.344795	0.507602	5300.599456	23662.066234	3586.792872	9494.365975
78.035500	0.328644	0.188105	0.348850	0.507477	5305.435901	23626.644226	3594.807035	9496.296883
78.535500	0.329080	0.188934	0.348352	0.509834	5294.303881	23553.570227	3589.326567	9459.943511
79.036000	0.329630	0.188846	0.349141	0.511326	5288.859415	23478.227828	3587.981018	9437.020870
79.536500	0.329448	0.188745	0.349192	0.515594	5263.308328	23271.406500	3579.962122	9371.912432
80.036500	0.335134	0.190626	0.353070	0.516242	5292.257382	23329.554110	3586.096541	9362.085091
80.537000	0.335966	0.190890	0.349181	0.517285	5291.036549	23292.790351	3576.746744	9346.287138
81.034500	0.334620	0.191998	0.352389	0.519556	5270.233120	23238.028056	3578.515287	9312.041035
81.535000	0.331256	0.191247	0.352995	0.523630	5227.987164	23012.376813	3571.990855	9251.040139
82.038000	0.335747	0.192605	0.355500	0.523106	5256.391441	23100.119680	3577.686805	9258.851596
82.535500	0.336495	0.191745	0.360848	0.523246	5259.855764	23053.470498	3587.573568	9256.763849
83.036000	0.337941	0.193573	0.352634	0.525778	5253.667208	23020.676036	3567.303184	9219.104198
83.536000	0.332791	0.192849	0.356122	0.529562	5203.354828	22811.988557	3566.750656	9163.228076
84.036500	0.337421	0.193341	0.357024	0.527412	5241.442914	22934.027654	3572.453062	9194.914289
84.536500	0.337455	0.194847	0.359635	0.530120	5226.350608	22878.439712	3572.271853	9155.031828
85.039000	0.338401	0.194190	0.362701	0.529659	5234.281208	22869.349083	3578.909430	9161.803910
85.537000	0.336765	0.194357	0.358551	0.534631	5197.253082	22648.711487	3561.848932	9089.136363
86.037500	0.339298	0.194076	0.357001	0.531898	5226.711389	22760.987037	3564.041071	9128.973763
86.540000	0.340110	0.195714	0.358265	0.533098	5224.530895	22781.155956	3564.162187	9111.459198
87.034500	0.339056	0.196215	0.362698	0.534276	5212.009360	22750.012184	3570.224412	9094.297958
87.535500	0.340076	0.196511	0.360172	0.539341	5189.494176	22532.355768	3556.153808	9021.079303
88.036500	0.340600	0.197165	0.364135	0.536654	5207.348711	22684.588167	3568.467437	9059.809826
88.536000	0.344532	0.197098	0.358641	0.536718	5229.045790	22678.613996	3558.162260	9058.890683
89.036000	0.340754	0.196813	0.359939	0.537570	5203.107390	22626.690552	3558.986386	9046.589299
89.536500	0.339948	0.196703	0.363109	0.542247	5172.732704	22409.475552	3556.211732	8979.443142
90.037000	0.342074	0.196475	0.360862	0.537907	5208.588171	22595.925829	3560.067841	9041.726465
90.537500	0.341585	0.196777	0.358484	0.539008	5199.726024	22559.548096	3553.668123	9025.868923
91.040500	0.342223	0.196854	0.359604	0.538991	5203.367378	22563.780463	3555.752297	9026.103070
91.534500	0.342997	0.197693	0.362181	0.544356	5177.913378	22359.070594	3550.649895	8949.406702
92.035500	0.341667	0.197049	0.357857	0.540493	5191.926949	22504.466737	3549.809312	9004.541186
92.535500	0.344426	0.198514	0.366665	0.543375	5191.246150	22440.322068	3560.685126	8963.363421
93.036000	0.344366	0.196886	0.360861	0.541094	5203.593421	22469.874203	3554.202163	8995.930574
93.536500	0.343462	0.199007	0.363524	0.542696	5189.664437	22493.378413	3556.148764	8973.040240
94.036500	0.344690	0.198987	0.365295	0.543125	5194.094053	22473.055922	3558.618372	8966.922382
94.537000	0.344144	0.199180	0.372206	0.543733	5187.694226	22454.228150	3570.319002	8958.258588
95.037000	0.344219	0.198485	0.367343	0.543558	5189.079343	22430.752780	3561.600090	8960.750228
95.540000	0.346933	0.199298	0.367752	0.544240	5200.370607	22436.687472	3561.096329	8951.057256
96.035000	0.345005	0.197524	0.362742	0.543414	5194.240846	22393.881995	3553.395766	8962.801276
96.535500	0.345238	0.199288	0.365837	0.545326	5184.931454	22387.197938	3555.566268	8935.636724
97.035500	0.345627	0.199105	0.364063	0.545385	5186.760900	22376.317733	3552.208894	8934.807430
97.536000	0.344401	0.199121	0.360883	0.550637	5151.163049	22141.899741	3536.939403	8860.804634
98.036000	0.344273	0.198957	0.360809	0.545055	5181.098198	22384.536793	3546.880268	8939.486442
98.536500	0.347949	0.199067	0.372888	0.546985	5190.762639	22302.708751	3565.529374	8912.170497
99.036500	0.347441	0.198884	0.364003	0.545685	5195.154606	22352.844048	3551.549228	8930.546991
99.537000	0.340625	0.198670	0.363701	0.550330	5132.320049	22135.490765	3542.563830	8865.105232
100.040000	0.346186	0.199912	0.368547	0.546585	5183.210903	22358.590030	3558.234006	8917.810162
100.540500	0.345273	0.199493	0.366073	0.546030	5181.236640	22364.745824	3554.705923	8925.661747
101.034500	0.345695	0.199257	0.368347	0.545814	5184.763514	22363.832634	3559.287437	8928.724346
101.535500	0.342598	0.199069	0.368711	0.552080	5133.523639	22075.445217	3548.472405	8840.622848
102.036000	0.347187	0.200603	0.369298	0.547924	5181.348303	22329.482845	3557.153378	8898.922566
102.535500	0.345532	0.200048	0.369162	0.547344	5175.414348	22330.605582	3557.970136	8907.092403
103.036000	0.345202	0.199198	0.368474	0.547427	5173.144178	22288.741109	3556.551636	8905.931895
103.536500	0.344346	0.200510	0.369368	0.553616	5134.677820	22071.282082	3546.875311	8819.228787
104.037000	0.348678	0.200884	0.366386	0.548132	5188.446371	22332.771882	3551.433380	8895.989073
104.540000	0.348649	0.201705	0.375529	0.550985	5172.532946	22241.635754	3563.005973	8855.932054
105.037500	0.345262	0.198637	0.363758	0.546629	5177.872913	22299.355480	3549.380603	8917.197693
105.535000	0.342429	0.200327	0.365651	0.554616	5118.929716	22018.881315	3538.356027	8805.337431
106.035500	0.344190	0.199284	0.364881	0.547888	5165.047566	22271.917331	3549.132966	8899.429575
106.535500	0.346692	0.199698	0.362730	0.549323	5170.910817	22226.243523	3542.628743	8879.235095
107.035500	0.348515	0.200071	0.366568	0.548289	5186.670532	22289.206695	3551.477929	8893.771228
107.536000	0.344390	0.200583	0.364257	0.555457	5124.961994	21993.036415	3534.350934	8793.679113
108.036500	0.346553	0.199970	0.367836	0.549158	5171.048123	22245.767723	3552.207018	8881.549107
108.536500	0.348077	0.201784	0.370764	0.551598	5166.015477	22217.756175	3553.099965	8847.357452
109.039500	0.346205	0.198067	0.368798	0.547645	5177.463218	22228.326106	3556.745549	8902.844719
109.537000	0.343782	0.199582	0.367267	0.555183	5123.163082	21960.961380	3540.242226	8797.473664
110.035000	0.348539	0.200388	0.369203	0.549243	5181.530028	22260.684554	3554.555062	8880.358698
110.535000	0.349776	0.199055	0.368364	0.550091	5183.678801	22163.240745	3551.465982	8868.449835
