sample name	sample
index	1016
start time	 04-19-2021  11:49:02 AM


Wavelength (nm)	Absorbance
494.344910	0.004891
494.563924	0.004891
494.782919	0.004891
495.001897	0.107148
495.220856	0.004419
495.439797	0.015209
495.658719	0.004949
495.877624	0.001445
496.096510	-0.016353
496.315378	-0.008165
496.534227	-0.014306
496.753059	-0.010183
496.971872	-0.007166
497.190667	0.108447
497.409444	0.152884
497.628203	0.169859
497.846943	0.175255
498.065665	0.178313
498.284369	0.182003
498.503055	0.185101
498.721723	0.186555
498.940372	0.188270
499.159003	0.188612
499.377616	0.188146
499.596210	0.188133
499.814787	0.187838
500.033345	0.189023
500.251885	0.189595
500.470406	0.190362
500.688910	0.189905
500.907395	0.190560
501.125862	0.190905
501.344311	0.190719
501.562742	0.189866
501.781154	0.191709
501.999548	0.192257
502.217924	0.191633
502.436282	0.190751
502.654621	0.190292
502.872942	0.189949
503.091245	0.189268
503.309530	0.189984
503.527797	0.191606
503.746045	0.191212
503.964275	0.192438
504.182487	0.192223
504.400681	0.192631
504.618856	0.192972
504.837013	0.192777
505.055152	0.193528
505.273273	0.194116
505.491376	0.194258
505.709460	0.194987
505.927526	0.194375
506.145574	0.194390
506.363604	0.193999
506.581615	0.194500
506.799608	0.195811
507.017583	0.195909
507.235540	0.195125
507.453478	0.194016
507.671399	0.193658
507.889301	0.193242
508.107185	0.193647
508.325050	0.194464
508.542898	0.195820
508.760727	0.196103
508.978538	0.196856
509.196330	0.197033
509.414105	0.197933
509.631861	0.197808
509.849599	0.197888
510.067319	0.197606
510.285021	0.197906
510.502704	0.196556
510.720369	0.195919
510.938016	0.195917
511.155645	0.196031
511.373255	0.196851
511.590848	0.197445
511.808422	0.198242
512.025977	0.199173
512.243515	0.198465
512.461034	0.199861
512.678536	0.200024
512.896018	0.199766
513.113483	0.201064
513.330930	0.201459
513.548358	0.201435
513.765768	0.201464
513.983160	0.202306
514.200533	0.203405
514.417889	0.202430
514.635226	0.203353
514.852545	0.203338
515.069845	0.203492
515.287128	0.202839
515.504392	0.203019
515.721638	0.202353
515.938866	0.201428
516.156075	0.201599
516.373267	0.202116
516.590440	0.201666
516.807594	0.202236
517.024731	0.201694
517.241850	0.202022
517.458950	0.202543
517.676032	0.203851
517.893095	0.204519
518.110141	0.205198
518.327168	0.206031
518.544177	0.206041
518.761168	0.206872
518.978141	0.206381
519.195095	0.206389
519.412031	0.206378
519.628949	0.206660
519.845849	0.207005
520.062731	0.206648
520.279594	0.206759
520.496439	0.207214
520.713266	0.207579
520.930074	0.208521
521.146865	0.209654
521.363637	0.210491
521.580391	0.210819
521.797127	0.211498
522.013844	0.212739
522.230543	0.212929
522.447224	0.213271
522.663887	0.213391
522.880532	0.213442
523.097158	0.212485
523.313766	0.212583
523.530356	0.212682
523.746928	0.212065
523.963481	0.211428
524.180017	0.212639
524.396534	0.212871
524.613032	0.213718
524.829513	0.214822
525.045975	0.215785
525.262420	0.216131
525.478845	0.216021
525.695253	0.216852
525.911643	0.217534
526.128014	0.216762
526.344367	0.217416
526.560702	0.217578
526.777018	0.217956
526.993316	0.218252
527.209597	0.218163
527.425858	0.219373
527.642102	0.219859
527.858328	0.219419
528.074535	0.220546
528.290724	0.220566
528.506894	0.220988
528.723047	0.221246
528.939181	0.221732
529.155297	0.222526
529.371395	0.221835
529.587475	0.222708
529.803536	0.223920
530.019579	0.223407
530.235604	0.223879
530.451611	0.224081
530.667600	0.223966
530.883570	0.224719
531.099522	0.224894
531.315456	0.225540
531.531372	0.225375
531.747269	0.225683
531.963148	0.226126
532.179009	0.226505
532.394852	0.226539
532.610676	0.226568
532.826482	0.227209
533.042271	0.227697
533.258040	0.228075
533.473792	0.228252
533.689525	0.228878
533.905240	0.229966
534.120937	0.230516
534.336616	0.230705
534.552277	0.231389
534.767919	0.231520
534.983543	0.232713
535.199149	0.232708
535.414736	0.233949
535.630306	0.234042
535.845857	0.233959
536.061390	0.234024
536.276904	0.234459
536.492401	0.234633
536.707879	0.235079
536.923339	0.234798
537.138781	0.235790
537.354204	0.235353
537.569610	0.235321
537.784997	0.235869
538.000366	0.236007
538.215716	0.236539
538.431049	0.237501
538.646363	0.236933
538.861659	0.236994
539.076937	0.237467
539.292196	0.238120
539.507438	0.238852
539.722661	0.239097
539.937866	0.239919
540.153052	0.239959
540.368221	0.240570
540.583371	0.241395
540.798503	0.241434
541.013617	0.241539
541.228712	0.242004
541.443789	0.242072
541.658848	0.242452
541.873889	0.242898
542.088912	0.243781
542.303916	0.243922
542.518902	0.244200
542.733870	0.245491
542.948820	0.245409
543.163752	0.245081
543.378665	0.245874
543.593560	0.245945
543.808437	0.246233
544.023295	0.246208
544.238136	0.246054
544.452958	0.246285
544.667762	0.246290
544.882548	0.247440
545.097315	0.247887
545.312064	0.248007
545.526795	0.248957
545.741508	0.249361
545.956203	0.249615
546.170879	0.249729
546.385537	0.249676
546.600177	0.249492
546.814799	0.249399
547.029402	0.249842
547.243988	0.249698
547.458555	0.249931
547.673103	0.250379
547.887634	0.250426
548.102146	0.251036
548.316640	0.251834
548.531116	0.252069
548.745574	0.252154
548.960013	0.252571
549.174435	0.252875
549.388838	0.252896
549.603222	0.252785
549.817589	0.253109
550.031937	0.253388
550.246267	0.253738
550.460579	0.254340
550.674873	0.254752
550.889148	0.254238
551.103405	0.255041
551.317644	0.255209
551.531865	0.255467
551.746068	0.256031
551.960252	0.256156
552.174418	0.256190
552.388566	0.256583
552.602696	0.257044
552.816807	0.257704
553.030900	0.257622
553.244975	0.257393
553.459032	0.257838
553.673070	0.258377
553.887091	0.259262
554.101093	0.259665
554.315077	0.259875
554.529042	0.260045
554.742990	0.260396
554.956919	0.260912
555.170830	0.261578
555.384722	0.261854
555.598597	0.261824
555.812453	0.261298
556.026291	0.261225
556.240111	0.261378
556.453913	0.261830
556.667696	0.262212
556.881461	0.262462
557.095208	0.262583
557.308937	0.262032
557.522647	0.262917
557.736339	0.263624
557.950013	0.264165
558.163669	0.264414
558.377307	0.264315
558.590926	0.264476
558.804527	0.264518
559.018110	0.264564
559.231675	0.265421
559.445221	0.264456
559.658749	0.264120
559.872259	0.264239
560.085751	0.264499
560.299225	0.264866
560.512680	0.264968
560.726117	0.265432
560.939536	0.265850
561.152937	0.265739
561.366319	0.266400
561.579683	0.266921
561.793029	0.267122
562.006357	0.267213
562.219667	0.267350
562.432958	0.267967
562.646231	0.268027
562.859486	0.268368
563.072723	0.268982
563.285941	0.268819
563.499141	0.269154
563.712323	0.269265
563.925487	0.269399
564.138632	0.269815
564.351760	0.270012
564.564869	0.269911
564.777960	0.270291
564.991032	0.270240
565.204087	0.270678
565.417123	0.271065
565.630141	0.271336
565.843140	0.271353
566.056122	0.271384
566.269085	0.271270
566.482030	0.271326
566.694957	0.271172
566.907866	0.271352
567.120756	0.272094
567.333628	0.271607
567.546482	0.271957
567.759318	0.272189
567.972135	0.272286
568.184935	0.272216
568.397716	0.272808
568.610478	0.273201
568.823223	0.273232
569.035949	0.272875
569.248657	0.273276
569.461347	0.273020
569.674019	0.273375
569.886672	0.273834
570.099308	0.274361
570.311925	0.274810
570.524523	0.274616
570.737104	0.275182
570.949666	0.275485
571.162210	0.275940
571.374736	0.276644
571.587244	0.276909
571.799733	0.276337
572.012205	0.276600
572.224658	0.276346
572.437092	0.277096
572.649509	0.277208
572.861907	0.277120
573.074287	0.277011
573.286649	0.276869
573.498993	0.277249
573.711318	0.277751
573.923625	0.278018
574.135914	0.278095
574.348185	0.278064
574.560438	0.278049
574.772672	0.278260
574.984888	0.278585
575.197086	0.278938
575.409266	0.278793
575.621427	0.279243
575.833570	0.279581
576.045695	0.280172
576.257802	0.280468
576.469890	0.280756
576.681961	0.281349
576.894013	0.281841
577.106046	0.282035
577.318062	0.282351
577.530059	0.282633
577.742039	0.282297
577.954000	0.282107
578.165942	0.282032
578.377867	0.281901
578.589773	0.282006
578.801661	0.282340
579.013531	0.282745
579.225382	0.283458
579.437216	0.283307
579.649031	0.283583
579.860828	0.284375
580.072606	0.284651
580.284367	0.284899
580.496109	0.285237
580.707833	0.284621
580.919539	0.284550
581.131227	0.284004
581.342896	0.284828
581.554547	0.285346
581.766180	0.285007
581.977795	0.285541
582.189391	0.285559
582.400969	0.285282
582.612529	0.285983
582.824071	0.286119
583.035595	0.286078
583.247100	0.285061
583.458587	0.284669
583.670056	0.284670
583.881506	0.284121
584.092939	0.284698
584.304353	0.285296
584.515749	0.285168
584.727127	0.285203
584.938486	0.285879
585.149828	0.286603
585.361151	0.287020
585.572456	0.287449
585.783742	0.288171
585.995011	0.288627
586.206261	0.288858
586.417493	0.289080
586.628706	0.289505
586.839902	0.289496
587.051079	0.289977
587.262238	0.290368
587.473379	0.290723
587.684502	0.290786
587.895606	0.290921
588.106692	0.291250
588.317760	0.291611
588.528810	0.291384
588.739841	0.291818
588.950855	0.291691
589.161850	0.291579
589.372827	0.291436
589.583785	0.291440
589.794726	0.291657
590.005648	0.291595
590.216552	0.291711
590.427437	0.292206
590.638305	0.292094
590.849154	0.292575
591.059985	0.292879
591.270798	0.293274
591.481592	0.293779
591.692369	0.293405
591.903127	0.293500
592.113867	0.294053
592.324588	0.294042
592.535292	0.294516
592.745977	0.294737
592.956644	0.295157
593.167293	0.295275
593.377923	0.295086
593.588536	0.295656
593.799130	0.295606
594.009706	0.295348
594.220263	0.295647
594.430803	0.295576
594.641324	0.295250
594.851827	0.295202
595.062312	0.295165
595.272778	0.295345
595.483227	0.295293
595.693657	0.295460
595.904069	0.295713
596.114462	0.295940
596.324838	0.296004
596.535195	0.296687
596.745534	0.296844
596.955855	0.297523
597.166157	0.297819
597.376441	0.298074
597.586707	0.298520
597.796955	0.298458
598.007185	0.298784
598.217396	0.298827
598.427589	0.298704
598.637764	0.298960
598.847921	0.298965
599.058060	0.299173
599.268180	0.299465
599.478282	0.299671
599.688366	0.300056
599.898431	0.299992
600.108479	0.300316
600.318508	0.300598
600.528519	0.300557
600.738511	0.300313
600.948486	0.300615
601.158442	0.300280
601.368380	0.300269
601.578300	0.300378
601.788202	0.300795
601.998085	0.301186
602.207950	0.301130
602.417797	0.301480
602.627626	0.302183
602.837436	0.302035
603.047228	0.302552
603.257002	0.302575
603.466758	0.302683
603.676496	0.302788
603.886215	0.302826
604.095916	0.303548
604.305599	0.303550
604.515264	0.303585
604.724910	0.303751
604.934538	0.304064
605.144148	0.304466
605.353740	0.304930
605.563314	0.305186
605.772869	0.305327
605.982406	0.305309
606.191925	0.305489
606.401425	0.305239
606.610908	0.305291
606.820372	0.305101
607.029818	0.304974
607.239246	0.304962
607.448655	0.304837
607.658047	0.305375
607.867420	0.305106
608.076775	0.305341
608.286111	0.305981
608.495430	0.306471
608.704730	0.306962
608.914012	0.307384
609.123275	0.307632
609.332521	0.307937
609.541748	0.307802
609.750957	0.308361
609.960148	0.308636
610.169321	0.308918
610.378475	0.309132
610.587611	0.309585
610.796729	0.309693
611.005829	0.309831
611.214910	0.309714
611.423974	0.309622
611.633019	0.309285
611.842045	0.309415
612.051054	0.309113
612.260044	0.309126
612.469017	0.308829
612.677970	0.309092
612.886906	0.309127
613.095824	0.309376
613.304723	0.309649
613.513604	0.309897
613.722467	0.309869
613.931311	0.310138
614.140138	0.310374
614.348946	0.310691
614.557736	0.310721
614.766507	0.310857
614.975261	0.311041
615.183996	0.311416
615.392713	0.311825
615.601412	0.311984
615.810092	0.311965
616.018754	0.312052
616.227399	0.312454
616.436024	0.312877
616.644632	0.313135
616.853222	0.313475
617.061793	0.313587
617.270346	0.313771
617.478880	0.313989
617.687397	0.314445
617.895895	0.314773
618.104375	0.314446
618.312837	0.314386
618.521281	0.314157
618.729706	0.314633
618.938113	0.314719
619.146502	0.314597
619.354873	0.314939
619.563226	0.315036
619.771560	0.314974
619.979876	0.315543
620.188174	0.315563
620.396453	0.315940
620.604715	0.315400
620.812958	0.315470
621.021183	0.315815
621.229390	0.315784
621.437578	0.316060
621.645748	0.316357
621.853900	0.316431
622.062034	0.316649
622.270150	0.316958
622.478247	0.317335
622.686326	0.317649
622.894387	0.317924
623.102430	0.318228
623.310454	0.318309
623.518461	0.318373
623.726449	0.318616
623.934418	0.318994
624.142370	0.319061
624.350303	0.319383
624.558218	0.319594
624.766115	0.319494
624.973994	0.319630
625.181855	0.319952
625.389697	0.320390
625.597521	0.320326
625.805327	0.320340
626.013114	0.320398
626.220883	0.320520
626.428634	0.320327
626.636367	0.320545
626.844082	0.320472
627.051778	0.320574
627.259457	0.320419
627.467117	0.320677
627.674758	0.320902
627.882382	0.321218
628.089987	0.321291
628.297574	0.321602
628.505143	0.321623
628.712694	0.321854
628.920226	0.321653
629.127740	0.321351
629.335236	0.321339
629.542714	0.321250
629.750174	0.321437
629.957615	0.321583
630.165038	0.321986
630.372443	0.322241
630.579829	0.322495
630.787198	0.322682
630.994548	0.323617
631.201880	0.324024
631.409194	0.324299
631.616489	0.324491
631.823766	0.324684
632.031025	0.324731
632.238266	0.325103
632.445489	0.325617
632.652693	0.326039
632.859879	0.326012
633.067047	0.326067
633.274197	0.326425
633.481329	0.326654
633.688442	0.326904
633.895537	0.327262
634.102614	0.327446
634.309672	0.327225
634.516713	0.327267
634.723735	0.327497
634.930739	0.327637
635.137724	0.327654
635.344692	0.327536
635.551641	0.327707
635.758572	0.327648
635.965485	0.328074
636.172379	0.328073
636.379256	0.328387
636.586114	0.328419
636.792954	0.328849
636.999775	0.328902
637.206579	0.329224
637.413364	0.329512
637.620131	0.329858
637.826880	0.329757
638.033610	0.330234
638.240323	0.330205
638.447017	0.330316
638.653692	0.329939
638.860350	0.330531
639.066990	0.330963
639.273611	0.330733
639.480214	0.330546
639.686798	0.330758
639.893365	0.330773
640.099913	0.331160
640.306443	0.331285
640.512955	0.331581
640.719449	0.331523
640.925924	0.331448
641.132381	0.331900
641.338820	0.332245
641.545241	0.332282
641.751644	0.332593
641.958028	0.332908
642.164394	0.333106
642.370742	0.333466
642.577071	0.333591
642.783383	0.333761
642.989676	0.334153
643.195951	0.334437
643.402207	0.334813
643.608446	0.335235
643.814666	0.335178
644.020868	0.335587
644.227052	0.335839
644.433218	0.335818
644.639365	0.335975
644.845494	0.335969
645.051605	0.335968
645.257698	0.336153
645.463772	0.335797
645.669828	0.335913
645.875866	0.336019
646.081886	0.336395
646.287888	0.336915
646.493871	0.336975
646.699836	0.336970
646.905783	0.337286
647.111712	0.337184
647.317622	0.337775
647.523514	0.337874
647.729388	0.338177
647.935244	0.338192
648.141082	0.338283
648.346901	0.338582
648.552702	0.338820
648.758485	0.338904
648.964250	0.339374
649.169996	0.339461
649.375724	0.339832
649.581434	0.339813
649.787126	0.339952
649.992800	0.339957
650.198455	0.340162
650.404092	0.340422
650.609711	0.340714
650.815311	0.340728
651.020894	0.340701
651.226458	0.340773
651.432004	0.341103
651.637532	0.341138
651.843041	0.341441
652.048532	0.341631
652.254006	0.341822
652.459460	0.342066
652.664897	0.342435
652.870315	0.342678
653.075716	0.342873
653.281097	0.343104
653.486461	0.343396
653.691807	0.343705
653.897134	0.344116
654.102443	0.344475
654.307734	0.344406
654.513006	0.344668
654.718261	0.344895
654.923497	0.345338
655.128715	0.345413
655.333915	0.345666
655.539096	0.345974
655.744259	0.346119
655.949404	0.346374
656.154531	0.346970
656.359640	0.346926
656.564730	0.347099
656.769802	0.347350
656.974856	0.347690
657.179892	0.347806
657.384909	0.347849
657.589908	0.347940
657.794889	0.348066
657.999852	0.348172
658.204797	0.348510
658.409723	0.348897
658.614631	0.348882
658.819521	0.349115
659.024393	0.349333
659.229246	0.349713
659.434081	0.349941
659.638898	0.350030
659.843697	0.350236
660.048478	0.350430
660.253240	0.350663
660.457984	0.350865
660.662710	0.350742
660.867417	0.351099
661.072107	0.351260
661.276778	0.351903
661.481431	0.352290
661.686066	0.352528
661.890682	0.352554
662.095281	0.352635
662.299861	0.352890
662.504422	0.353442
662.708966	0.353649
662.913491	0.353822
663.117999	0.353661
663.322488	0.353589
663.526958	0.353618
663.731411	0.354154
663.935845	0.354339
664.140261	0.354739
664.344659	0.355132
664.549038	0.355501
664.753400	0.355589
664.957743	0.355770
665.162068	0.356315
665.366375	0.356699
665.570663	0.356859
665.774933	0.357149
665.979185	0.357352
666.183419	0.357528
666.387635	0.357730
666.591832	0.358399
666.796011	0.358535
667.000172	0.358428
667.204315	0.358755
667.408439	0.359027
667.612545	0.359455
667.816634	0.359874
668.020703	0.359815
668.224755	0.359773
668.428788	0.359471
668.632803	0.359905
668.836800	0.360295
669.040779	0.360468
669.244739	0.360583
669.448681	0.360726
669.652605	0.360597
669.856511	0.361024
670.060399	0.361483
670.264268	0.361745
670.468119	0.361683
670.671952	0.362110
670.875767	0.362559
671.079563	0.362876
671.283341	0.363052
671.487101	0.363349
671.690843	0.363576
671.894567	0.363582
672.098272	0.364002
672.301959	0.364449
672.505628	0.364593
672.709278	0.364488
672.912911	0.364613
673.116525	0.364988
673.320121	0.365087
673.523699	0.365304
673.727258	0.365545
673.930799	0.365770
674.134322	0.366237
674.337827	0.366306
674.541314	0.366690
674.744782	0.366939
674.948232	0.367126
675.151664	0.367510
675.355078	0.367495
675.558474	0.367742
675.761851	0.367895
675.965210	0.367892
676.168551	0.368191
676.371873	0.368128
676.575178	0.368515
676.778464	0.368611
676.981732	0.368736
677.184981	0.369085
677.388213	0.369534
677.591426	0.369830
677.794621	0.369955
677.997798	0.370356
678.200956	0.370732
678.404097	0.370931
678.607219	0.371323
678.810323	0.371523
679.013408	0.371873
679.216476	0.372076
679.419525	0.372420
679.622556	0.372855
679.825569	0.373030
680.028563	0.373193
680.231540	0.373549
680.434498	0.373716
680.637438	0.374330
680.840359	0.374323
681.043263	0.374508
681.246148	0.374454
681.449015	0.374489
681.651864	0.374491
681.854694	0.374978
682.057506	0.374890
682.260301	0.375069
682.463076	0.374866
682.665834	0.375163
682.868573	0.375449
683.071295	0.375602
683.273998	0.375680
683.476682	0.376042
683.679349	0.376046
683.881997	0.376287
684.084627	0.376296
684.287239	0.376650
684.489833	0.376799
684.692408	0.376968
684.894965	0.377503
685.097504	0.378049
685.300025	0.378277
685.502527	0.378413
685.705012	0.378431
685.907478	0.378982
686.109925	0.379347
686.312355	0.379621
686.514766	0.379817
686.717159	0.380058
686.919534	0.380096
687.121891	0.380270
687.324230	0.380337
687.526550	0.380710
687.728852	0.380900
687.931136	0.380957
688.133401	0.381336
688.335649	0.381319
688.537878	0.381320
688.740089	0.381487
688.942281	0.381540
689.144456	0.382131
689.346612	0.382337
689.548750	0.382261
689.750870	0.382336
689.952971	0.382042
690.155055	0.382419
690.357120	0.382727
690.559167	0.382874
690.761195	0.383096
690.963206	0.382876
691.165198	0.383007
691.367172	0.382996
691.569128	0.382922
691.771065	0.383442
691.972984	0.383511
692.174885	0.383568
692.376768	0.383996
692.578633	0.384231
692.780479	0.384778
692.982308	0.385069
693.184118	0.385581
693.385909	0.385986
693.587683	0.386212
693.789438	0.386457
693.991175	0.386465
694.192894	0.386472
694.394595	0.386452
694.596277	0.386527
694.797941	0.386649
694.999587	0.386785
695.201215	0.387073
695.402824	0.387049
695.604416	0.387097
695.805989	0.387363
696.007543	0.387636
696.209080	0.387864
696.410598	0.387829
696.612099	0.387918
696.813580	0.388186
697.015044	0.388424
697.216490	0.389000
697.417917	0.389173
697.619326	0.389393
697.820717	0.389528
698.022089	0.389718
698.223444	0.389940
698.424780	0.390421
698.626098	0.390315
698.827397	0.390283
699.028679	0.390208
699.229942	0.390247
699.431187	0.390246
699.632414	0.389945
699.833622	0.390030
700.034813	0.390057
700.235985	0.389622
700.437139	0.389673
700.638274	0.390087
700.839392	0.390074
701.040491	0.390426
701.241572	0.390879
701.442635	0.391252
701.643679	0.391522
701.844706	0.391850
702.045714	0.392022
702.246704	0.392142
702.447675	0.391895
702.648629	0.391919
702.849564	0.391817
703.050481	0.391561
703.251380	0.391632
703.452260	0.391745
703.653122	0.391468
703.853966	0.391572
704.054792	0.391716
704.255600	0.391501
704.456389	0.391457
704.657160	0.391515
704.857913	0.391368
705.058648	0.391237
705.259365	0.391092
705.460063	0.391170
705.660743	0.391194
705.861405	0.391304
706.062048	0.391480
706.262674	0.391563
706.463281	0.391343
706.663870	0.391437
706.864441	0.391457
707.064993	0.391356
707.265527	0.391357
707.466043	0.391201
707.666541	0.391026
707.867021	0.391106
708.067482	0.391208
708.267925	0.391764
708.468350	0.392079
708.668757	0.392359
708.869145	0.392752
709.069516	0.392949
709.269868	0.393096
709.470201	0.393321
709.670517	0.393464
709.870814	0.393390
710.071093	0.393157
710.271354	0.393097
710.471597	0.392793
710.671821	0.392833
710.872028	0.392713
711.072216	0.393058
711.272385	0.392947
711.472537	0.392858
711.672670	0.392790
711.872785	0.392829
712.072882	0.392782
712.272961	0.392839
712.473021	0.392601
712.673063	0.392595
712.873087	0.392375
713.073093	0.392337
713.273081	0.392246
713.473050	0.392355
713.673001	0.392149
713.872934	0.392184
714.072849	0.392130
714.272745	0.392327
714.472623	0.392305
714.672483	0.392291
714.872325	0.392192
715.072148	0.392462
715.271954	0.392657
715.471741	0.392470
715.671509	0.392264
715.871260	0.392589
716.070992	0.392437
716.270707	0.392698
716.470403	0.392535
716.670080	0.392484
716.869740	0.392028
717.069381	0.391740
717.269004	0.391741
717.468609	0.391695
717.668195	0.391559
717.867764	0.391347
718.067314	0.390854
718.266846	0.390850
718.466360	0.390765
718.665855	0.390763
718.865332	0.390462
719.064791	0.390317
719.264232	0.390130
719.463655	0.390193
719.663059	0.390189
719.862445	0.390225
720.061813	0.390185
720.261163	0.390042
720.460494	0.390099
720.659807	0.390289
720.859102	0.390503
721.058379	0.390838
721.257638	0.390401
721.456878	0.390311
721.656100	0.390273
721.855304	0.390218
722.054490	0.390255
722.253657	0.390014
722.452806	0.389647
722.651937	0.389530
722.851050	0.389165
723.050145	0.389204
723.249221	0.389166
723.448279	0.389088
723.647319	0.388741
723.846340	0.388608
724.045344	0.388752
724.244329	0.388652
724.443296	0.388575
724.642245	0.388564
724.841175	0.388313
725.040088	0.388093
725.238982	0.387923
725.437857	0.387900
725.636715	0.387930
725.835554	0.387712
726.034376	0.387724
726.233179	0.387321
726.431963	0.387219
726.630730	0.387548
726.829478	0.387380
727.028208	0.387241
727.226920	0.387060
727.425614	0.386852
727.624289	0.386696
727.822946	0.386433
728.021585	0.386465
728.220206	0.386051
728.418808	0.385534
728.617392	0.385160
728.815958	0.385164
729.014506	0.385013
729.213036	0.384713
729.411547	0.384349
729.610040	0.384272
729.808515	0.384193
730.006972	0.384224
730.205410	0.383965
730.403831	0.383811
730.602233	0.383560
730.800616	0.383386
730.998982	0.383401
731.197329	0.383155
731.395658	0.383180
731.593969	0.382979
731.792262	0.382924
731.990536	0.382844
732.188793	0.382992
732.387031	0.383011
732.585250	0.383184
732.783452	0.382873
732.981635	0.382791
733.179800	0.382473
733.377947	0.382107
733.576076	0.381564
733.774186	0.381498
733.972278	0.380825
734.170352	0.380445
734.368408	0.379912
734.566446	0.379776
734.764465	0.379818
734.962466	0.379286
735.160449	0.379133
735.358413	0.378958
735.556360	0.378447
735.754288	0.378620
735.952198	0.378401
736.150090	0.378264
736.347963	0.377919
736.545818	0.377958
736.743655	0.378113
736.941474	0.378174
737.139275	0.378122
737.337057	0.377974
737.534821	0.377524
737.732567	0.377228
737.930295	0.377015
738.128005	0.376835
738.325696	0.376244
738.523369	0.375853
738.721024	0.375213
738.918660	0.374913
739.116279	0.374648
739.313879	0.374274
739.511461	0.373909
739.709024	0.373591
739.906570	0.373398
740.104097	0.372983
740.301606	0.372899
740.499097	0.372984
740.696569	0.372758
740.894024	0.372555
741.091460	0.372483
741.288878	0.372353
741.486277	0.372139
741.683659	0.372059
741.881022	0.371888
742.078367	0.371469
742.275694	0.371093
742.473002	0.370784
742.670293	0.370675
742.867565	0.370458
743.064819	0.370218
743.262054	0.369984
743.459272	0.369692
743.656471	0.369210
743.853652	0.369235
744.050815	0.368940
744.247959	0.368905
744.445085	0.368525
744.642194	0.368135
744.839283	0.367982
745.036355	0.367785
745.233408	0.367302
745.430444	0.367403
745.627461	0.366951
745.824459	0.366784
746.021440	0.366639
746.218402	0.366426
746.415346	0.366330
746.612272	0.365918
746.809180	0.365604
747.006069	0.365289
747.202940	0.364914
747.399793	0.364815
747.596628	0.364676
747.793444	0.364248
747.990243	0.363927
748.187023	0.363760
748.383784	0.363695
748.580528	0.363462
748.777253	0.363581
748.973960	0.363697
749.170649	0.363409
749.367320	0.362984
749.563973	0.362750
749.760607	0.362676
749.957223	0.362513
750.153821	0.362429
750.350400	0.362241
750.546962	0.361901
750.743505	0.361465
750.940030	0.361241
751.136536	0.361104
751.333025	0.360879
751.529495	0.360568
751.725947	0.360446
751.922381	0.360024
752.118796	0.359843
752.315194	0.359490
752.511573	0.359338
752.707934	0.359064
752.904276	0.358823
753.100601	0.358629
753.296907	0.358414
753.493195	0.358019
753.689465	0.357831
753.885716	0.357887
754.081949	0.357903
754.278164	0.357839
754.474361	0.357973
754.670540	0.357495
754.866700	0.357550
755.062843	0.357281
755.258967	0.357009
755.455072	0.356805
755.651160	0.356754
755.847229	0.356514
756.043280	0.356028
756.239313	0.355814
756.435328	0.355999
756.631324	0.355676
756.827302	0.355647
757.023262	0.355420
757.219204	0.355270
757.415127	0.354836
757.611033	0.354504
757.806920	0.354364
758.002788	0.353885
758.198639	0.354035
758.394471	0.353975
758.590286	0.353799
758.786081	0.354138
758.981859	0.353884
759.177619	0.353510
759.373360	0.353549
759.569083	0.353362
759.764788	0.353300
759.960474	0.352760
760.156143	0.352576
760.351793	0.352621
760.547425	0.351911
760.743038	0.351842
760.938634	0.352024
761.134211	0.351472
761.329770	0.351558
761.525311	0.351331
761.720833	0.351263
761.916338	0.351091
762.111824	0.350652
762.307292	0.350799
762.502741	0.350664
762.698173	0.350379
762.893586	0.350588
763.088981	0.350176
763.284358	0.349939
763.479716	0.349751
763.675057	0.349360
763.870379	0.349322
764.065683	0.348994
764.260968	0.348769
764.456236	0.348450
764.651485	0.348425
764.846716	0.348619
765.041929	0.348772
765.237123	0.348678
765.432299	0.348464
765.627457	0.348380
765.822597	0.348432
766.017719	0.348536
766.212822	0.348535
766.407907	0.348259
766.602974	0.347966
766.798023	0.347864
766.993054	0.347658
767.188066	0.347632
767.383060	0.347918
767.578036	0.347847
767.772993	0.347433
767.967933	0.347133
768.162854	0.346974
768.357757	0.346789
768.552642	0.346794
768.747508	0.346606
768.942356	0.346743
769.137186	0.346203
769.331998	0.346083
769.526792	0.346018
769.721567	0.346066
769.916324	0.345967
770.111063	0.346084
770.305784	0.345629
770.500486	0.345621
770.695171	0.345442
770.889837	0.345319
771.084484	0.345159
771.279114	0.345228
771.473725	0.345240
771.668318	0.345209
771.862893	0.345035
772.057450	0.344821
772.251988	0.344753
772.446509	0.344461
772.641011	0.344490
772.835494	0.344563
773.029960	0.344277
773.224407	0.344105
773.418836	0.344130
773.613247	0.344148
773.807640	0.344252
774.002014	0.344328
774.196370	0.344384
774.390708	0.344444
774.585028	0.344557
774.779330	0.344575
774.973613	0.344469
775.167878	0.344733
775.362125	0.344683
775.556354	0.344558
775.750564	0.344416
775.944756	0.344397
776.138930	0.344324
776.333086	0.343964
776.527223	0.344068
776.721343	0.343967
776.915444	0.343501
777.109526	0.343313
777.303591	0.343394
777.497637	0.343377
777.691666	0.343310
777.885676	0.343068
778.079667	0.343199
778.273641	0.343276
778.467596	0.343501
778.661533	0.343656
778.855452	0.343756
779.049352	0.343688
779.243235	0.343630
779.437099	0.343829
779.630945	0.344083
779.824773	0.344198
780.018582	0.344124
780.212373	0.344073
780.406146	0.344015
780.599901	0.344098
780.793638	0.344359
780.987356	0.344813
781.181056	0.344885
781.374738	0.344846
781.568402	0.344650
781.762047	0.344716
781.955674	0.344701
782.149283	0.344486
782.342874	0.344558
782.536447	0.344546
782.730001	0.344306
782.923537	0.344274
783.117055	0.344089
783.310555	0.344143
783.504036	0.344259
783.697499	0.344343
783.890944	0.344570
784.084371	0.344511
784.277780	0.344533
784.471170	0.344446
784.664542	0.344549
784.857896	0.344762
785.051231	0.344770
785.244549	0.344855
785.437848	0.344945
785.631129	0.344818
785.824392	0.345040
786.017636	0.345056
786.210863	0.345080
786.404071	0.344725
786.597260	0.344919
786.790432	0.344984
786.983585	0.345233
787.176721	0.345436
787.369838	0.345898
787.562936	0.345967
787.756017	0.346191
787.949079	0.346489
788.142123	0.346766
788.335149	0.346476
788.528156	0.346866
788.721146	0.346551
788.914117	0.346725
789.107070	0.346834
789.300005	0.346681
789.492921	0.346905
789.685819	0.347013
789.878699	0.347358
790.071561	0.347818
790.264405	0.347905
790.457230	0.348383
790.650037	0.348655
790.842826	0.348878
791.035597	0.349303
791.228349	0.349386
791.421084	0.349550
791.613800	0.349750
791.806497	0.349983
791.999177	0.349997
792.191838	0.349872
792.384481	0.349789
792.577106	0.349780
792.769713	0.349663
792.962301	0.349552
793.154871	0.349526
793.347423	0.349349
793.539957	0.349391
793.732473	0.349581
793.924970	0.350049
794.117449	0.350287
794.309910	0.350542
794.502353	0.351584
794.694777	0.352059
794.887183	0.352335
795.079571	0.353054
795.271941	0.353156
795.464293	0.353295
795.656626	0.353273
795.848941	0.353381
796.041238	0.353776
796.233516	0.353365
796.425777	0.353642
796.618019	0.354007
796.810243	0.354031
797.002449	0.354422
797.194636	0.354638
797.386805	0.354983
797.578956	0.355074
797.771089	0.354969
797.963204	0.355660
798.155300	0.355488
798.347378	0.355540
798.539438	0.355775
798.731480	0.356168
798.923503	0.356634
799.115509	0.356670
799.307496	0.357105
799.499465	0.357547
799.691415	0.357400
799.883348	0.358303
800.075262	0.358809
800.267158	0.358988
800.459035	0.359281
800.650895	0.359519
800.842736	0.359714
801.034559	0.359801
801.226364	0.359926
801.418150	0.360003
801.609919	0.359912
801.801669	0.360103
801.993401	0.360216
802.185114	0.360514
802.376810	0.360695
802.568487	0.361238
802.760146	0.361548
802.951787	0.361887
803.143409	0.362209
803.335014	0.362476
803.526600	0.362345
803.718168	0.362673
803.909717	0.362851
804.101249	0.363169
804.292762	0.363464
804.484257	0.364065
804.675734	0.364126
804.867192	0.364345
805.058632	0.364305
805.250054	0.364751
805.441458	0.365457
805.632844	0.365698
805.824211	0.365722
806.015561	0.365907
806.206891	0.365848
806.398204	0.366242
806.589499	0.366647
806.780775	0.367229
806.972033	0.367665
807.163273	0.367710
807.354495	0.368021
807.545698	0.368543
807.736883	0.368865
807.928050	0.369405
808.119199	0.369692
808.310329	0.369933
808.501441	0.370266
808.692535	0.370738
808.883611	0.371203
809.074669	0.371523
809.265708	0.371942
809.456729	0.372366
809.647732	0.372424
809.838717	0.372895
810.029683	0.373557
810.220632	0.373889
810.411562	0.374379
810.602474	0.374570
810.793367	0.374756
810.984242	0.375003
811.175100	0.375345
811.365938	0.376124
811.556759	0.376399
811.747562	0.376490
811.938346	0.377078
812.129112	0.377187
812.319860	0.377607
812.510589	0.378089
812.701300	0.378645
812.891994	0.379092
813.082668	0.379126
813.273325	0.379811
813.463964	0.380532
813.654584	0.380764
813.845186	0.381308
814.035769	0.381496
814.226335	0.382071
814.416882	0.382449
814.607411	0.382732
814.797922	0.383283
814.988415	0.383525
815.178889	0.383762
815.369345	0.384259
815.559783	0.384548
815.750203	0.385128
815.940605	0.385350
816.130988	0.385787
816.321353	0.386417
816.511700	0.386947
816.702028	0.387472
816.892339	0.387696
817.082631	0.388067
817.272905	0.388405
817.463161	0.388880
817.653398	0.389347
817.843617	0.389797
818.033819	0.390209
818.224001	0.390724
818.414166	0.390950
818.604312	0.391653
818.794440	0.391970
818.984550	0.392605
819.174642	0.393309
819.364716	0.393879
819.554771	0.394077
819.744808	0.394606
819.934827	0.394966
820.124827	0.395466
820.314810	0.395884
820.504774	0.396370
820.694720	0.396817
820.884647	0.396953
821.074557	0.397470
821.264448	0.398064
821.454321	0.398086
821.644176	0.398731
821.834012	0.399244
822.023831	0.399496
822.213631	0.400296
822.403413	0.400828
822.593176	0.401427
822.782922	0.401516
822.972649	0.402077
823.162358	0.402851
823.352049	0.403004
823.541721	0.403546
823.731376	0.403998
823.921012	0.404109
824.110629	0.404510
824.300229	0.405129
824.489811	0.406002
824.679374	0.406525
824.868919	0.406826
825.058445	0.407075
825.247954	0.407559
825.437444	0.408001
825.626916	0.408686
825.816370	0.408934
826.005806	0.409000
826.195223	0.409390
826.384622	0.410059
826.574003	0.410570
826.763366	0.411409
826.952711	0.411952
827.142037	0.412655
827.331345	0.412984
827.520635	0.413569
827.709906	0.414374
827.899160	0.414986
828.088395	0.415035
828.277612	0.415913
828.466810	0.416509
828.655991	0.416640
828.845153	0.417143
829.034297	0.417728
829.223423	0.418179
829.412531	0.418329
829.601620	0.418603
829.790691	0.419168
829.979744	0.419545
830.168779	0.420009
830.357795	0.420641
830.546793	0.421128
830.735773	0.421326
830.924735	0.421966
831.113679	0.422548
831.302604	0.423295
831.491511	0.423540
831.680400	0.423805
831.869271	0.424524
832.058123	0.425272
832.246957	0.426022
832.435773	0.426758
832.624571	0.427475
832.813351	0.427704
833.002112	0.428240
833.190855	0.429223
833.379580	0.429824
833.568287	0.430399
833.756975	0.430916
833.945645	0.431228
834.134297	0.431863
834.322931	0.432005
834.511547	0.432821
834.700144	0.433171
834.888723	0.433671
835.077284	0.434351
835.265826	0.434695
835.454351	0.435479
835.642857	0.436084
835.831345	0.436586
836.019815	0.437299
836.208266	0.438127
836.396699	0.438889
836.585114	0.439432
836.773511	0.439796
836.961890	0.440261
837.150250	0.440136
837.338592	0.440401
837.526916	0.441339
837.715222	0.441505
837.903510	0.441887
838.091779	0.442196
838.280030	0.442728
838.468263	0.443352
838.656477	0.443867
838.844674	0.444380
839.032852	0.444897
839.221012	0.445058
839.409153	0.446146
839.597277	0.446926
839.785382	0.447566
839.973469	0.447966
840.161538	0.448618
840.349589	0.449220
840.537621	0.450292
840.725635	0.450718
840.913631	0.451324
841.101609	0.451985
841.289568	0.452327
841.477509	0.452980
841.665432	0.453546
841.853337	0.454057
842.041224	0.454550
842.229092	0.455116
842.416942	0.456165
842.604774	0.456618
842.792588	0.457120
842.980383	0.457625
843.168160	0.458233
843.355919	0.458697
843.543660	0.459160
843.731382	0.460088
843.919087	0.460608
844.106773	0.460586
844.294441	0.461379
844.482090	0.461869
844.669722	0.462328
844.857335	0.462682
845.044930	0.463226
845.232507	0.463590
845.420065	0.463754
845.607605	0.464548
845.795127	0.465433
845.982631	0.466399
846.170117	0.466596
846.357584	0.466870
846.545033	0.467453
846.732464	0.468872
846.919877	0.469482
847.107272	0.469882
847.294648	0.470276
847.482006	0.470811
847.669346	0.470321
847.856667	0.471459
848.043971	0.472882
848.231256	0.473508
848.418523	0.473449
848.605771	0.474480
848.793002	0.475329
848.980214	0.475722
849.167408	0.476523
849.354584	0.477510
849.541742	0.478320
849.728881	0.478641
849.916002	0.479173
850.103105	0.479987
850.290190	0.480327
850.477256	0.480828
850.664304	0.481567
850.851334	0.481984
851.038346	0.482614
851.225340	0.482939
851.412315	0.483661
851.599272	0.483964
851.786211	0.484432
851.973132	0.484840
852.160034	0.485418
852.346918	0.485919
852.533784	0.486517
852.720632	0.487143
852.907462	0.487043
853.094273	0.487065
853.281066	0.487828
853.467841	0.487843
853.654598	0.488500
853.841336	0.488770
854.028056	0.488872
854.214758	0.489295
854.401442	0.489561
854.588107	0.490427
854.774755	0.491066
854.961384	0.491340
855.147995	0.492017
855.334587	0.492427
855.521162	0.493119
855.707718	0.493843
855.894256	0.494484
856.080775	0.495052
856.267277	0.495502
856.453760	0.495843
856.640225	0.495893
856.826672	0.496912
857.013101	0.497505
857.199511	0.497947
857.385903	0.498884
857.572277	0.499457
857.758633	0.500136
857.944970	0.500533
858.131290	0.501481
858.317591	0.502852
858.503873	0.503077
858.690138	0.503215
858.876384	0.504030
859.062612	0.504649
859.248822	0.505113
859.435014	0.505621
859.621188	0.506377
859.807343	0.506719
859.993480	0.506677
860.179599	0.507220
860.365699	0.508181
860.551781	0.508513
860.737846	0.508916
860.923891	0.509452
861.109919	0.510082
861.295929	0.510109
861.481920	0.510449
861.667893	0.511324
861.853848	0.511661
862.039784	0.511999
862.225702	0.512283
862.411603	0.512512
862.597484	0.512850
862.783348	0.513515
862.969193	0.514368
863.155021	0.514675
863.340830	0.514853
863.526620	0.515192
863.712393	0.515644
863.898147	0.515630
864.083883	0.516213
864.269601	0.516627
864.455301	0.516637
864.640982	0.517273
864.826645	0.517909
865.012290	0.518717
865.197917	0.519375
865.383526	0.520090
865.569116	0.521097
865.754688	0.521646
865.940242	0.521754
866.125777	0.522284
866.311295	0.522644
866.496794	0.523246
866.682275	0.523336
866.867737	0.523469
867.053182	0.523814
867.238608	0.524294
867.424016	0.524084
867.609406	0.524971
867.794778	0.524947
867.980131	0.525558
868.165466	0.525983
868.350783	0.526340
868.536082	0.527012
868.721362	0.527608
868.906625	0.527906
869.091869	0.528652
869.277094	0.528818
869.462302	0.529776
869.647491	0.529921
869.832662	0.530477
870.017815	0.530757
870.202950	0.531185
870.388066	0.531059
870.573165	0.531139
870.758245	0.531452
870.943306	0.531872
871.128350	0.531692
871.313375	0.531786
871.498382	0.531979
871.683371	0.532235
871.868342	0.533042
872.053294	0.533346
872.238229	0.534083
872.423144	0.534080
872.608042	0.534609
872.792922	0.535188
872.977783	0.535876
873.162626	0.536006
873.347451	0.536787
873.532258	0.536531
873.717046	0.536737
873.901816	0.536713
874.086568	0.536924
874.271302	0.536835
874.456017	0.537324
874.640715	0.538108
874.825394	0.538322
875.010055	0.538481
875.194697	0.538125
875.379322	0.539041
875.563928	0.539245
875.748516	0.539910
875.933085	0.540464
876.117637	0.540693
876.302170	0.540247
876.486685	0.540483
876.671182	0.540494
876.855661	0.541122
877.040121	0.540692
877.224563	0.541160
877.408987	0.541964
877.593393	0.541771
877.777780	0.541975
877.962150	0.541977
878.146501	0.542542
878.330833	0.543295
878.515148	0.543955
878.699444	0.544593
878.883722	0.544533
879.067982	0.544169
879.252224	0.544788
879.436447	0.545158
879.620653	0.545611
879.804840	0.545111
879.989008	0.545023
880.173159	0.544787
880.357291	0.544453
880.541405	0.545174
880.725501	0.545295
880.909579	0.545254
881.093638	0.545069
881.277680	0.545300
881.461703	0.545877
881.645707	0.545700
881.829694	0.545679
882.013662	0.545949
882.197612	0.545334
882.381544	0.545679
882.565458	0.545902
882.749353	0.545913
882.933230	0.545736
883.117089	0.545971
883.300930	0.546442
883.484753	0.546736
883.668557	0.547440
883.852343	0.548545
884.036111	0.548423
884.219861	0.548876
884.403592	0.549441
884.587305	0.549342
884.771000	0.549421
884.954677	0.549532
885.138335	0.549617
885.321976	0.548862
885.505598	0.548404
885.689201	0.548431
885.872787	0.547799
886.056354	0.547641
886.239904	0.547307
886.423434	0.546973
886.606947	0.546909
886.790442	0.547152
886.973918	0.547505
887.157376	0.548319
887.340816	0.548456
887.524237	0.549073
887.707641	0.548966
887.891026	0.549984
888.074393	0.550816
888.257741	0.551040
888.441072	0.551048
888.624384	0.551066
888.807678	0.550534
888.990954	0.550525
889.174211	0.549815
889.357451	0.549976
889.540672	0.549676
889.723875	0.549167
889.907059	0.548803
890.090226	0.548592
890.273374	0.548870
890.456504	0.548930
890.639616	0.548529
890.822709	0.548945
891.005785	0.548259
891.188842	0.547784
891.371881	0.548056
891.554901	0.548116
891.737904	0.547857
891.920888	0.547384
892.103854	0.546899
892.286802	0.546740
892.469731	0.546562
892.652643	0.547296
892.835536	0.547449
893.018410	0.547582
893.201267	0.547994
893.384106	0.548475
893.566926	0.548804
893.749728	0.548702
893.932511	0.548328
894.115277	0.547593
894.298024	0.547474
894.480753	0.547349
894.663464	0.546047
894.846157	0.544963
895.028831	0.544399
895.211487	0.543619
895.394125	0.543782
895.576745	0.543788
895.759346	0.543363
895.941930	0.542451
896.124495	0.541760
896.307041	0.542113
896.489570	0.542163
896.672080	0.542128
896.854573	0.541868
897.037046	0.541079
897.219502	0.540786
897.401940	0.541286
897.584359	0.541246
897.766760	0.541267
897.949143	0.540881
898.131507	0.540553
898.313854	0.539705
898.496182	0.539412
898.678492	0.539210
898.860783	0.539383
899.043057	0.539257
899.225312	0.538722
899.407549	0.538745
899.589768	0.538664
899.771968	0.538293
899.954151	0.538394
900.136315	0.538230
900.318461	0.537961
900.500588	0.536884
900.682698	0.536205
900.864789	0.536036
901.046862	0.535631
901.228917	0.534754
901.410953	0.534590
901.592971	0.533833
901.774972	0.533382
901.956953	0.533441
902.138917	0.533738
902.320862	0.533974
902.502790	0.534231
902.684699	0.534140
902.866589	0.533983
903.048462	0.533527
903.230316	0.534153
903.412152	0.533417
903.593970	0.532379
903.775770	0.531843
903.957551	0.530760
904.139314	0.529626
904.321059	0.528616
904.502786	0.528176
904.684494	0.527951
904.866185	0.526473
905.047857	0.526183
905.229510	0.526003
905.411146	0.525514
905.592763	0.525330
905.774363	0.525169
905.955943	0.524989
906.137506	0.524366
906.319051	0.523780
906.500577	0.523617
906.682085	0.523710
906.863575	0.523006
907.045046	0.522665
907.226500	0.522023
907.407935	0.521288
907.589352	0.521093
907.770750	0.521076
907.952131	0.520601
908.133493	0.520207
908.314837	0.519563
908.496163	0.519442
908.677470	0.518694
908.858760	0.518423
909.040031	0.518179
909.221284	0.517573
909.402518	0.516778
909.583735	0.516448
909.764933	0.515623
909.946113	0.514761
910.127275	0.513806
910.308418	0.513433
910.489544	0.512678
910.670651	0.511851
910.851740	0.511041
911.032810	0.509809
911.213863	0.508737
911.394897	0.508362
911.575913	0.508015
911.756911	0.507524
911.937890	0.506957
912.118851	0.506189
912.299794	0.505588
912.480719	0.504935
912.661626	0.505516
912.842514	0.504483
913.023384	0.502848
913.204236	0.501808
913.385070	0.501082
913.565886	0.499800
913.746683	0.499267
913.927462	0.498109
914.108223	0.497264
914.288965	0.495549
914.469690	0.495341
914.650396	0.495275
914.831084	0.494806
915.011754	0.493453
915.192405	0.493112
915.373038	0.492197
915.553653	0.491832
915.734250	0.490912
915.914829	0.490183
916.095389	0.489005
916.275931	0.487934
916.456455	0.487216
916.636961	0.487318
916.817448	0.486411
916.997917	0.486128
917.178368	0.484461
917.358801	0.483587
917.539216	0.483458
917.719612	0.482896
917.899990	0.482829
918.080350	0.482092
918.260692	0.479938
918.441015	0.479266
918.621320	0.477728
918.801607	0.477054
918.981876	0.475814
919.162127	0.473876
919.342359	0.472710
919.522573	0.471411
919.702769	0.470969
919.882947	0.470678
920.063106	0.469657
920.243247	0.468852
920.423370	0.468187
920.603475	0.468272
920.783562	0.467700
920.963630	0.467333
921.143680	0.466796
921.323712	0.464693
921.503725	0.464502
921.683721	0.463131
921.863698	0.461548
922.043657	0.460412
922.223598	0.459151
922.403520	0.457687
922.583424	0.456819
922.763311	0.455195
922.943178	0.454957
923.123028	0.453326
923.302859	0.453169
923.482673	0.453319
923.662467	0.452929
923.842244	0.451241
924.022003	0.451519
924.201743	0.449629
924.381465	0.448530
924.561169	0.446665
924.740854	0.445844
924.920522	0.444722
925.100171	0.443319
925.279802	0.442043
925.459414	0.440823
925.639009	0.438990
925.818585	0.438196
925.998143	0.437915
926.177683	0.437622
926.357205	0.437670
926.536708	0.435997
926.716193	0.434595
926.895660	0.433867
927.075109	0.433016
927.254539	0.432280
927.433951	0.431515
927.613345	0.430364
927.792721	0.429638
927.972079	0.427758
928.151418	0.427507
928.330739	0.427528
928.510042	0.426627
928.689327	0.425864
928.868593	0.424336
929.047841	0.423300
929.227071	0.421444
929.406283	0.419320
929.585476	0.417978
929.764652	0.416293
929.943809	0.414105
930.122948	0.412403
930.302068	0.412002
930.481171	0.411016
930.660255	0.408851
930.839321	0.407289
931.018369	0.406232
931.197398	0.405834
931.376409	0.405192
931.555402	0.404541
931.734377	0.404040
931.913334	0.402754
932.092272	0.401671
932.271192	0.401936
932.450094	0.401510
932.628978	0.400295
932.807844	0.397458
932.986691	0.395271
933.165520	0.393311
933.344331	0.392170
933.523123	0.390228
933.701898	0.388555
933.880654	0.387616
934.059392	0.386881
934.238111	0.387009
934.416813	0.386461
934.595496	0.385330
934.774161	0.385290
934.952808	0.383442
935.131437	0.382339
935.310047	0.381641
935.488639	0.379665
935.667213	0.377461
935.845769	0.375071
936.024306	0.373824
936.202825	0.372134
936.381326	0.370133
936.559809	0.368323
936.738274	0.366719
936.916720	0.365649
937.095148	0.363213
937.273558	0.362946
937.451950	0.362425
937.630323	0.361351
937.808678	0.360744
937.987015	0.358610
938.165334	0.358036
938.343635	0.356954
938.521917	0.355188
938.700181	0.354262
938.878427	0.353218
939.056655	0.351102
939.234864	0.349272
939.413055	0.347823
939.591228	0.347869
939.769383	0.346083
939.947519	0.344731
940.125638	0.343504
940.303738	0.343108
940.481820	0.341603
940.659883	0.341645
940.837929	0.341018
941.015956	0.340371
941.193965	0.337382
941.371955	0.336107
941.549928	0.335746
941.727882	0.333646
941.905818	0.332520
942.083736	0.329554
942.261636	0.327176
942.439517	0.324929
942.617380	0.324786
942.795225	0.325544
942.973052	0.323503
943.150860	0.321157
943.328651	0.321047
943.506423	0.318941
943.684176	0.318033
943.861912	0.316397
944.039629	0.315815
944.217328	0.313577
944.395009	0.311718
944.572672	0.310416
944.750317	0.308935
944.927943	0.306642
945.105551	0.304673
945.283141	0.303217
945.460712	0.301170
945.638265	0.298927
945.815801	0.296010
945.993317	0.291642
946.170816	0.290963
946.348297	0.288784
946.525759	0.286540
946.703203	0.284573
946.880629	0.283177
947.058036	0.281457
947.235425	0.280043
947.412797	0.279253
947.590149	0.279615
947.767484	0.277204
947.944800	0.277947
948.122099	0.276240
948.299379	0.275387
948.476640	0.275151
948.653884	0.273410
948.831109	0.271836
949.008316	0.270145
949.185505	0.269316
949.362676	0.267600
949.539828	0.265573
949.716962	0.264989
949.894078	0.264239
950.071176	0.260793
950.248256	0.261385
950.425317	0.259930
950.602360	0.258006
950.779385	0.255159
950.956391	0.255959
951.133380	0.254484
951.310350	0.254022
951.487302	0.253410
951.664235	0.255561
951.841151	0.254821
952.018048	0.253443
952.194927	0.252162
952.371788	0.251613
952.548631	0.249003
952.725455	0.247682
952.902261	0.246359
953.079049	0.243679
953.255819	0.240264
953.432570	0.237071
953.609303	0.235758
953.786018	0.234905
953.962715	0.232290
954.139394	0.230632
954.316054	0.227178
954.492696	0.226333
954.669320	0.225685
954.845926	0.222658
955.022513	0.221868
955.199083	0.221001
955.375634	0.221357
955.552166	0.220460
955.728681	0.219657
955.905177	0.218992
956.081655	0.216471
956.258115	0.216490
956.434557	0.216072
956.610980	0.212862
956.787385	0.211382
956.963772	0.207553
957.140141	0.208826
957.316492	0.208762
957.492824	0.206871
957.669138	0.207275
957.845434	0.206156
958.021712	0.205988
958.197971	0.207604
958.374212	0.207510
958.550435	0.207552
958.726640	0.206123
958.902826	0.205327
959.078995	0.206120
959.255145	0.203988
959.431277	0.201598
959.607390	0.200752
959.783486	0.198020
959.959563	0.195943
960.135622	0.196030
960.311662	0.195138
960.487685	0.191172
960.663689	0.190407
960.839675	0.188062
961.015643	0.187840
961.191593	0.187941
961.367524	0.189210
961.543437	0.189007
961.719332	0.186783
961.895209	0.186497
962.071067	0.188023
962.246907	0.188133
962.422730	0.190408
962.598533	0.189949
962.774319	0.188570
962.950086	0.188130
963.125835	0.189735
963.301566	0.190965
963.477279	0.191363
963.652973	0.191729
963.828650	0.190251
964.004308	0.187790
964.179947	0.187842
964.355569	0.187534
964.531172	0.186574
964.706757	0.185329
964.882324	0.182261
965.057873	0.181611
965.233403	0.180784
965.408916	0.179679
965.584410	0.180974
965.759885	0.178251
965.935343	0.176500
966.110782	0.174169
966.286203	0.173859
966.461606	0.174718
966.636991	0.172288
966.812357	0.174846
966.987705	0.175298
967.163035	0.174283
967.338347	0.177222
967.513641	0.177311
967.688916	0.177531
967.864173	0.174832
968.039412	0.175433
968.214632	0.175462
968.389835	0.173195
968.565019	0.174038
968.740185	0.173447
968.915333	0.171477
969.090462	0.171165
969.265573	0.171302
969.440667	0.174336
969.615741	0.174941
969.790798	0.177735
969.965836	0.178957
970.140856	0.177619
970.315858	0.178773
970.490842	0.176214
970.665808	0.175876
970.840755	0.177513
971.015684	0.176821
971.190595	0.175657
971.365487	0.173949
971.540362	0.172455
971.715218	0.174263
971.890056	0.174159
972.064875	0.175341
972.239677	0.177153
972.414460	0.176815
972.589225	0.176148
972.763972	0.177082
972.938700	0.176988
973.113411	0.176258
973.288103	0.174985
973.462777	0.175935
973.637432	0.178865
973.812070	0.178354
973.986689	0.178630
974.161290	0.179840
974.335873	0.178336
974.510437	0.177220
974.684984	0.177264
974.859512	0.175842
975.034022	0.176126
975.208513	0.174466
975.382987	0.174509
975.557442	0.174704
975.731879	0.171077
975.906298	0.170245
976.080698	0.171102
976.255080	0.168604
976.429445	0.171314
976.603790	0.168205
976.778118	0.166947
976.952427	0.167444
977.126719	0.165972
977.300992	0.167875
977.475246	0.168870
977.649483	0.168979
977.823701	0.172184
977.997901	0.170114
978.172083	0.170127
978.346247	0.168939
978.520392	0.169595
978.694519	0.170061
978.868628	0.171218
979.042719	0.170976
979.216791	0.170041
979.390845	0.168842
979.564882	0.169190
979.738899	0.170882
979.912899	0.173036
980.086880	0.172242
980.260843	0.171780
980.434788	0.172305
980.608715	0.173943
980.782623	0.175622
980.956514	0.175781
981.130386	0.176451
981.304240	0.177408
981.478075	0.176924
981.651892	0.177239
981.825692	0.178242
981.999472	0.175892
982.173235	0.174313
982.346980	0.173603
982.520706	0.175979
982.694414	0.175503
982.868104	0.173928
983.041775	0.176187
983.215428	0.176452
983.389064	0.174536
983.562680	0.175648
983.736279	0.177828
983.909860	0.177670
984.083422	0.177182
984.256966	0.179194
984.430491	0.182293
984.603999	0.180274
984.777488	0.177496
984.950959	0.177671
985.124412	0.178354
985.297847	0.177631
985.471263	0.179349
985.644661	0.176675
985.818041	0.173975
985.991403	0.172308
986.164747	0.172813
986.338072	0.174967
986.511379	0.176737
986.684668	0.175669
986.857938	0.173478
987.031191	0.171696
987.204425	0.172079
987.377641	0.173891
987.550839	0.173272
987.724018	0.173778
987.897179	0.173493
988.070322	0.173978
988.243447	0.176066
988.416554	0.177478
988.589642	0.179119
988.762712	0.180769
988.935764	0.179156
989.108798	0.178555
989.281813	0.177731
989.454811	0.178491
989.627790	0.176348
989.800751	0.173810
989.973693	0.176247
990.146617	0.176395
990.319524	0.175221
990.492412	0.174811
990.665281	0.174346
990.838133	0.176353
991.010966	0.175206
991.183781	0.174717
991.356578	0.176871
991.529356	0.173768
991.702117	0.174061
991.874859	0.174018
992.047583	0.175997
992.220288	0.176694
992.392976	0.174364
992.565645	0.175696
992.738296	0.178368
992.910929	0.177250
993.083543	0.176889
993.256139	0.176602
993.428718	0.176463
993.601277	0.175246
993.773819	0.174950
993.946342	0.175989
994.118848	0.174447
994.291335	0.173929
994.463803	0.174006
994.636254	0.173185
994.808686	0.173083
994.981100	0.174159
995.153496	0.174017
995.325874	0.175274
995.498233	0.174801
995.670574	0.174929
995.842897	0.173806
996.015202	0.174825
996.187488	0.177352
996.359757	0.176530
996.532007	0.176525
996.704239	0.177308
996.876452	0.176127
997.048648	0.176160
997.220825	0.176531
997.392984	0.178239
997.565124	0.178267
997.737247	0.177839
997.909351	0.177684
998.081437	0.177636
998.253505	0.176864
998.425554	0.177778
998.597586	0.178040
998.769599	0.178400
998.941594	0.177279
999.113571	0.176605
999.285529	0.177127
999.457469	0.178792
999.629391	0.176399
999.801295	0.175862
999.973181	0.174730
1000.145048	0.174564
1000.316897	0.174255
1000.488728	0.175329
1000.660541	0.173369
1000.832335	0.175050
1001.004111	0.171776
1001.175869	0.172695
1001.347609	0.173887
1001.519331	0.175347
1001.691034	0.176734
1001.862719	0.176147
1002.034386	0.174381
1002.206035	0.177804
1002.377665	0.175002
1002.549277	0.176489
1002.720871	0.177521
1002.892447	0.176802
1003.064004	0.174066
1003.235544	0.172809
1003.407065	0.175010
1003.578568	0.175649
1003.750052	0.174079
1003.921519	0.174576
1004.092967	0.175368
1004.264397	0.175445
1004.435809	0.176326
1004.607202	0.179609
1004.778577	0.179410
1004.949934	0.178316
1005.121273	0.177943
1005.292594	0.179344
1005.463896	0.181435
1005.635180	0.182241
1005.806446	0.182290
1005.977694	0.180511
1006.148923	0.180656
1006.320135	0.178927
1006.491328	0.179427
1006.662503	0.180574
1006.833659	0.179894
1007.004798	0.177434
1007.175918	0.176169
1007.347020	0.175461
1007.518103	0.177174
1007.689169	0.175594
1007.860216	0.177335
1008.031245	0.177321
1008.202256	0.176240
1008.373248	0.175425
1008.544223	0.175934
1008.715179	0.175503
1008.886117	0.174494
1009.057036	0.173678
1009.227938	0.174390
1009.398821	0.174864
1009.569686	0.174646
1009.740533	0.174506
1009.911361	0.175029
1010.082172	0.176404
1010.252964	0.178891
1010.423738	0.181283
1010.594493	0.182877
1010.765231	0.182091
1010.935950	0.183288
1011.106651	0.183330
1011.277334	0.183333
1011.447998	0.181349
1011.618645	0.179203
1011.789273	0.176942
1011.959882	0.176424
1012.130474	0.174514
1012.301048	0.175519
1012.471603	0.173328
1012.642140	0.172243
1012.812658	0.172240
1012.983159	0.173961
1013.153641	0.176475
1013.324105	0.177011
1013.494551	0.176534
1013.664979	0.176480
1013.835388	0.176016
1014.005779	0.176836
1014.176152	0.179503
1014.346507	0.181173
1014.516843	0.181498
1014.687162	0.178775
1014.857462	0.178870
1015.027744	0.179241
1015.198007	0.179270
1015.368252	0.178105
1015.538480	0.178247
1015.708689	0.174933
1015.878879	0.173850
1016.049052	0.172438
1016.219206	0.173560
1016.389342	0.172925
1016.559460	0.172366
1016.729559	0.172553
1016.899641	0.173950
1017.069704	0.173658
1017.239749	0.175848
1017.409775	0.176400
1017.579784	0.176457
1017.749774	0.177607
1017.919746	0.177521
1018.089700	0.176838
1018.259635	0.178171
1018.429553	0.176724
1018.599452	0.177384
1018.769333	0.176919
1018.939195	0.175383
1019.109040	0.175536
1019.278866	0.175920
1019.448674	0.174955
1019.618464	0.175801
1019.788235	0.173529
1019.957989	0.174375
1020.127724	0.175722
1020.297441	0.173623
1020.467139	0.174748
1020.636820	0.175089
1020.806482	0.175017
1020.976126	0.175756
1021.145752	0.176286
1021.315359	0.175480
1021.484948	0.175781
1021.654519	0.173493
1021.824072	0.176936
1021.993607	0.177541
1022.163123	0.177310
1022.332621	0.175722
1022.502101	0.173043
1022.671563	0.172812
1022.841007	0.175766
1023.010432	0.176386
1023.179839	0.176374
1023.349228	0.173504
1023.518598	0.172440
1023.687951	0.173987
1023.857285	0.173712
1024.026601	0.176224
1024.195899	0.174896
1024.365178	0.174038
1024.534439	0.174004
1024.703682	0.174431
1024.872907	0.174405
1025.042114	0.173884
1025.211302	0.173125
1025.380472	0.173704
1025.549624	0.173934
1025.718758	0.175671
1025.887873	0.176455
1026.056970	0.176521
1026.226049	0.175153
1026.395110	0.177449
1026.564153	0.178651
1026.733177	0.180571
1026.902183	0.180056
1027.071171	0.179858
1027.240141	0.178344
1027.409092	0.176703
1027.578026	0.175982
1027.746940	0.177145
1027.915837	0.176347
1028.084716	0.176106
1028.253576	0.174271
1028.422418	0.174778
1028.591242	0.172859
1028.760048	0.175172
1028.928835	0.175630
1029.097604	0.178275
1029.266355	0.179548
1029.435088	0.179681
1029.603803	0.178568
1029.772499	0.180726
1029.941177	0.179924
1030.109837	0.182425
1030.278478	0.179972
1030.447102	0.180593
1030.615707	0.178108
1030.784294	0.177708
1030.952863	0.177870
1031.121413	0.177496
1031.289945	0.174856
1031.458460	0.176736
1031.626955	0.176247
1031.795433	0.178716
1031.963892	0.178313
1032.132334	0.176950
1032.300756	0.173700
1032.469161	0.172807
1032.637548	0.173216
1032.805916	0.171524
1032.974266	0.171647
1033.142598	0.174019
1033.310911	0.173644
1033.479207	0.173651
1033.647484	0.174747
1033.815743	0.177983
1033.983983	0.177064
1034.152206	0.177200
1034.320410	0.178379
1034.488596	0.178364
1034.656764	0.175318
1034.824914	0.173377
1034.993045	0.173137
1035.161158	0.174208
1035.329253	0.173265
1035.497330	0.172782
1035.665388	0.174066
1035.833428	0.174181
1036.001450	0.172515
1036.169454	0.174971
1036.337440	0.174595
1036.505407	0.174363
1036.673356	0.172890
1036.841287	0.172981
1037.009200	0.175002
1037.177094	0.173500
1037.344970	0.173732
1037.512828	0.172974
1037.680668	0.171436
1037.848489	0.173799
1038.016293	0.173129
1038.184078	0.174703
1038.351845	0.175375
1038.519593	0.173612
1038.687324	0.173272
1038.855036	0.172682
1039.022730	0.173499
1039.190406	0.173248
1039.358063	0.172983
1039.525702	0.173156
1039.693323	0.170585
1039.860926	0.169104
1040.028511	0.169756
1040.196077	0.170693
1040.363625	0.170983
1040.531155	0.171195
1040.698667	0.171425
1040.866161	0.171092
1041.033636	0.171761
1041.201093	0.171837
1041.368532	0.174029
1041.535952	0.174594
1041.703355	0.173493
1041.870739	0.174680
1042.038105	0.174071
1042.205452	0.172326
1042.372782	0.171971
1042.540093	0.173682
1042.707386	0.174657
1042.874661	0.173031
1043.041918	0.171874
1043.209156	0.173776
1043.376376	0.173013
1043.543578	0.173202
1043.710762	0.176164
1043.877927	0.175410
1044.045074	0.172358
1044.212203	0.171900
1044.379314	0.172806
1044.546407	0.173667
1044.713481	0.174081
1044.880537	0.174111
1045.047575	0.172805
1045.214595	0.171251
1045.381596	0.171355
1045.548579	0.173232
1045.715544	0.174030
1045.882491	0.173459
1046.049420	0.174038
1046.216330	0.174007
1046.383222	0.172490
1046.550096	0.172955
1046.716951	0.173475
1046.883789	0.175012
1047.050608	0.175297
1047.217409	0.176941
1047.384192	0.175240
1047.550956	0.175626
1047.717703	0.173612
1047.884431	0.175865
1048.051140	0.176984
1048.217832	0.175432
1048.384505	0.173658
1048.551161	0.172436
1048.717798	0.170163
1048.884416	0.174060
1049.051017	0.174292
1049.217599	0.177080
1049.384163	0.174345
1049.550709	0.174803
1049.717237	0.178194
1049.883746	0.178578
1050.050237	0.178454
1050.216710	0.179384
1050.383165	0.176670
1050.549601	0.176987
1050.716019	0.173953
1050.882420	0.175273
1051.048801	0.173684
1051.215165	0.171744
1051.381510	0.170573
1051.547837	0.171604
1051.714146	0.170924
1051.880437	0.170810
1052.046709	0.169042
1052.212964	0.171418
1052.379200	0.171462
1052.545417	0.172718
1052.711617	0.171805
1052.877798	0.174018
1053.043961	0.173446
1053.210106	0.172237
1053.376233	0.172354
1053.542341	0.174363
1053.708432	0.173397
1053.874504	0.175302
1054.040557	0.173664
1054.206593	0.175330
1054.372610	0.174646
1054.538609	0.174155
1054.704590	0.176357
1054.870553	0.176594
1055.036497	0.175228
1055.202424	0.174475
1055.368331	0.173238
1055.534221	0.172840
1055.700093	0.170765
1055.865946	0.171062
1056.031781	0.172954
1056.197598	0.171824
1056.363397	0.171872
1056.529177	0.171283
1056.694939	0.171528
1056.860683	0.172130
1057.026409	0.173285
1057.192116	0.174441
1057.357806	0.173707
1057.523477	0.170451
1057.689130	0.170308
1057.854764	0.168743
1058.020381	0.167535
1058.185979	0.170670
1058.351559	0.171451
1058.517120	0.171793
1058.682664	0.170607
1058.848189	0.171762
1059.013696	0.176043
1059.179185	0.175761
1059.344656	0.178673
1059.510108	0.181188
1059.675542	0.178811
1059.840958	0.176758
1060.006356	0.177506
1060.171735	0.179838
1060.337096	0.178670
1060.502439	0.178985
1060.667764	0.177988
1060.833071	0.178295
1060.998359	0.178666
1061.163629	0.180235
1061.328881	0.181561
1061.494115	0.180904
1061.659330	0.181212
1061.824527	0.182659
1061.989706	0.180401
1062.154867	0.180823
1062.320010	0.179903
1062.485134	0.179481
1062.650240	0.177124
1062.815328	0.174646
1062.980398	0.174398
1063.145449	0.173060
1063.310482	0.172096
1063.475497	0.172621
1063.640494	0.175195
1063.805473	0.175715
1063.970433	0.175816
1064.135375	0.176333
1064.300299	0.176394
1064.465204	0.177894
1064.630092	0.178182
1064.794961	0.180761
1064.959812	0.180552
1065.124645	0.179990
1065.289459	0.179464
1065.454256	0.179136
1065.619034	0.180323
1065.783793	0.182802
1065.948535	0.181762
1066.113258	0.180444
1066.277964	0.178776
1066.442651	0.180438
1066.607319	0.179760
1066.771970	0.180586
1066.936602	0.180743
1067.101216	0.180658
1067.265812	0.178980
1067.430389	0.179965
1067.594949	0.182533
1067.759490	0.181050
1067.924013	0.177783
1068.088518	0.177628
1068.253004	0.175861
1068.417472	0.174332
1068.581922	0.176423
1068.746354	0.175642
1068.910768	0.176116
1069.075163	0.174910
1069.239540	0.175881
1069.403899	0.176171
1069.568240	0.176908
1069.732562	0.177765
1069.896866	0.177500
1070.061152	0.176884
1070.225420	0.178166
1070.389670	0.177279
1070.553901	0.177121
1070.718114	0.176992
1070.882309	0.175900
1071.046486	0.176743
1071.210644	0.177111
1071.374784	0.180451
1071.538906	0.178138
1071.703010	0.179245
1071.867096	0.178269
1072.031163	0.179962
1072.195212	0.179415
1072.359243	0.180752
1072.523256	0.179753
1072.687250	0.180566
1072.851226	0.179916
1073.015184	0.180760
1073.179124	0.182154
1073.343045	0.183414
1073.506949	0.182430
1073.670834	0.184685
1073.834701	0.187995
1073.998549	0.188805
1074.162380	0.187110
1074.326192	0.186155
1074.489986	0.185487
1074.653761	0.181916
1074.817519	0.182609
1074.981258	0.182963
1075.144979	0.182916
1075.308682	0.181853
1075.472367	0.182168
1075.636033	0.183379
1075.799681	0.182706
1075.963311	0.182677
1076.126923	0.185754
1076.290516	0.184582
1076.454092	0.186536
1076.617649	0.184632
1076.781187	0.184118
1076.944708	0.183160
1077.108210	0.181348
1077.271695	0.182747
1077.435160	0.180403
1077.598608	0.180675
1077.762038	0.181118
1077.925449	0.182824
1078.088842	0.181889
1078.252217	0.180603
1078.415573	0.181530
1078.578912	0.184365
1078.742232	0.184200
1078.905534	0.188097
1079.068817	0.187004
1079.232083	0.188818
1079.395330	0.184693
1079.558559	0.187883
1079.721770	0.189755
1079.884962	0.189985
1080.048136	0.189700
1080.211293	0.192411
1080.374430	0.192426
1080.537550	0.192817
1080.700651	0.191888
1080.863735	0.190643
1081.026800	0.187892
1081.189846	0.187851
1081.352875	0.185257
1081.515885	0.184174
1081.678877	0.181689
1081.841851	0.181588
1082.004807	0.178978
1082.167744	0.179110
1082.330663	0.182499
1082.493564	0.186821
1082.656447	0.186033
1082.819312	0.187341
1082.982158	0.187143
1083.144986	0.186365
1083.307796	0.183842
1083.470587	0.187856
1083.633361	0.187234
1083.796116	0.184994
1083.958853	0.182758
1084.121571	0.184738
1084.284272	0.185127
1084.446954	0.185052
1084.609618	0.185974
1084.772264	0.186545
1084.934892	0.185196
1085.097501	0.185735
1085.260092	0.186556
1085.422665	0.184679
1085.585220	0.182165
1085.747756	0.181991
1085.910274	0.186302
1086.072774	0.183874
1086.235256	0.184810
1086.397720	0.186112
1086.560165	0.185635
1086.722592	0.185143
1086.885001	0.186475
1087.047392	0.186406
1087.209764	0.185717
1087.372119	0.184210
1087.534455	0.187701
1087.696772	0.187128
1087.859072	0.186299
1088.021353	0.185799
1088.183616	0.183267
1088.345861	0.181903
1088.508088	0.182854
1088.670296	0.185200
1088.832486	0.184269
1088.994658	0.184374
1089.156812	0.186891
1089.318948	0.187127
1089.481065	0.186919
1089.643164	0.190773
1089.805245	0.191445
1089.967308	0.192407
1090.129352	0.194027
1090.291378	0.190870
1090.453386	0.191766
1090.615376	0.190433
1090.777347	0.190361
1090.939301	0.189691
1091.101236	0.189980
1091.263153	0.191809
1091.425051	0.190561
1091.586932	0.191000
1091.748794	0.191539
1091.910638	0.188698
1092.072463	0.187640
1092.234271	0.188158
1092.396060	0.189790
1092.557831	0.187867
1092.719584	0.186346
1092.881319	0.184289
1093.043035	0.179395
1093.204733	0.181124
1093.366413	0.180349
1093.528075	0.181585
1093.689718	0.177891
1093.851343	0.175608
1094.012950	0.174734
1094.174539	0.172580
1094.336110	0.177301
1094.497662	0.178515
1094.659196	0.177751
1094.820712	0.179440
1094.982210	0.179654
1095.143689	0.180720
1095.305151	0.181727
1095.466594	0.183655
1095.628018	0.187786
1095.789425	0.184742
1095.950813	0.187315
1096.112183	0.187028
1096.273535	0.185037
1096.434869	0.184824
1096.596184	0.189495
1096.757482	0.192504
1096.918761	0.190015
1097.080021	0.193623
1097.241264	0.198067
1097.402488	0.196294
1097.563694	0.197971
1097.724882	0.201207
1097.886052	0.201373
1098.047203	0.199264
1098.208336	0.196711
1098.369451	0.199604
1098.530548	0.195435
1098.691627	0.192893
1098.852687	0.192194
1099.013729	0.189821
1099.174753	0.187987
1099.335758	0.184198
1099.496746	0.183114
1099.657715	0.181592
1099.818666	0.178587
1099.979599	0.178895
1100.140513	0.178436
1100.301409	0.179310
1100.462287	0.179467
1100.623147	0.184135
1100.783989	0.187409
1100.944812	0.186954
1101.105617	0.188247
1101.266404	0.187588
1101.427173	0.185506
1101.587923	0.182788
1101.748656	0.186477
1101.909370	0.190071
1102.070066	0.189134
1102.230743	0.186139
1102.391403	0.188415
1102.552044	0.191665
1102.712667	0.191940
1102.873271	0.192070
1103.033858	0.193774
1103.194426	0.190077
1103.354976	0.190075
1103.515508	0.186175
1103.676021	0.189595
1103.836517	0.188548
1103.996994	0.183995
1104.157453	0.185959
1104.317893	0.186262
1104.478316	0.189872
1104.638720	0.190062
1104.799106	0.186585
1104.959474	0.185284
1105.119823	0.187039
1105.280155	0.185452
1105.440468	0.189312
1105.600763	0.192303
1105.761039	0.190188
1105.921298	0.189841
1106.081538	0.189371
1106.241760	0.190726
1106.401964	0.196601
1106.562149	0.192923
1106.722316	0.193753
1106.882465	0.192521
1107.042596	0.190429
1107.202709	0.190576
1107.362803	0.188909
1107.522879	0.189570
1107.682937	0.192750
1107.842977	0.189724
1108.002999	0.191306
1108.163002	0.189596
1108.322987	0.188728
1108.482954	0.188192
1108.642902	0.195228
1108.802833	0.192394
1108.962745	0.190951
1109.122639	0.184537
1109.282515	0.181425
1109.442372	0.179715
1109.602211	0.181215
1109.762032	0.178794
1109.921835	0.182713
1110.081620	0.175844
1110.241386	0.178447
1110.401134	0.180584
1110.560864	0.183212
1110.720576	0.184109
1110.880269	0.184736
1111.039945	0.183533
1111.199602	0.185787
1111.359240	0.180561
1111.518861	0.181134
1111.678463	0.178380
1111.838047	0.172521
1111.997613	0.172330
1112.157161	0.173474
1112.316690	0.180566
1112.476202	0.183550
1112.635695	0.187091
1112.795169	0.184580
1112.954626	0.187114
1113.114064	0.188435
1113.273484	0.193981
1113.432886	0.194913
1113.592270	0.196614
1113.751635	0.183519
1113.910983	0.178601
1114.070312	0.176552
1114.229622	0.177337
1114.388915	0.179079
1114.548189	0.175878
1114.707445	0.173447
1114.866683	0.170222
1115.025903	0.166002
1115.185104	0.175331
1115.344287	0.179696
1115.503452	0.177085
1115.662599	0.182262
1115.821727	0.181236
1115.980838	0.183801
1116.139930	0.184145
1116.299004	0.184260
1116.458059	0.191817
1116.617097	0.188100
1116.776116	0.186530
1116.935117	0.191240
1117.094099	0.188437
1117.253064	0.187804
1117.412010	0.186484
1117.570938	0.186743
1117.729848	0.192506
1117.888740	0.188710
1118.047613	0.191690
1118.206468	0.195098
1118.365305	0.199442
1118.524124	0.201443
1118.682924	0.203147
1118.841707	0.203844
1119.000471	0.203797
1119.159216	0.196626
1119.317944	0.191917
1119.476653	0.188882
1119.635344	0.187766
1119.794017	0.185461
1119.952672	0.185975
1120.111308	0.185703
1120.269927	0.186635
1120.428527	0.190873
1120.587108	0.190857
1120.745672	0.191458
1120.904217	0.190552
1121.062744	0.191011
1121.221253	0.187867
1121.379744	0.187887
1121.538216	0.186009
1121.696671	0.188936
1121.855107	0.187607
1122.013524	0.191565
1122.171924	0.189212
1122.330305	0.188744
1122.488668	0.184810
1122.647013	0.185326
1122.805340	0.182476
1122.963648	0.177941
1123.121938	0.175848
1123.280210	0.173110
1123.438464	0.173537
1123.596700	0.179808
1123.754917	0.182666
1123.913116	0.183368
1124.071297	0.181005
1124.229459	0.181825
1124.387604	0.183332
1124.545730	0.176055
1124.703838	0.177760
1124.861928	0.176323
1125.019999	0.176491
1125.178052	0.173890
1125.336088	0.170064
1125.494104	0.165186
1125.652103	0.164801
1125.810083	0.166229
1125.968045	0.176912
1126.125989	0.172922
1126.283915	0.174181
1126.441823	0.173709
1126.599712	0.176833
1126.757583	0.181326
1126.915436	0.182586
1127.073270	0.186229
1127.231087	0.187909
1127.388885	0.185391
1127.546665	0.186051
1127.704426	0.185205
1127.862170	0.183465
1128.019895	0.184185
1128.177602	0.182837
1128.335291	0.186950
1128.492961	0.187831
1128.650614	0.186932
1128.808248	0.188896
1128.965864	0.186665
1129.123461	0.183021
1129.281041	0.178674
1129.438602	0.176523
1129.596145	0.171190
1129.753670	0.171153
1129.911176	0.173468
1130.068665	0.175707
1130.226135	0.173947
1130.383587	0.173750
1130.541020	0.179444
1130.698436	0.177216
1130.855833	0.182297
1131.013212	0.193328
1131.170573	0.193281
1131.327915	0.192019
1131.485239	0.186920
1131.642545	0.190685
1131.799833	0.192488
1131.957103	0.194284
1132.114354	0.201774
1132.271588	0.189894
1132.428803	0.190232
1132.585999	0.186377
1132.743178	0.179232
1132.900338	0.179308
1133.057480	0.174518
1133.214604	0.176580
1133.371710	0.169117
1133.528797	0.175648
1133.685866	0.181816
1133.842917	0.177542
1133.999950	0.180033
1134.156964	0.183639
1134.313960	0.189283
1134.470938	0.196561
1134.627898	0.196144
1134.784840	0.193288
1134.941763	0.183509
1135.098668	0.183783
1135.255555	0.182998
1135.412424	0.180318
1135.569274	0.180838
1135.726107	0.174941
1135.882921	0.168859
1136.039716	0.167192
1136.196494	0.169672
1136.353253	0.167870
1136.509995	0.172706
1136.666717	0.171362
1136.823422	0.174096
1136.980109	0.171814
1137.136777	0.179715
1137.293427	0.182264
1137.450059	0.188886
1137.606672	0.196508
1137.763267	0.205871
1137.919844	0.202344
1138.076403	0.204469
1138.232944	0.205758
1138.389466	0.209216
1138.545971	0.199857
1138.702457	0.193971
1138.858924	0.189714
1139.015374	0.175655
1139.171805	0.171769
1139.328218	0.166391
1139.484613	0.162059
1139.640990	0.157185
1139.797348	0.151621
1139.953688	0.150826
1140.110010	0.149338
1140.266314	0.149860
1140.422600	0.165900
1140.578867	0.166514
1140.735116	0.173155
1140.891347	0.169365
1141.047559	0.168300
1141.203754	0.163962
1141.359930	0.177429
1141.516088	0.174924
1141.672228	0.168333
1141.828349	0.163595
1141.984452	0.162370
1142.140537	0.165216
1142.296604	0.175589
1142.452653	0.189900
1142.608683	0.191937
1142.764695	0.183144
1142.920689	0.187701
1143.076665	0.193455
1143.232622	0.192525
1143.388562	0.187428
1143.544483	0.181752
1143.700385	0.176826
1143.856270	0.161360
1144.012136	0.161461
1144.167985	0.152118
1144.323814	0.152378
1144.479626	0.149769
1144.635420	0.145422
1144.791195	0.150169
1144.946952	0.149285
1145.102691	0.159821
1145.258411	0.166647
1145.414113	0.172056
1145.569798	0.173581
1145.725463	0.166143
1145.881111	0.172817
1146.036741	0.175828
1146.192352	0.178930
1146.347945	0.175889
1146.503519	0.166968
1146.659076	0.161237
1146.814614	0.165841
1146.970134	0.169400
1147.125636	0.178043
1147.281120	0.165849
1147.436585	0.170321
1147.592032	0.169069
1147.747461	0.163298
1147.902872	0.163384
1148.058265	0.162814
1148.213639	0.155495
1148.368995	0.153536
1148.524333	0.148467
1148.679653	0.149371
1148.834954	0.147796
1148.990237	0.142224
1149.145502	0.155097
1149.300749	0.149729
1149.455977	0.153307
1149.611188	0.149615
1149.766380	0.153674
1149.921553	0.151495
1150.076709	0.156603
1150.231846	0.151502
1150.386966	0.155564
1150.542066	0.148380
1150.697149	0.152379
1150.852214	0.159023
1151.007260	0.162609
1151.162288	0.163823
1151.317298	0.163157
1151.472289	0.164101
1151.627263	0.166199
1151.782218	0.163505
1151.937155	0.165670
1152.092073	0.155430
1152.246974	0.144823
1152.401856	0.147559
1152.556720	0.142785
1152.711566	0.146848
1152.866393	0.145492
1153.021203	0.145255
1153.175994	0.145105
1153.330767	0.142369
1153.485521	0.145998
1153.640258	0.157757
1153.794976	0.151857
1153.949676	0.161115
1154.104358	0.160927
1154.259021	0.164680
1154.413667	0.157253
1154.568294	0.157401
1154.722903	0.155540
1154.877493	0.160245
1155.032066	0.155903
1155.186620	0.150824
1155.341156	0.139437
1155.495674	0.138606
1155.650173	0.131968
1155.804654	0.135837
1155.959118	0.132907
1156.113562	0.130183
1156.267989	0.133842
1156.422397	0.131997
1156.576788	0.138166
1156.731160	0.135035
1156.885513	0.136924
1157.039849	0.139439
1157.194166	0.137356
1157.348465	0.137269
1157.502746	0.144404
1157.657009	0.145091
1157.811253	0.145631
1157.965479	0.147663
1158.119687	0.162994
1158.273877	0.162334
1158.428048	0.167013
1158.582201	0.169645
1158.736337	0.164224
1158.890453	0.157424
1159.044552	0.150947
1159.198632	0.152237
1159.352694	0.146504
1159.506738	0.144255
1159.660764	0.149106
1159.814771	0.137553
1159.968761	0.139015
1160.122732	0.148546
1160.276685	0.151713
1160.430619	0.151490
1160.584535	0.136251
1160.738434	0.151306
1160.892313	0.147498
1161.046175	0.142774
1161.200019	0.149486
1161.353844	0.146152
1161.507651	0.140491
1161.661440	0.130137
1161.815210	0.132780
1161.968962	0.141292
1162.122697	0.123200
1162.276412	0.125384
1162.430110	0.117546
1162.583789	0.112439
1162.737451	0.121735
1162.891094	0.125693
1163.044718	0.134389
1163.198325	0.131193
1163.351913	0.143643
1163.505483	0.141508
1163.659035	0.139181
1163.812569	0.144524
1163.966084	0.148067
1164.119581	0.149433
1164.273060	0.148334
1164.426521	0.148700
1164.579964	0.140755
1164.733388	0.127679
1164.886794	0.139210
1165.040182	0.147033
1165.193551	0.147571
1165.346903	0.140289
1165.500236	0.116472
1165.653551	0.118160
1165.806848	0.114832
1165.960126	0.123087
1166.113386	0.127360
1166.266628	0.130655
1166.419852	0.115515
1166.573058	0.117625
1166.726245	0.119768
1166.879414	0.125371
1167.032565	0.121842
1167.185698	0.112890
1167.338812	0.113533
1167.491909	0.114652
1167.644987	0.109564
1167.798046	0.111903
1167.951088	0.112283
1168.104111	0.113475
1168.257117	0.129763
1168.410103	0.127240
1168.563072	0.130638
1168.716023	0.126886
1168.868955	0.120666
1169.021869	0.109885
1169.174765	0.106988
1169.327642	0.102274
1169.480501	0.107788
1169.633343	0.096632
1169.786165	0.101931
1169.938970	0.103368
1170.091757	0.102315
1170.244525	0.094101
1170.397275	0.090329
1170.550007	0.099353
1170.702720	0.104350
1170.855415	0.099004
1171.008092	0.097899
1171.160751	0.090362
1171.313392	0.093938
1171.466014	0.089860
1171.618619	0.093053
1171.771205	0.093053
1171.923772	0.093053
