sample name	sample
index	651
start time	 03-19-2021  04:14:19 PM


Wavelength (nm)	Absorbance
494.344910	NaN
494.563924	NaN
494.782919	NaN
495.001897	0.305373
495.220856	NaN
495.439797	NaN
495.658719	NaN
495.877624	NaN
496.096510	NaN
496.315378	NaN
496.534227	NaN
496.753059	1.285175
496.971872	0.437759
497.190667	0.103600
497.409444	0.097321
497.628203	0.095455
497.846943	0.095036
498.065665	0.095888
498.284369	0.097438
498.503055	0.098994
498.721723	0.098574
498.940372	0.099168
499.159003	0.099130
499.377616	0.099582
499.596210	0.100369
499.814787	0.099796
500.033345	0.099612
500.251885	0.098844
500.470406	0.099055
500.688910	0.099086
500.907395	0.098850
501.125862	0.098284
501.344311	0.097974
501.562742	0.097615
501.781154	0.098625
501.999548	0.098644
502.217924	0.097914
502.436282	0.097365
502.654621	0.097878
502.872942	0.096300
503.091245	0.097232
503.309530	0.097314
503.527797	0.097724
503.746045	0.097503
503.964275	0.097764
504.182487	0.099253
504.400681	0.098962
504.618856	0.098660
504.837013	0.099398
505.055152	0.099170
505.273273	0.099628
505.491376	0.099329
505.709460	0.100163
505.927526	0.100337
506.145574	0.100501
506.363604	0.101381
506.581615	0.102129
506.799608	0.101851
507.017583	0.102384
507.235540	0.102889
507.453478	0.102779
507.671399	0.102029
507.889301	0.101349
508.107185	0.100943
508.325050	0.100633
508.542898	0.099795
508.760727	0.100951
508.978538	0.101117
509.196330	0.100797
509.414105	0.101499
509.631861	0.101683
509.849599	0.101612
510.067319	0.101902
510.285021	0.101794
510.502704	0.102983
510.720369	0.102914
510.938016	0.102527
511.155645	0.103191
511.373255	0.102994
511.590848	0.103361
511.808422	0.104360
512.025977	0.104454
512.243515	0.103993
512.461034	0.103279
512.678536	0.103216
512.896018	0.104093
513.113483	0.104023
513.330930	0.103778
513.548358	0.103118
513.765768	0.103114
513.983160	0.102840
514.200533	0.103556
514.417889	0.103961
514.635226	0.103934
514.852545	0.103892
515.069845	0.103533
515.287128	0.103507
515.504392	0.103667
515.721638	0.104049
515.938866	0.104920
516.156075	0.104648
516.373267	0.104602
516.590440	0.104509
516.807594	0.104455
517.024731	0.104859
517.241850	0.105157
517.458950	0.106048
517.676032	0.106608
517.893095	0.105941
518.110141	0.106407
518.327168	0.106541
518.544177	0.106583
518.761168	0.106304
518.978141	0.106272
519.195095	0.106872
519.412031	0.106531
519.628949	0.105727
519.845849	0.106062
520.062731	0.106020
520.279594	0.106283
520.496439	0.107028
520.713266	0.107075
520.930074	0.106795
521.146865	0.106864
521.363637	0.106675
521.580391	0.107005
521.797127	0.107034
522.013844	0.107146
522.230543	0.106662
522.447224	0.106722
522.663887	0.106776
522.880532	0.107124
523.097158	0.107113
523.313766	0.107438
523.530356	0.108182
523.746928	0.108542
523.963481	0.108302
524.180017	0.109173
524.396534	0.109408
524.613032	0.109799
524.829513	0.109962
525.045975	0.109861
525.262420	0.110379
525.478845	0.109520
525.695253	0.109292
525.911643	0.110232
526.128014	0.110275
526.344367	0.109740
526.560702	0.110181
526.777018	0.110546
526.993316	0.111460
527.209597	0.111536
527.425858	0.111955
527.642102	0.112135
527.858328	0.112207
528.074535	0.111884
528.290724	0.112584
528.506894	0.112511
528.723047	0.112934
528.939181	0.112773
529.155297	0.112747
529.371395	0.112788
529.587475	0.113008
529.803536	0.112818
530.019579	0.113120
530.235604	0.113498
530.451611	0.113563
530.667600	0.113616
530.883570	0.113842
531.099522	0.113901
531.315456	0.114256
531.531372	0.114263
531.747269	0.114687
531.963148	0.115345
532.179009	0.115230
532.394852	0.115671
532.610676	0.116007
532.826482	0.116500
533.042271	0.117229
533.258040	0.117073
533.473792	0.117371
533.689525	0.117119
533.905240	0.117074
534.120937	0.117037
534.336616	0.117088
534.552277	0.116953
534.767919	0.116903
534.983543	0.117048
535.199149	0.117694
535.414736	0.118520
535.630306	0.118956
535.845857	0.119099
536.061390	0.119492
536.276904	0.120100
536.492401	0.120823
536.707879	0.120866
536.923339	0.120310
537.138781	0.120363
537.354204	0.120014
537.569610	0.120409
537.784997	0.120769
538.000366	0.121158
538.215716	0.120991
538.431049	0.120203
538.646363	0.120028
538.861659	0.120561
539.076937	0.120377
539.292196	0.120926
539.507438	0.121527
539.722661	0.122106
539.937866	0.122332
540.153052	0.122728
540.368221	0.123328
540.583371	0.123850
540.798503	0.124551
541.013617	0.125208
541.228712	0.124856
541.443789	0.124660
541.658848	0.124684
541.873889	0.124598
542.088912	0.124335
542.303916	0.124217
542.518902	0.124527
542.733870	0.124039
542.948820	0.124056
543.163752	0.124480
543.378665	0.124522
543.593560	0.124303
543.808437	0.124728
544.023295	0.125141
544.238136	0.125671
544.452958	0.125747
544.667762	0.126380
544.882548	0.126541
545.097315	0.126897
545.312064	0.127336
545.526795	0.127413
545.741508	0.127601
545.956203	0.127430
546.170879	0.127755
546.385537	0.127926
546.600177	0.127643
546.814799	0.127763
547.029402	0.127719
547.243988	0.127385
547.458555	0.127437
547.673103	0.127172
547.887634	0.127568
548.102146	0.127343
548.316640	0.127344
548.531116	0.127854
548.745574	0.128047
548.960013	0.128244
549.174435	0.128986
549.388838	0.129341
549.603222	0.129802
549.817589	0.130211
550.031937	0.130840
550.246267	0.130838
550.460579	0.131004
550.674873	0.131062
550.889148	0.131103
551.103405	0.130955
551.317644	0.130704
551.531865	0.130635
551.746068	0.130606
551.960252	0.130394
552.174418	0.131081
552.388566	0.131004
552.602696	0.131600
552.816807	0.131865
553.030900	0.132149
553.244975	0.133061
553.459032	0.133608
553.673070	0.133477
553.887091	0.133603
554.101093	0.133480
554.315077	0.134012
554.529042	0.133931
554.742990	0.133666
554.956919	0.133752
555.170830	0.133425
555.384722	0.133375
555.598597	0.134181
555.812453	0.134213
556.026291	0.134758
556.240111	0.134813
556.453913	0.135358
556.667696	0.135567
556.881461	0.135337
557.095208	0.135577
557.308937	0.135415
557.522647	0.135550
557.736339	0.135847
557.950013	0.135405
558.163669	0.135531
558.377307	0.135331
558.590926	0.135913
558.804527	0.135969
559.018110	0.136182
559.231675	0.136605
559.445221	0.136303
559.658749	0.136425
559.872259	0.136410
560.085751	0.136278
560.299225	0.136111
560.512680	0.136064
560.726117	0.136483
560.939536	0.136775
561.152937	0.136738
561.366319	0.137078
561.579683	0.137222
561.793029	0.137552
562.006357	0.137804
562.219667	0.138199
562.432958	0.138093
562.646231	0.138463
562.859486	0.138350
563.072723	0.138605
563.285941	0.138475
563.499141	0.138505
563.712323	0.138712
563.925487	0.138842
564.138632	0.138757
564.351760	0.139490
564.564869	0.138968
564.777960	0.139091
564.991032	0.139433
565.204087	0.139906
565.417123	0.140084
565.630141	0.140205
565.843140	0.140299
566.056122	0.140282
566.269085	0.140288
566.482030	0.140614
566.694957	0.140491
566.907866	0.140590
567.120756	0.140462
567.333628	0.140502
567.546482	0.140628
567.759318	0.141058
567.972135	0.141502
568.184935	0.141240
568.397716	0.141351
568.610478	0.141746
568.823223	0.141542
569.035949	0.141582
569.248657	0.142055
569.461347	0.142259
569.674019	0.142077
569.886672	0.142282
570.099308	0.142566
570.311925	0.143228
570.524523	0.143517
570.737104	0.143398
570.949666	0.143443
571.162210	0.143463
571.374736	0.143866
571.587244	0.144327
571.799733	0.144313
572.012205	0.144271
572.224658	0.144139
572.437092	0.144214
572.649509	0.144490
572.861907	0.144785
573.074287	0.144736
573.286649	0.144166
573.498993	0.144059
573.711318	0.144470
573.923625	0.144899
574.135914	0.144792
574.348185	0.144953
574.560438	0.145338
574.772672	0.145495
574.984888	0.145904
575.197086	0.146494
575.409266	0.146768
575.621427	0.146613
575.833570	0.146731
576.045695	0.146838
576.257802	0.146984
576.469890	0.147106
576.681961	0.146908
576.894013	0.146851
577.106046	0.146302
577.318062	0.146100
577.530059	0.146259
577.742039	0.146011
577.954000	0.146364
578.165942	0.146267
578.377867	0.146356
578.589773	0.146676
578.801661	0.146601
579.013531	0.147347
579.225382	0.147597
579.437216	0.147649
579.649031	0.147997
579.860828	0.148113
580.072606	0.148220
580.284367	0.148128
580.496109	0.147909
580.707833	0.148263
580.919539	0.148035
581.131227	0.148342
581.342896	0.148304
581.554547	0.148421
581.766180	0.148273
581.977795	0.148425
582.189391	0.148776
582.400969	0.149005
582.612529	0.149053
582.824071	0.149542
583.035595	0.149691
583.247100	0.149675
583.458587	0.149659
583.670056	0.149846
583.881506	0.150055
584.092939	0.150087
584.304353	0.150608
584.515749	0.150816
584.727127	0.150449
584.938486	0.150221
585.149828	0.150500
585.361151	0.150529
585.572456	0.150729
585.783742	0.150932
585.995011	0.151264
586.206261	0.151252
586.417493	0.151437
586.628706	0.151886
586.839902	0.152248
587.051079	0.152573
587.262238	0.152812
587.473379	0.152970
587.684502	0.152897
587.895606	0.152907
588.106692	0.152891
588.317760	0.152998
588.528810	0.153181
588.739841	0.153483
588.950855	0.153345
589.161850	0.153672
589.372827	0.153765
589.583785	0.153727
589.794726	0.153677
590.005648	0.153948
590.216552	0.153667
590.427437	0.153671
590.638305	0.153526
590.849154	0.153688
591.059985	0.153524
591.270798	0.153813
591.481592	0.154331
591.692369	0.154686
591.903127	0.154620
592.113867	0.154840
592.324588	0.155038
592.535292	0.155209
592.745977	0.155646
592.956644	0.155936
593.167293	0.156020
593.377923	0.155769
593.588536	0.155808
593.799130	0.155996
594.009706	0.156032
594.220263	0.156211
594.430803	0.156174
594.641324	0.156191
594.851827	0.156290
595.062312	0.156418
595.272778	0.156740
595.483227	0.157376
595.693657	0.157608
595.904069	0.158142
596.114462	0.158343
596.324838	0.158678
596.535195	0.159037
596.745534	0.158965
596.955855	0.158784
597.166157	0.158995
597.376441	0.158393
597.586707	0.158674
597.796955	0.158597
598.007185	0.158505
598.217396	0.158172
598.427589	0.157922
598.637764	0.158524
598.847921	0.158710
599.058060	0.158466
599.268180	0.158776
599.478282	0.158384
599.688366	0.158589
599.898431	0.158967
600.108479	0.159141
600.318508	0.159389
600.528519	0.158924
600.738511	0.159188
600.948486	0.159631
601.158442	0.159529
601.368380	0.159796
601.578300	0.159987
601.788202	0.159579
601.998085	0.160095
602.207950	0.160022
602.417797	0.160228
602.627626	0.160370
602.837436	0.160290
603.047228	0.160554
603.257002	0.160768
603.466758	0.160635
603.676496	0.160936
603.886215	0.161143
604.095916	0.161127
604.305599	0.161363
604.515264	0.161258
604.724910	0.161490
604.934538	0.161696
605.144148	0.161859
605.353740	0.161940
605.563314	0.162282
605.772869	0.162143
605.982406	0.162529
606.191925	0.162799
606.401425	0.163093
606.610908	0.163243
606.820372	0.163296
607.029818	0.163420
607.239246	0.163466
607.448655	0.163149
607.658047	0.163301
607.867420	0.163254
608.076775	0.163271
608.286111	0.163094
608.495430	0.162695
608.704730	0.162575
608.914012	0.162479
609.123275	0.162607
609.332521	0.162835
609.541748	0.162760
609.750957	0.162955
609.960148	0.163425
610.169321	0.163669
610.378475	0.164320
610.587611	0.164588
610.796729	0.164685
611.005829	0.164759
611.214910	0.164874
611.423974	0.165269
611.633019	0.165296
611.842045	0.165043
612.051054	0.165151
612.260044	0.165100
612.469017	0.165320
612.677970	0.165330
612.886906	0.165424
613.095824	0.165350
613.304723	0.165309
613.513604	0.165339
613.722467	0.165545
613.931311	0.165912
614.140138	0.165904
614.348946	0.165976
614.557736	0.166235
614.766507	0.166539
614.975261	0.167057
615.183996	0.167071
615.392713	0.167281
615.601412	0.167157
615.810092	0.167222
616.018754	0.167512
616.227399	0.167377
616.436024	0.167660
616.644632	0.167581
616.853222	0.167365
617.061793	0.167476
617.270346	0.167493
617.478880	0.167477
617.687397	0.167453
617.895895	0.167310
618.104375	0.167489
618.312837	0.167453
618.521281	0.167818
618.729706	0.168016
618.938113	0.168180
619.146502	0.168194
619.354873	0.168400
619.563226	0.168157
619.771560	0.168503
619.979876	0.168517
620.188174	0.168592
620.396453	0.168312
620.604715	0.168400
620.812958	0.168442
621.021183	0.168621
621.229390	0.168624
621.437578	0.169099
621.645748	0.169029
621.853900	0.169234
622.062034	0.169450
622.270150	0.169802
622.478247	0.169839
622.686326	0.169763
622.894387	0.169892
623.102430	0.170151
623.310454	0.170194
623.518461	0.170429
623.726449	0.170573
623.934418	0.170601
624.142370	0.170785
624.350303	0.170898
624.558218	0.170962
624.766115	0.170866
624.973994	0.170713
625.181855	0.170595
625.389697	0.170851
625.597521	0.170694
625.805327	0.170718
626.013114	0.170639
626.220883	0.170722
626.428634	0.170919
626.636367	0.171410
626.844082	0.171623
627.051778	0.171985
627.259457	0.171970
627.467117	0.172256
627.674758	0.172320
627.882382	0.172457
628.089987	0.172597
628.297574	0.172776
628.505143	0.172628
628.712694	0.173023
628.920226	0.172867
629.127740	0.172568
629.335236	0.172407
629.542714	0.172679
629.750174	0.172961
629.957615	0.173151
630.165038	0.173158
630.372443	0.173142
630.579829	0.172814
630.787198	0.172766
630.994548	0.172986
631.201880	0.173158
631.409194	0.173119
631.616489	0.173021
631.823766	0.172963
632.031025	0.173154
632.238266	0.173318
632.445489	0.173666
632.652693	0.174042
632.859879	0.174288
633.067047	0.174614
633.274197	0.174734
633.481329	0.174872
633.688442	0.174936
633.895537	0.175010
634.102614	0.175250
634.309672	0.175198
634.516713	0.175210
634.723735	0.175135
634.930739	0.175127
635.137724	0.175092
635.344692	0.175267
635.551641	0.175328
635.758572	0.175429
635.965485	0.175352
636.172379	0.175595
636.379256	0.175775
636.586114	0.176034
636.792954	0.176242
636.999775	0.176610
637.206579	0.176629
637.413364	0.176766
637.620131	0.176827
637.826880	0.176924
638.033610	0.177267
638.240323	0.177414
638.447017	0.177339
638.653692	0.177284
638.860350	0.177208
639.066990	0.177337
639.273611	0.177504
639.480214	0.177619
639.686798	0.177739
639.893365	0.177563
640.099913	0.177465
640.306443	0.177647
640.512955	0.177717
640.719449	0.177900
640.925924	0.177851
641.132381	0.178027
641.338820	0.178034
641.545241	0.178311
641.751644	0.178321
641.958028	0.178546
642.164394	0.178659
642.370742	0.179123
642.577071	0.179114
642.783383	0.179457
642.989676	0.179634
643.195951	0.179865
643.402207	0.179992
643.608446	0.180235
643.814666	0.180538
644.020868	0.180692
644.227052	0.180597
644.433218	0.180715
644.639365	0.180696
644.845494	0.180718
645.051605	0.180795
645.257698	0.180663
645.463772	0.180723
645.669828	0.180779
645.875866	0.180989
646.081886	0.181057
646.287888	0.181413
646.493871	0.181570
646.699836	0.181758
646.905783	0.181910
647.111712	0.182095
647.317622	0.182235
647.523514	0.182193
647.729388	0.182223
647.935244	0.182266
648.141082	0.182054
648.346901	0.182112
648.552702	0.182291
648.758485	0.182239
648.964250	0.182334
649.169996	0.182354
649.375724	0.182596
649.581434	0.182736
649.787126	0.182919
649.992800	0.183054
650.198455	0.183201
650.404092	0.183364
650.609711	0.183572
650.815311	0.183603
651.020894	0.183873
651.226458	0.183737
651.432004	0.183837
651.637532	0.183776
651.843041	0.183977
652.048532	0.183776
652.254006	0.183673
652.459460	0.183787
652.664897	0.184115
652.870315	0.184241
653.075716	0.184288
653.281097	0.184486
653.486461	0.184754
653.691807	0.184862
653.897134	0.185183
654.102443	0.185251
654.307734	0.185504
654.513006	0.185493
654.718261	0.185373
654.923497	0.185629
655.128715	0.185474
655.333915	0.185404
655.539096	0.185724
655.744259	0.185747
655.949404	0.185708
656.154531	0.185775
656.359640	0.186017
656.564730	0.186278
656.769802	0.186277
656.974856	0.186485
657.179892	0.186992
657.384909	0.186958
657.589908	0.187259
657.794889	0.187774
657.999852	0.187705
658.204797	0.187649
658.409723	0.187828
658.614631	0.188155
658.819521	0.188403
659.024393	0.188373
659.229246	0.188298
659.434081	0.188357
659.638898	0.188445
659.843697	0.188796
660.048478	0.189113
660.253240	0.189092
660.457984	0.189385
660.662710	0.189474
660.867417	0.189573
661.072107	0.189845
661.276778	0.190048
661.481431	0.189966
661.686066	0.189929
661.890682	0.189998
662.095281	0.190328
662.299861	0.190280
662.504422	0.190266
662.708966	0.190355
662.913491	0.190355
663.117999	0.190199
663.322488	0.190255
663.526958	0.190518
663.731411	0.190579
663.935845	0.190523
664.140261	0.190504
664.344659	0.190643
664.549038	0.190811
664.753400	0.191075
664.957743	0.191384
665.162068	0.191624
665.366375	0.191624
665.570663	0.191683
665.774933	0.191959
665.979185	0.192213
666.183419	0.192235
666.387635	0.192373
666.591832	0.192462
666.796011	0.192717
667.000172	0.192863
667.204315	0.193057
667.408439	0.193282
667.612545	0.193475
667.816634	0.193466
668.020703	0.193822
668.224755	0.193936
668.428788	0.193962
668.632803	0.194035
668.836800	0.193930
669.040779	0.193896
669.244739	0.193981
669.448681	0.193996
669.652605	0.194200
669.856511	0.194463
670.060399	0.194553
670.264268	0.194843
670.468119	0.194821
670.671952	0.195351
670.875767	0.195528
671.079563	0.195754
671.283341	0.195858
671.487101	0.196125
671.690843	0.195976
671.894567	0.196122
672.098272	0.196277
672.301959	0.196509
672.505628	0.196506
672.709278	0.196883
672.912911	0.196973
673.116525	0.197124
673.320121	0.197019
673.523699	0.197448
673.727258	0.197603
673.930799	0.197756
674.134322	0.197944
674.337827	0.197910
674.541314	0.197699
674.744782	0.197666
674.948232	0.197643
675.151664	0.197887
675.355078	0.197807
675.558474	0.197784
675.761851	0.197719
675.965210	0.197642
676.168551	0.197704
676.371873	0.197966
676.575178	0.198267
676.778464	0.198372
676.981732	0.198266
677.184981	0.198072
677.388213	0.198218
677.591426	0.198373
677.794621	0.198589
677.997798	0.198844
678.200956	0.198800
678.404097	0.198743
678.607219	0.199034
678.810323	0.199440
679.013408	0.199819
679.216476	0.200244
679.419525	0.200331
679.622556	0.200371
679.825569	0.200530
680.028563	0.200891
680.231540	0.201241
680.434498	0.201234
680.637438	0.201403
680.840359	0.201530
681.043263	0.201349
681.246148	0.201384
681.449015	0.201430
681.651864	0.201689
681.854694	0.201532
682.057506	0.201617
682.260301	0.201900
682.463076	0.201828
682.665834	0.202062
682.868573	0.202423
683.071295	0.202691
683.273998	0.202927
683.476682	0.203095
683.679349	0.203193
683.881997	0.203321
684.084627	0.203299
684.287239	0.203293
684.489833	0.203373
684.692408	0.203231
684.894965	0.203378
685.097504	0.203704
685.300025	0.203612
685.502527	0.204032
685.705012	0.203969
685.907478	0.203922
686.109925	0.204202
686.312355	0.204212
686.514766	0.204471
686.717159	0.204693
686.919534	0.204677
687.121891	0.204782
687.324230	0.204679
687.526550	0.204767
687.728852	0.205059
687.931136	0.204912
688.133401	0.205128
688.335649	0.205198
688.537878	0.205051
688.740089	0.205138
688.942281	0.205125
689.144456	0.205363
689.346612	0.205494
689.548750	0.205416
689.750870	0.205750
689.952971	0.205646
690.155055	0.205643
690.357120	0.205912
690.559167	0.206094
690.761195	0.206241
690.963206	0.206290
691.165198	0.206207
691.367172	0.206410
691.569128	0.206490
691.771065	0.206835
691.972984	0.207071
692.174885	0.207206
692.376768	0.207082
692.578633	0.207213
692.780479	0.207335
692.982308	0.207670
693.184118	0.207642
693.385909	0.207791
693.587683	0.207715
693.789438	0.207915
693.991175	0.207976
694.192894	0.208140
694.394595	0.208326
694.596277	0.208450
694.797941	0.208577
694.999587	0.208744
695.201215	0.208942
695.402824	0.209137
695.604416	0.209009
695.805989	0.208978
696.007543	0.209186
696.209080	0.209225
696.410598	0.209349
696.612099	0.209414
696.813580	0.209542
697.015044	0.209729
697.216490	0.209863
697.417917	0.210259
697.619326	0.210366
697.820717	0.210359
698.022089	0.210464
698.223444	0.210719
698.424780	0.210826
698.626098	0.211058
698.827397	0.211038
699.028679	0.211083
699.229942	0.210940
699.431187	0.210840
699.632414	0.211123
699.833622	0.211354
700.034813	0.211317
700.235985	0.211530
700.437139	0.211638
700.638274	0.211660
700.839392	0.211921
701.040491	0.212172
701.241572	0.212725
701.442635	0.212660
701.643679	0.212749
701.844706	0.212843
702.045714	0.212591
702.246704	0.212855
702.447675	0.213036
702.648629	0.212774
702.849564	0.212667
703.050481	0.212672
703.251380	0.212918
703.452260	0.212864
703.653122	0.212759
703.853966	0.213030
704.054792	0.212882
704.255600	0.212737
704.456389	0.212800
704.657160	0.212844
704.857913	0.212677
705.058648	0.212718
705.259365	0.212494
705.460063	0.212474
705.660743	0.212694
705.861405	0.212778
706.062048	0.212711
706.262674	0.212877
706.463281	0.212780
706.663870	0.212812
706.864441	0.212436
707.064993	0.212677
707.265527	0.212730
707.466043	0.212448
707.666541	0.212299
707.867021	0.212648
708.067482	0.212688
708.267925	0.212723
708.468350	0.213006
708.668757	0.213000
708.869145	0.213239
709.069516	0.213498
709.269868	0.213577
709.470201	0.213888
709.670517	0.214094
709.870814	0.214100
710.071093	0.214260
710.271354	0.214152
710.471597	0.214545
710.671821	0.214590
710.872028	0.214365
711.072216	0.214471
711.272385	0.214512
711.472537	0.214282
711.672670	0.214227
711.872785	0.214152
712.072882	0.214083
712.272961	0.213802
712.473021	0.213759
712.673063	0.214005
712.873087	0.213955
713.073093	0.213964
713.273081	0.213693
713.473050	0.213768
713.673001	0.213858
713.872934	0.213924
714.072849	0.214278
714.272745	0.214424
714.472623	0.214361
714.672483	0.214622
714.872325	0.214340
715.072148	0.214728
715.271954	0.214852
715.471741	0.214892
715.671509	0.214791
715.871260	0.214646
716.070992	0.214334
716.270707	0.214231
716.470403	0.214189
716.670080	0.214188
716.869740	0.214076
717.069381	0.214165
717.269004	0.214216
717.468609	0.214355
717.668195	0.214542
717.867764	0.214509
718.067314	0.214670
718.266846	0.214454
718.466360	0.214445
718.665855	0.214401
718.865332	0.214191
719.064791	0.213914
719.264232	0.213988
719.463655	0.213581
719.663059	0.213620
719.862445	0.213436
720.061813	0.213525
720.261163	0.213653
720.460494	0.213636
720.659807	0.213526
720.859102	0.213674
721.058379	0.213368
721.257638	0.213387
721.456878	0.213328
721.656100	0.213552
721.855304	0.213320
722.054490	0.213324
722.253657	0.213123
722.452806	0.213179
722.651937	0.213348
722.851050	0.213242
723.050145	0.213259
723.249221	0.213198
723.448279	0.213072
723.647319	0.213375
723.846340	0.213134
724.045344	0.213035
724.244329	0.212920
724.443296	0.212722
724.642245	0.213090
724.841175	0.213171
725.040088	0.213363
725.238982	0.213298
725.437857	0.213199
725.636715	0.213362
725.835554	0.213576
726.034376	0.213529
726.233179	0.213489
726.431963	0.213202
726.630730	0.213322
726.829478	0.213015
727.028208	0.213016
727.226920	0.212912
727.425614	0.212814
727.624289	0.212569
727.822946	0.212478
728.021585	0.212677
728.220206	0.212587
728.418808	0.212452
728.617392	0.212656
728.815958	0.212500
729.014506	0.212363
729.213036	0.212323
729.411547	0.212393
729.610040	0.212597
729.808515	0.212357
730.006972	0.212504
730.205410	0.212636
730.403831	0.212387
730.602233	0.212426
730.800616	0.212364
730.998982	0.212238
731.197329	0.212063
731.395658	0.212169
731.593969	0.212116
731.792262	0.212118
731.990536	0.211765
732.188793	0.211792
732.387031	0.211524
732.585250	0.211504
732.783452	0.211455
732.981635	0.211605
733.179800	0.211220
733.377947	0.211038
733.576076	0.210850
733.774186	0.210578
733.972278	0.210287
734.170352	0.210222
734.368408	0.209932
734.566446	0.209601
734.764465	0.209521
734.962466	0.209432
735.160449	0.209345
735.358413	0.209133
735.556360	0.209112
735.754288	0.209310
735.952198	0.209278
736.150090	0.209249
736.347963	0.209331
736.545818	0.209172
736.743655	0.209047
736.941474	0.208776
737.139275	0.208687
737.337057	0.208864
737.534821	0.208876
737.732567	0.208763
737.930295	0.209035
738.128005	0.208916
738.325696	0.208618
738.523369	0.208804
738.721024	0.208968
738.918660	0.209222
739.116279	0.209171
739.313879	0.208904
739.511461	0.209011
739.709024	0.208752
739.906570	0.209067
740.104097	0.209228
740.301606	0.208876
740.499097	0.208494
740.696569	0.208148
740.894024	0.208034
741.091460	0.207746
741.288878	0.207474
741.486277	0.207231
741.683659	0.206931
741.881022	0.206895
742.078367	0.206769
742.275694	0.206938
742.473002	0.206743
742.670293	0.206826
742.867565	0.206740
743.064819	0.206660
743.262054	0.206757
743.459272	0.206597
743.656471	0.206299
743.853652	0.206319
744.050815	0.206306
744.247959	0.206156
744.445085	0.205825
744.642194	0.206112
744.839283	0.205887
745.036355	0.205646
745.233408	0.205542
745.430444	0.205514
745.627461	0.205319
745.824459	0.204974
746.021440	0.204931
746.218402	0.204664
746.415346	0.204378
746.612272	0.204160
746.809180	0.204044
747.006069	0.203798
747.202940	0.203439
747.399793	0.203185
747.596628	0.203105
747.793444	0.203003
747.990243	0.202817
748.187023	0.202611
748.383784	0.202790
748.580528	0.202660
748.777253	0.202727
748.973960	0.202676
749.170649	0.202820
749.367320	0.202811
749.563973	0.202979
749.760607	0.202967
749.957223	0.202951
750.153821	0.202732
750.350400	0.202605
750.546962	0.202323
750.743505	0.202614
750.940030	0.202500
751.136536	0.202347
751.333025	0.201992
751.529495	0.202085
751.725947	0.201816
751.922381	0.201842
752.118796	0.201826
752.315194	0.201770
752.511573	0.201424
752.707934	0.201250
752.904276	0.201166
753.100601	0.200992
753.296907	0.200660
753.493195	0.200564
753.689465	0.200292
753.885716	0.200237
754.081949	0.200225
754.278164	0.200076
754.474361	0.200122
754.670540	0.199941
754.866700	0.199634
755.062843	0.199264
755.258967	0.199188
755.455072	0.199269
755.651160	0.199028
755.847229	0.198761
756.043280	0.198722
756.239313	0.198391
756.435328	0.198518
756.631324	0.198597
756.827302	0.198934
757.023262	0.198931
757.219204	0.198603
757.415127	0.198615
757.611033	0.198649
757.806920	0.198729
758.002788	0.198790
758.198639	0.198503
758.394471	0.198656
758.590286	0.198299
758.786081	0.197959
758.981859	0.198061
759.177619	0.198069
759.373360	0.197993
759.569083	0.197827
759.764788	0.197619
759.960474	0.197691
760.156143	0.197466
760.351793	0.197598
760.547425	0.197748
760.743038	0.197794
760.938634	0.197393
761.134211	0.197233
761.329770	0.197139
761.525311	0.197205
761.720833	0.197213
761.916338	0.197096
762.111824	0.197012
762.307292	0.197024
762.502741	0.197029
762.698173	0.197049
762.893586	0.197120
763.088981	0.196984
763.284358	0.196796
763.479716	0.196562
763.675057	0.196480
763.870379	0.196353
764.065683	0.196000
764.260968	0.195655
764.456236	0.195725
764.651485	0.195443
764.846716	0.195324
765.041929	0.195406
765.237123	0.195292
765.432299	0.195264
765.627457	0.195219
765.822597	0.195267
766.017719	0.195426
766.212822	0.195525
766.407907	0.195939
766.602974	0.195976
766.798023	0.195922
766.993054	0.195833
767.188066	0.195759
767.383060	0.195749
767.578036	0.195620
767.772993	0.195401
767.967933	0.195151
768.162854	0.194657
768.357757	0.194618
768.552642	0.194378
768.747508	0.194537
768.942356	0.194535
769.137186	0.194503
769.331998	0.194766
769.526792	0.194606
769.721567	0.194723
769.916324	0.194780
770.111063	0.194792
770.305784	0.194791
770.500486	0.194663
770.695171	0.194572
770.889837	0.194268
771.084484	0.193992
771.279114	0.194098
771.473725	0.193737
771.668318	0.193569
771.862893	0.193485
772.057450	0.193457
772.251988	0.193297
772.446509	0.193345
772.641011	0.193681
772.835494	0.193604
773.029960	0.193418
773.224407	0.193601
773.418836	0.193884
773.613247	0.193720
773.807640	0.193696
774.002014	0.193676
774.196370	0.193695
774.390708	0.193540
774.585028	0.193685
774.779330	0.193657
774.973613	0.193432
775.167878	0.193068
775.362125	0.193102
775.556354	0.193022
775.750564	0.193090
775.944756	0.192951
776.138930	0.192895
776.333086	0.192809
776.527223	0.192594
776.721343	0.192570
776.915444	0.192757
777.109526	0.192707
777.303591	0.192697
777.497637	0.192493
777.691666	0.192494
777.885676	0.192392
778.079667	0.192298
778.273641	0.192475
778.467596	0.192469
778.661533	0.192388
778.855452	0.192593
779.049352	0.192350
779.243235	0.192522
779.437099	0.192436
779.630945	0.192448
779.824773	0.192499
780.018582	0.192694
780.212373	0.192678
780.406146	0.192507
780.599901	0.192285
780.793638	0.192430
780.987356	0.192180
781.181056	0.192454
781.374738	0.192357
781.568402	0.192248
781.762047	0.192126
781.955674	0.192209
782.149283	0.192297
782.342874	0.192455
782.536447	0.192486
782.730001	0.192561
782.923537	0.192365
783.117055	0.192383
783.310555	0.192352
783.504036	0.192379
783.697499	0.192459
783.890944	0.192438
784.084371	0.192147
784.277780	0.192384
784.471170	0.192286
784.664542	0.192191
784.857896	0.192270
785.051231	0.192172
785.244549	0.192096
785.437848	0.192146
785.631129	0.191990
785.824392	0.192104
786.017636	0.192094
786.210863	0.192389
786.404071	0.192384
786.597260	0.192332
786.790432	0.192373
786.983585	0.192472
787.176721	0.192196
787.369838	0.192274
787.562936	0.192257
787.756017	0.191901
787.949079	0.191832
788.142123	0.191634
788.335149	0.191627
788.528156	0.191800
788.721146	0.191610
788.914117	0.191810
789.107070	0.192072
789.300005	0.192326
789.492921	0.192477
789.685819	0.192462
789.878699	0.192985
790.071561	0.193156
790.264405	0.193156
790.457230	0.193466
790.650037	0.193559
790.842826	0.193495
791.035597	0.193635
791.228349	0.193695
791.421084	0.193894
791.613800	0.193710
791.806497	0.193756
791.999177	0.193983
792.191838	0.194071
792.384481	0.194158
792.577106	0.194320
792.769713	0.194003
792.962301	0.194290
793.154871	0.194308
793.347423	0.194475
793.539957	0.194299
793.732473	0.194319
793.924970	0.194194
794.117449	0.194252
794.309910	0.194142
794.502353	0.194429
794.694777	0.194371
794.887183	0.194574
795.079571	0.194590
795.271941	0.194750
795.464293	0.194800
795.656626	0.194891
795.848941	0.194948
796.041238	0.195224
796.233516	0.195426
796.425777	0.195407
796.618019	0.195212
796.810243	0.195284
797.002449	0.195508
797.194636	0.195572
797.386805	0.195670
797.578956	0.195707
797.771089	0.195603
797.963204	0.195434
798.155300	0.195584
798.347378	0.195606
798.539438	0.195553
798.731480	0.195756
798.923503	0.195855
799.115509	0.195931
799.307496	0.196086
799.499465	0.196104
799.691415	0.195990
799.883348	0.196011
800.075262	0.196383
800.267158	0.196553
800.459035	0.196504
800.650895	0.196547
800.842736	0.196763
801.034559	0.196708
801.226364	0.196926
801.418150	0.197391
801.609919	0.197622
801.801669	0.197637
801.993401	0.197930
802.185114	0.198278
802.376810	0.198258
802.568487	0.197924
802.760146	0.198286
802.951787	0.198227
803.143409	0.198136
803.335014	0.198107
803.526600	0.198242
803.718168	0.197998
803.909717	0.197765
804.101249	0.197984
804.292762	0.198407
804.484257	0.198374
804.675734	0.198581
804.867192	0.198820
805.058632	0.198803
805.250054	0.199020
805.441458	0.199310
805.632844	0.199474
805.824211	0.199480
806.015561	0.199733
806.206891	0.199989
806.398204	0.200375
806.589499	0.200272
806.780775	0.200515
806.972033	0.200501
807.163273	0.200590
807.354495	0.200649
807.545698	0.200788
807.736883	0.200848
807.928050	0.200797
808.119199	0.200793
808.310329	0.201054
808.501441	0.201219
808.692535	0.201097
808.883611	0.201400
809.074669	0.201707
809.265708	0.202022
809.456729	0.202247
809.647732	0.202628
809.838717	0.202630
810.029683	0.202819
810.220632	0.203154
810.411562	0.203457
810.602474	0.203757
810.793367	0.203794
810.984242	0.203976
811.175100	0.204273
811.365938	0.204010
811.556759	0.204218
811.747562	0.204347
811.938346	0.204417
812.129112	0.204512
812.319860	0.204576
812.510589	0.204856
812.701300	0.204796
812.891994	0.204758
813.082668	0.205237
813.273325	0.205542
813.463964	0.205882
813.654584	0.205836
813.845186	0.206127
814.035769	0.206270
814.226335	0.206275
814.416882	0.206667
814.607411	0.206833
814.797922	0.206723
814.988415	0.206779
815.178889	0.206763
815.369345	0.207288
815.559783	0.207361
815.750203	0.207362
815.940605	0.207870
816.130988	0.208083
816.321353	0.208175
816.511700	0.208570
816.702028	0.208822
816.892339	0.209120
817.082631	0.209155
817.272905	0.209351
817.463161	0.209808
817.653398	0.209669
817.843617	0.209801
818.033819	0.210093
818.224001	0.210302
818.414166	0.210267
818.604312	0.210386
818.794440	0.210586
818.984550	0.210972
819.174642	0.211032
819.364716	0.211258
819.554771	0.211288
819.744808	0.211246
819.934827	0.211390
820.124827	0.211721
820.314810	0.211826
820.504774	0.211895
820.694720	0.211885
820.884647	0.211860
821.074557	0.212326
821.264448	0.212471
821.454321	0.212728
821.644176	0.212646
821.834012	0.212690
822.023831	0.212880
822.213631	0.213176
822.403413	0.213359
822.593176	0.213597
822.782922	0.213376
822.972649	0.213921
823.162358	0.214230
823.352049	0.214698
823.541721	0.214943
823.731376	0.215262
823.921012	0.215297
824.110629	0.215472
824.300229	0.215632
824.489811	0.215924
824.679374	0.215557
824.868919	0.215499
825.058445	0.215513
825.247954	0.215920
825.437444	0.216075
825.626916	0.216356
825.816370	0.216689
826.005806	0.217111
826.195223	0.217248
826.384622	0.217757
826.574003	0.218265
826.763366	0.218762
826.952711	0.219064
827.142037	0.219632
827.331345	0.219735
827.520635	0.219894
827.709906	0.219936
827.899160	0.220200
828.088395	0.220470
828.277612	0.220375
828.466810	0.220521
828.655991	0.220635
828.845153	0.220617
829.034297	0.220845
829.223423	0.220917
829.412531	0.221287
829.601620	0.221760
829.790691	0.222169
829.979744	0.222624
830.168779	0.222622
830.357795	0.222798
830.546793	0.222881
830.735773	0.223104
830.924735	0.223442
831.113679	0.223374
831.302604	0.223645
831.491511	0.223669
831.680400	0.223800
831.869271	0.224137
832.058123	0.224342
832.246957	0.224494
832.435773	0.224887
832.624571	0.225093
832.813351	0.225502
833.002112	0.225466
833.190855	0.225806
833.379580	0.225972
833.568287	0.226429
833.756975	0.226633
833.945645	0.226932
834.134297	0.227561
834.322931	0.227757
834.511547	0.228045
834.700144	0.228206
834.888723	0.228292
835.077284	0.228842
835.265826	0.228851
835.454351	0.229213
835.642857	0.229385
835.831345	0.229250
836.019815	0.229510
836.208266	0.229820
836.396699	0.230160
836.585114	0.230295
836.773511	0.230427
836.961890	0.230935
837.150250	0.231054
837.338592	0.231278
837.526916	0.231631
837.715222	0.232151
837.903510	0.232431
838.091779	0.232948
838.280030	0.233253
838.468263	0.233440
838.656477	0.233340
838.844674	0.233717
839.032852	0.234175
839.221012	0.234367
839.409153	0.234561
839.597277	0.234610
839.785382	0.234646
839.973469	0.234801
840.161538	0.235440
840.349589	0.235581
840.537621	0.235745
840.725635	0.236011
840.913631	0.236387
841.101609	0.236490
841.289568	0.236894
841.477509	0.237024
841.665432	0.237529
841.853337	0.237425
842.041224	0.237725
842.229092	0.237999
842.416942	0.238288
842.604774	0.238299
842.792588	0.238874
842.980383	0.239096
843.168160	0.239373
843.355919	0.239805
843.543660	0.240207
843.731382	0.240771
843.919087	0.241079
844.106773	0.241070
844.294441	0.241483
844.482090	0.241445
844.669722	0.241442
844.857335	0.241566
845.044930	0.241378
845.232507	0.241497
845.420065	0.241634
845.607605	0.241748
845.795127	0.242004
845.982631	0.242065
846.170117	0.242332
846.357584	0.242746
846.545033	0.243240
846.732464	0.244088
846.919877	0.244008
847.107272	0.244177
847.294648	0.244483
847.482006	0.245027
847.669346	0.245406
847.856667	0.245720
848.043971	0.245924
848.231256	0.246151
848.418523	0.246114
848.605771	0.246881
848.793002	0.247147
848.980214	0.247551
849.167408	0.247725
849.354584	0.248207
849.541742	0.248629
849.728881	0.248935
849.916002	0.249094
850.103105	0.249080
850.290190	0.249190
850.477256	0.249369
850.664304	0.249402
850.851334	0.249719
851.038346	0.249568
851.225340	0.249629
851.412315	0.249850
851.599272	0.250098
851.786211	0.250683
851.973132	0.250838
852.160034	0.251431
852.346918	0.251728
852.533784	0.251937
852.720632	0.252409
852.907462	0.252428
853.094273	0.252700
853.281066	0.253067
853.467841	0.253292
853.654598	0.253817
853.841336	0.253884
854.028056	0.253971
854.214758	0.254325
854.401442	0.254272
854.588107	0.254799
854.774755	0.254870
854.961384	0.254940
855.147995	0.255082
855.334587	0.254990
855.521162	0.255259
855.707718	0.255786
855.894256	0.255816
856.080775	0.256278
856.267277	0.256378
856.453760	0.256866
856.640225	0.257235
856.826672	0.257410
857.013101	0.257705
857.199511	0.258018
857.385903	0.258146
857.572277	0.258336
857.758633	0.258745
857.944970	0.259140
858.131290	0.259445
858.317591	0.259826
858.503873	0.260323
858.690138	0.260211
858.876384	0.260288
859.062612	0.260507
859.248822	0.260682
859.435014	0.260881
859.621188	0.261148
859.807343	0.261219
859.993480	0.261442
860.179599	0.261476
860.365699	0.262098
860.551781	0.262108
860.737846	0.262125
860.923891	0.262393
861.109919	0.262817
861.295929	0.262840
861.481920	0.263033
861.667893	0.263248
861.853848	0.263350
862.039784	0.263154
862.225702	0.263518
862.411603	0.263880
862.597484	0.263871
862.783348	0.263611
862.969193	0.263780
863.155021	0.264090
863.340830	0.264194
863.526620	0.264190
863.712393	0.265009
863.898147	0.265212
864.083883	0.265617
864.269601	0.266462
864.455301	0.266852
864.640982	0.267292
864.826645	0.267123
865.012290	0.267297
865.197917	0.267781
865.383526	0.268014
865.569116	0.268312
865.754688	0.268364
865.940242	0.267826
866.125777	0.267649
866.311295	0.267463
866.496794	0.267659
866.682275	0.268040
866.867737	0.268165
867.053182	0.267879
867.238608	0.267788
867.424016	0.267752
867.609406	0.268099
867.794778	0.268714
867.980131	0.268996
868.165466	0.269764
868.350783	0.269832
868.536082	0.269900
868.721362	0.270270
868.906625	0.270737
869.091869	0.271327
869.277094	0.271742
869.462302	0.271424
869.647491	0.271657
869.832662	0.271680
870.017815	0.272092
870.202950	0.272494
870.388066	0.272571
870.573165	0.272599
870.758245	0.272647
870.943306	0.272974
871.128350	0.273756
871.313375	0.274258
871.498382	0.274448
871.683371	0.274065
871.868342	0.274379
872.053294	0.274917
872.238229	0.275033
872.423144	0.275042
872.608042	0.274935
872.792922	0.274965
872.977783	0.274908
873.162626	0.274974
873.347451	0.274897
873.532258	0.275405
873.717046	0.275118
873.901816	0.275584
874.086568	0.275769
874.271302	0.276011
874.456017	0.276011
874.640715	0.276094
874.825394	0.276098
875.010055	0.276880
875.194697	0.276340
875.379322	0.276695
875.563928	0.276484
875.748516	0.276660
875.933085	0.276759
876.117637	0.276743
876.302170	0.277083
876.486685	0.277155
876.671182	0.277213
876.855661	0.277460
877.040121	0.277802
877.224563	0.278181
877.408987	0.278228
877.593393	0.278387
877.777780	0.278279
877.962150	0.277912
878.146501	0.278110
878.330833	0.277943
878.515148	0.277697
878.699444	0.277577
878.883722	0.277520
879.067982	0.277683
879.252224	0.277604
879.436447	0.278006
879.620653	0.278459
879.804840	0.278690
879.989008	0.279036
880.173159	0.278961
880.357291	0.278954
880.541405	0.278989
880.725501	0.279357
880.909579	0.279427
881.093638	0.279483
881.277680	0.279356
881.461703	0.279158
881.645707	0.279145
881.829694	0.279828
882.013662	0.280160
882.197612	0.280305
882.381544	0.279789
882.565458	0.279545
882.749353	0.279532
882.933230	0.279824
883.117089	0.280142
883.300930	0.280340
883.484753	0.280087
883.668557	0.279809
883.852343	0.279884
884.036111	0.280393
884.219861	0.280894
884.403592	0.280636
884.587305	0.280788
884.771000	0.280973
884.954677	0.280540
885.138335	0.280550
885.321976	0.280696
885.505598	0.280796
885.689201	0.280569
885.872787	0.280441
886.056354	0.281263
886.239904	0.280980
886.423434	0.280567
886.606947	0.280826
886.790442	0.280555
886.973918	0.280582
887.157376	0.280539
887.340816	0.280986
887.524237	0.281087
887.707641	0.280747
887.891026	0.280352
888.074393	0.280567
888.257741	0.280605
888.441072	0.280794
888.624384	0.280927
888.807678	0.281025
888.990954	0.280540
889.174211	0.280432
889.357451	0.280246
889.540672	0.280473
889.723875	0.280118
889.907059	0.280198
890.090226	0.280231
890.273374	0.279631
890.456504	0.279556
890.639616	0.279110
890.822709	0.279478
891.005785	0.279717
891.188842	0.279744
891.371881	0.279720
891.554901	0.279817
891.737904	0.279988
891.920888	0.279927
892.103854	0.279753
892.286802	0.279923
892.469731	0.279660
892.652643	0.279319
892.835536	0.279690
893.018410	0.279947
893.201267	0.279557
893.384106	0.279614
893.566926	0.279936
893.749728	0.280028
893.932511	0.280367
894.115277	0.280307
894.298024	0.279955
894.480753	0.279229
894.663464	0.278824
894.846157	0.279138
895.028831	0.278612
895.211487	0.278506
895.394125	0.278063
895.576745	0.277671
895.759346	0.277775
895.941930	0.277743
896.124495	0.277646
896.307041	0.277802
896.489570	0.277623
896.672080	0.277361
896.854573	0.277317
897.037046	0.277163
897.219502	0.277216
897.401940	0.276347
897.584359	0.276275
897.766760	0.276547
897.949143	0.276099
898.131507	0.275909
898.313854	0.276026
898.496182	0.275941
898.678492	0.276294
898.860783	0.276456
899.043057	0.277053
899.225312	0.277127
899.407549	0.276569
899.589768	0.276877
899.771968	0.276650
899.954151	0.276722
900.136315	0.276898
900.318461	0.276557
900.500588	0.276032
900.682698	0.275201
900.864789	0.275089
901.046862	0.275452
901.228917	0.275415
901.410953	0.275371
901.592971	0.274833
901.774972	0.274329
901.956953	0.274066
902.138917	0.273889
902.320862	0.273652
902.502790	0.273348
902.684699	0.272970
902.866589	0.272506
903.048462	0.271768
903.230316	0.271552
903.412152	0.270919
903.593970	0.270947
903.775770	0.270737
903.957551	0.270580
904.139314	0.270368
904.321059	0.269438
904.502786	0.269249
904.684494	0.268939
904.866185	0.268729
905.047857	0.268926
905.229510	0.268688
905.411146	0.268359
905.592763	0.268454
905.774363	0.268751
905.955943	0.269251
906.137506	0.269176
906.319051	0.269131
906.500577	0.269152
906.682085	0.269060
906.863575	0.268665
907.045046	0.268703
907.226500	0.268785
907.407935	0.267740
907.589352	0.267865
907.770750	0.267425
907.952131	0.267346
908.133493	0.266836
908.314837	0.266600
908.496163	0.266084
908.677470	0.265380
908.858760	0.264684
909.040031	0.264944
909.221284	0.264044
909.402518	0.263635
909.583735	0.263426
909.764933	0.263180
909.946113	0.262045
910.127275	0.262120
910.308418	0.262300
910.489544	0.261972
910.670651	0.261575
910.851740	0.261762
911.032810	0.261780
911.213863	0.261573
911.394897	0.261665
911.575913	0.262048
911.756911	0.261722
911.937890	0.261264
912.118851	0.260991
912.299794	0.260412
912.480719	0.259485
912.661626	0.259093
912.842514	0.258729
913.023384	0.258146
913.204236	0.257446
913.385070	0.256609
913.565886	0.256426
913.746683	0.256025
913.927462	0.256188
914.108223	0.256056
914.288965	0.255559
914.469690	0.255073
914.650396	0.255085
914.831084	0.254772
915.011754	0.254434
915.192405	0.253683
915.373038	0.253316
915.553653	0.252593
915.734250	0.252286
915.914829	0.251741
916.095389	0.251433
916.275931	0.250869
916.456455	0.250854
916.636961	0.250803
916.817448	0.250709
916.997917	0.250842
917.178368	0.250386
917.358801	0.249337
917.539216	0.248990
917.719612	0.248628
917.899990	0.247959
918.080350	0.247565
918.260692	0.247220
918.441015	0.246370
918.621320	0.245856
918.801607	0.245218
918.981876	0.245205
919.162127	0.244458
919.342359	0.244004
919.522573	0.243339
919.702769	0.242927
919.882947	0.242078
920.063106	0.241948
920.243247	0.241165
920.423370	0.241088
920.603475	0.240387
920.783562	0.240329
920.963630	0.239774
921.143680	0.239805
921.323712	0.239920
921.503725	0.239441
921.683721	0.239578
921.863698	0.239503
922.043657	0.238912
922.223598	0.239228
922.403520	0.238779
922.583424	0.237922
922.763311	0.237621
922.943178	0.236328
923.123028	0.236171
923.302859	0.234727
923.482673	0.234060
923.662467	0.233745
923.842244	0.233273
924.022003	0.232912
924.201743	0.232488
924.381465	0.231809
924.561169	0.231125
924.740854	0.231061
924.920522	0.230843
925.100171	0.230283
925.279802	0.230152
925.459414	0.229298
925.639009	0.228511
925.818585	0.228441
925.998143	0.227847
926.177683	0.227176
926.357205	0.226293
926.536708	0.226322
926.716193	0.225590
926.895660	0.224579
927.075109	0.224061
927.254539	0.223860
927.433951	0.223949
927.613345	0.223510
927.792721	0.223583
927.972079	0.223087
928.151418	0.222096
928.330739	0.221358
928.510042	0.221085
928.689327	0.220689
928.868593	0.220143
929.047841	0.218814
929.227071	0.217912
929.406283	0.217126
929.585476	0.216301
929.764652	0.215944
929.943809	0.215863
930.122948	0.215178
930.302068	0.214254
930.481171	0.213328
930.660255	0.212364
930.839321	0.212171
931.018369	0.211883
931.197398	0.210786
931.376409	0.209881
931.555402	0.209132
931.734377	0.208160
931.913334	0.208317
932.092272	0.208346
932.271192	0.208267
932.450094	0.207659
932.628978	0.206393
932.807844	0.206685
932.986691	0.206673
933.165520	0.205949
933.344331	0.205617
933.523123	0.204339
933.701898	0.203482
933.880654	0.202626
934.059392	0.201629
934.238111	0.200988
934.416813	0.200204
934.595496	0.199190
934.774161	0.198520
934.952808	0.197920
935.131437	0.197526
935.310047	0.197146
935.488639	0.196149
935.667213	0.196399
935.845769	0.195908
936.024306	0.195559
936.202825	0.194945
936.381326	0.194555
936.559809	0.194139
936.738274	0.193095
936.916720	0.192609
937.095148	0.192821
937.273558	0.190798
937.451950	0.190741
937.630323	0.189816
937.808678	0.188312
937.987015	0.188046
938.165334	0.187073
938.343635	0.186943
938.521917	0.185835
938.700181	0.185048
938.878427	0.185274
939.056655	0.184513
939.234864	0.183212
939.413055	0.183663
939.591228	0.182891
939.769383	0.182190
939.947519	0.181575
940.125638	0.181488
940.303738	0.180137
940.481820	0.179638
940.659883	0.178672
940.837929	0.179060
941.015956	0.178514
941.193965	0.177654
941.371955	0.177421
941.549928	0.175872
941.727882	0.175100
941.905818	0.174967
942.083736	0.174018
942.261636	0.173012
942.439517	0.171927
942.617380	0.171415
942.795225	0.170496
942.973052	0.169303
943.150860	0.169624
943.328651	0.168296
943.506423	0.168342
943.684176	0.168220
943.861912	0.167678
944.039629	0.167455
944.217328	0.166905
944.395009	0.166216
944.572672	0.165576
944.750317	0.165027
944.927943	0.164245
945.105551	0.163255
945.283141	0.161428
945.460712	0.162341
945.638265	0.162016
945.815801	0.160093
945.993317	0.159494
946.170816	0.158350
946.348297	0.158004
946.525759	0.156935
946.703203	0.155619
946.880629	0.157435
947.058036	0.154794
947.235425	0.153419
947.412797	0.153881
947.590149	0.152522
947.767484	0.152465
947.944800	0.151109
948.122099	0.150598
948.299379	0.149671
948.476640	0.146562
948.653884	0.146971
948.831109	0.145365
949.008316	0.144580
949.185505	0.144592
949.362676	0.144311
949.539828	0.143720
949.716962	0.143191
949.894078	0.142923
950.071176	0.143229
950.248256	0.141718
950.425317	0.140992
950.602360	0.139172
950.779385	0.137219
950.956391	0.136596
951.133380	0.135403
951.310350	0.136124
951.487302	0.136468
951.664235	0.135458
951.841151	0.135878
952.018048	0.137948
952.194927	0.137413
952.371788	0.137912
952.548631	0.136480
952.725455	0.136616
952.902261	0.132507
953.079049	0.132461
953.255819	0.132113
953.432570	0.131767
953.609303	0.130999
953.786018	0.130686
953.962715	0.130778
954.139394	0.128834
954.316054	0.127187
954.492696	0.127758
954.669320	0.125746
954.845926	0.125025
955.022513	0.122818
955.199083	0.121637
955.375634	0.121629
955.552166	0.121641
955.728681	0.122002
955.905177	0.122901
956.081655	0.123482
956.258115	0.122220
956.434557	0.121607
956.610980	0.120912
956.787385	0.119718
956.963772	0.117648
957.140141	0.116945
957.316492	0.117087
957.492824	0.115322
957.669138	0.114683
957.845434	0.115575
958.021712	0.115813
958.197971	0.116377
958.374212	0.113992
958.550435	0.114548
958.726640	0.115254
958.902826	0.114545
959.078995	0.113701
959.255145	0.113206
959.431277	0.111272
959.607390	0.108929
959.783486	0.108133
959.959563	0.110783
960.135622	0.110757
960.311662	0.108779
960.487685	0.106915
960.663689	0.106485
960.839675	0.107385
961.015643	0.109107
961.191593	0.111464
961.367524	0.111516
961.543437	0.110860
961.719332	0.110515
961.895209	0.109157
962.071067	0.109102
962.246907	0.110176
962.422730	0.109764
962.598533	0.107286
962.774319	0.104260
962.950086	0.105368
963.125835	0.103526
963.301566	0.103835
963.477279	0.103359
963.652973	0.104193
963.828650	0.102592
964.004308	0.101917
964.179947	0.104269
964.355569	0.104370
964.531172	0.101341
964.706757	0.101483
964.882324	0.099893
965.057873	0.101982
965.233403	0.102441
965.408916	0.104079
965.584410	0.102046
965.759885	0.099350
965.935343	0.099540
966.110782	0.098053
966.286203	0.098629
966.461606	0.098806
966.636991	0.096948
966.812357	0.098023
966.987705	0.095637
967.163035	0.096695
967.338347	0.097601
967.513641	0.095421
967.688916	0.097422
967.864173	0.096108
968.039412	0.094884
968.214632	0.095645
968.389835	0.092004
968.565019	0.093351
968.740185	0.094570
968.915333	0.094681
969.090462	0.095433
969.265573	0.096212
969.440667	0.094619
969.615741	0.096824
969.790798	0.096246
969.965836	0.099231
970.140856	0.101852
970.315858	0.101614
970.490842	0.100738
970.665808	0.102214
970.840755	0.101279
971.015684	0.102556
971.190595	0.101792
971.365487	0.102675
971.540362	0.102987
971.715218	0.097695
971.890056	0.098429
972.064875	0.099255
972.239677	0.097767
972.414460	0.097953
972.589225	0.098463
972.763972	0.097515
972.938700	0.096915
973.113411	0.096586
973.288103	0.097979
973.462777	0.094939
973.637432	0.094958
973.812070	0.097005
973.986689	0.097240
974.161290	0.097061
974.335873	0.099452
974.510437	0.099236
974.684984	0.098611
974.859512	0.096867
975.034022	0.098160
975.208513	0.097779
975.382987	0.097953
975.557442	0.099411
975.731879	0.099338
975.906298	0.097397
976.080698	0.098036
976.255080	0.097501
976.429445	0.100686
976.603790	0.097839
976.778118	0.098460
976.952427	0.096532
977.126719	0.096018
977.300992	0.096695
977.475246	0.096545
977.649483	0.095602
977.823701	0.095621
977.997901	0.095771
978.172083	0.098036
978.346247	0.096646
978.520392	0.098602
978.694519	0.096392
978.868628	0.095319
979.042719	0.095710
979.216791	0.095991
979.390845	0.097568
979.564882	0.095362
979.738899	0.094282
979.912899	0.094248
980.086880	0.094174
980.260843	0.094055
980.434788	0.093610
980.608715	0.092585
980.782623	0.092518
980.956514	0.088639
981.130386	0.089436
981.304240	0.089889
981.478075	0.089247
981.651892	0.087066
981.825692	0.087297
981.999472	0.089376
982.173235	0.090888
982.346980	0.091026
982.520706	0.093473
982.694414	0.093063
982.868104	0.092635
983.041775	0.094567
983.215428	0.094345
983.389064	0.093953
983.562680	0.093237
983.736279	0.092441
983.909860	0.090844
984.083422	0.092972
984.256966	0.094088
984.430491	0.095541
984.603999	0.093705
984.777488	0.096041
984.950959	0.097823
985.124412	0.097514
985.297847	0.096407
985.471263	0.097354
985.644661	0.096575
985.818041	0.097097
985.991403	0.096564
986.164747	0.095631
986.338072	0.092823
986.511379	0.091235
986.684668	0.090151
986.857938	0.090537
987.031191	0.091813
987.204425	0.090219
987.377641	0.089257
987.550839	0.087865
987.724018	0.090164
987.897179	0.091322
988.070322	0.092649
988.243447	0.095617
988.416554	0.097176
988.589642	0.096162
988.762712	0.096528
988.935764	0.096923
989.108798	0.099066
989.281813	0.098025
989.454811	0.100060
989.627790	0.099565
989.800751	0.095939
989.973693	0.094807
990.146617	0.094747
990.319524	0.095940
990.492412	0.096027
990.665281	0.096606
990.838133	0.097841
991.010966	0.097770
991.183781	0.099057
991.356578	0.102366
991.529356	0.103016
991.702117	0.103676
991.874859	0.102957
992.047583	0.102234
992.220288	0.103404
992.392976	0.103370
992.565645	0.102362
992.738296	0.100726
992.910929	0.098805
993.083543	0.097350
993.256139	0.097767
993.428718	0.096941
993.601277	0.097688
993.773819	0.095298
993.946342	0.094854
994.118848	0.094982
994.291335	0.096370
994.463803	0.097236
994.636254	0.099792
994.808686	0.099555
994.981100	0.100048
995.153496	0.101716
995.325874	0.101866
995.498233	0.100963
995.670574	0.100716
995.842897	0.096850
996.015202	0.098408
996.187488	0.097828
996.359757	0.098216
996.532007	0.098389
996.704239	0.095539
996.876452	0.095615
997.048648	0.096110
997.220825	0.095938
997.392984	0.099039
997.565124	0.095153
997.737247	0.094135
997.909351	0.092792
998.081437	0.092490
998.253505	0.092663
998.425554	0.093213
998.597586	0.093042
998.769599	0.095086
998.941594	0.096062
999.113571	0.097801
999.285529	0.100023
999.457469	0.102026
999.629391	0.103199
999.801295	0.104023
999.973181	0.104513
1000.145048	0.106774
1000.316897	0.105260
1000.488728	0.102311
1000.660541	0.101734
1000.832335	0.100591
1001.004111	0.099492
1001.175869	0.099603
1001.347609	0.098385
1001.519331	0.097098
1001.691034	0.094298
1001.862719	0.094843
1002.034386	0.096004
1002.206035	0.096323
1002.377665	0.094914
1002.549277	0.094023
1002.720871	0.094975
1002.892447	0.095168
1003.064004	0.096733
1003.235544	0.098508
1003.407065	0.098799
1003.578568	0.100230
1003.750052	0.100787
1003.921519	0.100353
1004.092967	0.101391
1004.264397	0.098717
1004.435809	0.100019
1004.607202	0.097817
1004.778577	0.097743
1004.949934	0.096357
1005.121273	0.095380
1005.292594	0.095774
1005.463896	0.096500
1005.635180	0.095917
1005.806446	0.096941
1005.977694	0.096703
1006.148923	0.097343
1006.320135	0.096642
1006.491328	0.097452
1006.662503	0.095858
1006.833659	0.095764
1007.004798	0.096633
1007.175918	0.096890
1007.347020	0.093800
1007.518103	0.093012
1007.689169	0.092750
1007.860216	0.094436
1008.031245	0.094871
1008.202256	0.096114
1008.373248	0.095275
1008.544223	0.093429
1008.715179	0.093665
1008.886117	0.098348
1009.057036	0.097558
1009.227938	0.097402
1009.398821	0.095684
1009.569686	0.095701
1009.740533	0.094522
1009.911361	0.095347
1010.082172	0.098110
1010.252964	0.096822
1010.423738	0.093806
1010.594493	0.095326
1010.765231	0.095814
1010.935950	0.093929
1011.106651	0.092613
1011.277334	0.094527
1011.447998	0.094741
1011.618645	0.092434
1011.789273	0.094072
1011.959882	0.095544
1012.130474	0.094498
1012.301048	0.095105
1012.471603	0.096596
1012.642140	0.097058
1012.812658	0.098003
1012.983159	0.099825
1013.153641	0.101297
1013.324105	0.100001
1013.494551	0.099802
1013.664979	0.100871
1013.835388	0.099802
1014.005779	0.101154
1014.176152	0.101480
1014.346507	0.098727
1014.516843	0.096674
1014.687162	0.096580
1014.857462	0.096830
1015.027744	0.096674
1015.198007	0.096438
1015.368252	0.096827
1015.538480	0.096245
1015.708689	0.097809
1015.878879	0.098619
1016.049052	0.097627
1016.219206	0.096577
1016.389342	0.097816
1016.559460	0.098488
1016.729559	0.099885
1016.899641	0.100975
1017.069704	0.101279
1017.239749	0.098608
1017.409775	0.099745
1017.579784	0.101932
1017.749774	0.102179
1017.919746	0.101973
1018.089700	0.100765
1018.259635	0.100076
1018.429553	0.099436
1018.599452	0.097938
1018.769333	0.099122
1018.939195	0.099462
1019.109040	0.096839
1019.278866	0.097570
1019.448674	0.094650
1019.618464	0.097863
1019.788235	0.096695
1019.957989	0.095975
1020.127724	0.096572
1020.297441	0.097085
1020.467139	0.096447
1020.636820	0.096915
1020.806482	0.096154
1020.976126	0.097945
1021.145752	0.095908
1021.315359	0.098667
1021.484948	0.099869
1021.654519	0.100865
1021.824072	0.100458
1021.993607	0.100133
1022.163123	0.101807
1022.332621	0.101700
1022.502101	0.102249
1022.671563	0.100103
1022.841007	0.099620
1023.010432	0.099207
1023.179839	0.097435
1023.349228	0.097255
1023.518598	0.097961
1023.687951	0.097068
1023.857285	0.096089
1024.026601	0.095166
1024.195899	0.096546
1024.365178	0.095850
1024.534439	0.095971
1024.703682	0.097841
1024.872907	0.096375
1025.042114	0.095340
1025.211302	0.095695
1025.380472	0.098035
1025.549624	0.098464
1025.718758	0.099134
1025.887873	0.097646
1026.056970	0.097473
1026.226049	0.096397
1026.395110	0.097929
1026.564153	0.098184
1026.733177	0.097273
1026.902183	0.095371
1027.071171	0.095845
1027.240141	0.095592
1027.409092	0.096105
1027.578026	0.095854
1027.746940	0.096355
1027.915837	0.096288
1028.084716	0.096341
1028.253576	0.097093
1028.422418	0.097084
1028.591242	0.098096
1028.760048	0.097019
1028.928835	0.097524
1029.097604	0.097692
1029.266355	0.097473
1029.435088	0.097415
1029.603803	0.098339
1029.772499	0.098179
1029.941177	0.099530
1030.109837	0.097773
1030.278478	0.098480
1030.447102	0.098234
1030.615707	0.098057
1030.784294	0.097963
1030.952863	0.097295
1031.121413	0.095631
1031.289945	0.096172
1031.458460	0.098153
1031.626955	0.096859
1031.795433	0.095104
1031.963892	0.092984
1032.132334	0.092382
1032.300756	0.091758
1032.469161	0.091507
1032.637548	0.093032
1032.805916	0.091900
1032.974266	0.089302
1033.142598	0.090267
1033.310911	0.091970
1033.479207	0.094735
1033.647484	0.094687
1033.815743	0.094232
1033.983983	0.094522
1034.152206	0.094880
1034.320410	0.095617
1034.488596	0.095311
1034.656764	0.096199
1034.824914	0.095935
1034.993045	0.094364
1035.161158	0.094958
1035.329253	0.094938
1035.497330	0.094269
1035.665388	0.093088
1035.833428	0.092671
1036.001450	0.093870
1036.169454	0.093134
1036.337440	0.092948
1036.505407	0.092563
1036.673356	0.091992
1036.841287	0.093364
1037.009200	0.093889
1037.177094	0.095058
1037.344970	0.095230
1037.512828	0.095814
1037.680668	0.094909
1037.848489	0.095987
1038.016293	0.097423
1038.184078	0.097399
1038.351845	0.098692
1038.519593	0.098561
1038.687324	0.096953
1038.855036	0.096489
1039.022730	0.094711
1039.190406	0.095085
1039.358063	0.094365
1039.525702	0.093953
1039.693323	0.095375
1039.860926	0.093876
1040.028511	0.095155
1040.196077	0.095652
1040.363625	0.098285
1040.531155	0.100638
1040.698667	0.101194
1040.866161	0.101126
1041.033636	0.098604
1041.201093	0.097929
1041.368532	0.098496
1041.535952	0.097161
1041.703355	0.096897
1041.870739	0.093711
1042.038105	0.091583
1042.205452	0.092411
1042.372782	0.093214
1042.540093	0.095737
1042.707386	0.096576
1042.874661	0.095085
1043.041918	0.094888
1043.209156	0.096998
1043.376376	0.097808
1043.543578	0.098458
1043.710762	0.099339
1043.877927	0.097843
1044.045074	0.098184
1044.212203	0.097503
1044.379314	0.098901
1044.546407	0.100432
1044.713481	0.098739
1044.880537	0.100283
1045.047575	0.100953
1045.214595	0.099789
1045.381596	0.100575
1045.548579	0.099394
1045.715544	0.099058
1045.882491	0.099084
1046.049420	0.097978
1046.216330	0.098962
1046.383222	0.096461
1046.550096	0.095423
1046.716951	0.095689
1046.883789	0.095984
1047.050608	0.095427
1047.217409	0.095655
1047.384192	0.096163
1047.550956	0.096083
1047.717703	0.094909
1047.884431	0.095191
1048.051140	0.093671
1048.217832	0.093800
1048.384505	0.092789
1048.551161	0.093338
1048.717798	0.093655
1048.884416	0.090308
1049.051017	0.091655
1049.217599	0.092497
1049.384163	0.094691
1049.550709	0.096860
1049.717237	0.096171
1049.883746	0.095582
1050.050237	0.096580
1050.216710	0.096721
1050.383165	0.097076
1050.549601	0.096743
1050.716019	0.096662
1050.882420	0.094903
1051.048801	0.095538
1051.215165	0.095561
1051.381510	0.096462
1051.547837	0.097615
1051.714146	0.097311
1051.880437	0.099848
1052.046709	0.099624
1052.212964	0.098870
1052.379200	0.101117
1052.545417	0.101021
1052.711617	0.101141
1052.877798	0.102345
1053.043961	0.100165
1053.210106	0.099790
1053.376233	0.099566
1053.542341	0.098658
1053.708432	0.097403
1053.874504	0.096940
1054.040557	0.094894
1054.206593	0.095594
1054.372610	0.093506
1054.538609	0.094532
1054.704590	0.094303
1054.870553	0.094378
1055.036497	0.094045
1055.202424	0.095339
1055.368331	0.094207
1055.534221	0.094069
1055.700093	0.094065
1055.865946	0.095162
1056.031781	0.096458
1056.197598	0.096798
1056.363397	0.094120
1056.529177	0.094519
1056.694939	0.092907
1056.860683	0.093093
1057.026409	0.095039
1057.192116	0.092306
1057.357806	0.092756
1057.523477	0.094026
1057.689130	0.091912
1057.854764	0.095274
1058.020381	0.094742
1058.185979	0.097566
1058.351559	0.096614
1058.517120	0.094200
1058.682664	0.098024
1058.848189	0.096766
1059.013696	0.092049
1059.179185	0.094862
1059.344656	0.094086
1059.510108	0.096371
1059.675542	0.095241
1059.840958	0.095192
1060.006356	0.095993
1060.171735	0.093839
1060.337096	0.095276
1060.502439	0.097603
1060.667764	0.097661
1060.833071	0.098655
1060.998359	0.095278
1061.163629	0.095187
1061.328881	0.096408
1061.494115	0.097319
1061.659330	0.097510
1061.824527	0.098086
1061.989706	0.099394
1062.154867	0.098845
1062.320010	0.098352
1062.485134	0.098929
1062.650240	0.100337
1062.815328	0.097875
1062.980398	0.099034
1063.145449	0.100396
1063.310482	0.099163
1063.475497	0.098639
1063.640494	0.098679
1063.805473	0.097455
1063.970433	0.099727
1064.135375	0.098152
1064.300299	0.099461
1064.465204	0.098849
1064.630092	0.097663
1064.794961	0.097112
1064.959812	0.096493
1065.124645	0.095470
1065.289459	0.097404
1065.454256	0.097850
1065.619034	0.098086
1065.783793	0.100907
1065.948535	0.101988
1066.113258	0.102535
1066.277964	0.103436
1066.442651	0.104018
1066.607319	0.104157
1066.771970	0.104693
1066.936602	0.103989
1067.101216	0.104560
1067.265812	0.100470
1067.430389	0.099273
1067.594949	0.098989
1067.759490	0.099542
1067.924013	0.099272
1068.088518	0.100636
1068.253004	0.100433
1068.417472	0.100107
1068.581922	0.098878
1068.746354	0.101301
1068.910768	0.103065
1069.075163	0.102940
1069.239540	0.104470
1069.403899	0.104643
1069.568240	0.106235
1069.732562	0.103714
1069.896866	0.103666
1070.061152	0.104406
1070.225420	0.102277
1070.389670	0.101987
1070.553901	0.103110
1070.718114	0.102138
1070.882309	0.103706
1071.046486	0.102448
1071.210644	0.101617
1071.374784	0.101745
1071.538906	0.099706
1071.703010	0.099319
1071.867096	0.100493
1072.031163	0.099433
1072.195212	0.098333
1072.359243	0.096028
1072.523256	0.097261
1072.687250	0.099084
1072.851226	0.100600
1073.015184	0.102992
1073.179124	0.105661
1073.343045	0.105784
1073.506949	0.106764
1073.670834	0.106348
1073.834701	0.108356
1073.998549	0.107238
1074.162380	0.108059
1074.326192	0.106811
1074.489986	0.106731
1074.653761	0.104625
1074.817519	0.104487
1074.981258	0.105085
1075.144979	0.106487
1075.308682	0.107334
1075.472367	0.105114
1075.636033	0.105355
1075.799681	0.106222
1075.963311	0.106114
1076.126923	0.110026
1076.290516	0.106370
1076.454092	0.104558
1076.617649	0.104119
1076.781187	0.103342
1076.944708	0.107183
1077.108210	0.109072
1077.271695	0.110303
1077.435160	0.112970
1077.598608	0.111504
1077.762038	0.113275
1077.925449	0.115259
1078.088842	0.115112
1078.252217	0.115159
1078.415573	0.112359
1078.578912	0.107647
1078.742232	0.105837
1078.905534	0.104870
1079.068817	0.102972
1079.232083	0.101449
1079.395330	0.100824
1079.558559	0.100692
1079.721770	0.100555
1079.884962	0.101743
1080.048136	0.103556
1080.211293	0.104791
1080.374430	0.104366
1080.537550	0.104574
1080.700651	0.105031
1080.863735	0.102950
1081.026800	0.101608
1081.189846	0.098625
1081.352875	0.100281
1081.515885	0.099775
1081.678877	0.098771
1081.841851	0.099414
1082.004807	0.103140
1082.167744	0.100758
1082.330663	0.103540
1082.493564	0.106370
1082.656447	0.107333
1082.819312	0.106876
1082.982158	0.105341
1083.144986	0.106050
1083.307796	0.104670
1083.470587	0.102007
1083.633361	0.104124
1083.796116	0.103756
1083.958853	0.102443
1084.121571	0.103391
1084.284272	0.103153
1084.446954	0.106604
1084.609618	0.107699
1084.772264	0.108521
1084.934892	0.109830
1085.097501	0.110299
1085.260092	0.110053
1085.422665	0.111970
1085.585220	0.112307
1085.747756	0.114849
1085.910274	0.115138
1086.072774	0.113913
1086.235256	0.114550
1086.397720	0.113645
1086.560165	0.114965
1086.722592	0.115296
1086.885001	0.116148
1087.047392	0.117154
1087.209764	0.114917
1087.372119	0.115020
1087.534455	0.118539
1087.696772	0.118823
1087.859072	0.121978
1088.021353	0.118998
1088.183616	0.117618
1088.345861	0.115833
1088.508088	0.114019
1088.670296	0.111396
1088.832486	0.111042
1088.994658	0.106660
1089.156812	0.105313
1089.318948	0.104182
1089.481065	0.108602
1089.643164	0.107588
1089.805245	0.104958
1089.967308	0.105735
1090.129352	0.107391
1090.291378	0.105085
1090.453386	0.104781
1090.615376	0.106078
1090.777347	0.104114
1090.939301	0.102114
1091.101236	0.104694
1091.263153	0.109553
1091.425051	0.111037
1091.586932	0.108919
1091.748794	0.109064
1091.910638	0.109975
1092.072463	0.108270
1092.234271	0.112528
1092.396060	0.112698
1092.557831	0.113970
1092.719584	0.112886
1092.881319	0.113809
1093.043035	0.116052
1093.204733	0.120897
1093.366413	0.124684
1093.528075	0.124932
1093.689718	0.121635
1093.851343	0.119863
1094.012950	0.116142
1094.174539	0.115494
1094.336110	0.110707
1094.497662	0.113058
1094.659196	0.109226
1094.820712	0.105717
1094.982210	0.108453
1095.143689	0.108270
1095.305151	0.113772
1095.466594	0.116245
1095.628018	0.115912
1095.789425	0.121385
1095.950813	0.120267
1096.112183	0.122147
1096.273535	0.124463
1096.434869	0.122318
1096.596184	0.124480
1096.757482	0.122473
1096.918761	0.121695
1097.080021	0.123049
1097.241264	0.118974
1097.402488	0.116934
1097.563694	0.117344
1097.724882	0.116383
1097.886052	0.116780
1098.047203	0.115376
1098.208336	0.114750
1098.369451	0.116525
1098.530548	0.114988
1098.691627	0.113515
1098.852687	0.115455
1099.013729	0.111996
1099.174753	0.112376
1099.335758	0.111424
1099.496746	0.111031
1099.657715	0.108825
1099.818666	0.108496
1099.979599	0.108700
1100.140513	0.107867
1100.301409	0.107262
1100.462287	0.109174
1100.623147	0.104628
1100.783989	0.107089
1100.944812	0.102986
1101.105617	0.108239
1101.266404	0.111229
1101.427173	0.112935
1101.587923	0.119401
1101.748656	0.119027
1101.909370	0.119106
1102.070066	0.122547
1102.230743	0.119380
1102.391403	0.122424
1102.552044	0.117939
1102.712667	0.110929
1102.873271	0.112921
1103.033858	0.111737
1103.194426	0.114485
1103.354976	0.115782
1103.515508	0.117462
1103.676021	0.120904
1103.836517	0.122457
1103.996994	0.122090
1104.157453	0.126508
1104.317893	0.122268
1104.478316	0.120846
1104.638720	0.117826
1104.799106	0.117271
1104.959474	0.118964
1105.119823	0.119029
1105.280155	0.117687
1105.440468	0.119381
1105.600763	0.121392
1105.761039	0.126421
1105.921298	0.126239
1106.081538	0.127478
1106.241760	0.128364
1106.401964	0.125594
1106.562149	0.125231
1106.722316	0.125934
1106.882465	0.129132
1107.042596	0.126978
1107.202709	0.121497
1107.362803	0.127110
1107.522879	0.129247
1107.682937	0.123154
1107.842977	0.119752
1108.002999	0.121337
1108.163002	0.120543
1108.322987	0.117907
1108.482954	0.118966
1108.642902	0.125154
1108.802833	0.118224
1108.962745	0.113000
1109.122639	0.120226
1109.282515	0.125849
1109.442372	0.122154
1109.602211	0.127230
1109.762032	0.130738
1109.921835	0.130775
1110.081620	0.126669
1110.241386	0.129588
1110.401134	0.133101
1110.560864	0.129240
1110.720576	0.124033
1110.880269	0.123428
1111.039945	0.116906
1111.199602	0.114189
1111.359240	0.119164
1111.518861	0.121010
1111.678463	0.122064
1111.838047	0.120180
1111.997613	0.127165
1112.157161	0.134123
1112.316690	0.139246
1112.476202	0.142619
1112.635695	0.142543
1112.795169	0.141231
1112.954626	0.138956
1113.114064	0.141029
1113.273484	0.142095
1113.432886	0.138494
1113.592270	0.134730
1113.751635	0.129767
1113.910983	0.131292
1114.070312	0.129261
1114.229622	0.122704
1114.388915	0.127407
1114.548189	0.122860
1114.707445	0.129600
1114.866683	0.128651
1115.025903	0.126711
1115.185104	0.126299
1115.344287	0.123748
1115.503452	0.128889
1115.662599	0.129217
1115.821727	0.125610
1115.980838	0.126502
1116.139930	0.121208
1116.299004	0.122374
1116.458059	0.120679
1116.617097	0.124203
1116.776116	0.122857
1116.935117	0.120832
1117.094099	0.124117
1117.253064	0.124229
1117.412010	0.128478
1117.570938	0.123757
1117.729848	0.126761
1117.888740	0.130062
1118.047613	0.128035
1118.206468	0.133898
1118.365305	0.135351
1118.524124	0.136867
1118.682924	0.137238
1118.841707	0.132768
1119.000471	0.137357
1119.159216	0.132845
1119.317944	0.132260
1119.476653	0.136814
1119.635344	0.133729
1119.794017	0.132979
1119.952672	0.128756
1120.111308	0.128151
1120.269927	0.130797
1120.428527	0.132444
1120.587108	0.128830
1120.745672	0.132873
1120.904217	0.126738
1121.062744	0.132080
1121.221253	0.125619
1121.379744	0.121696
1121.538216	0.117918
1121.696671	0.111744
1121.855107	0.114003
1122.013524	0.120572
1122.171924	0.118506
1122.330305	0.120978
1122.488668	0.117551
1122.647013	0.124444
1122.805340	0.131445
1122.963648	0.132013
1123.121938	0.138528
1123.280210	0.134692
1123.438464	0.136329
1123.596700	0.137161
1123.754917	0.136415
1123.913116	0.130209
1124.071297	0.125840
1124.229459	0.127065
1124.387604	0.130987
1124.545730	0.126546
1124.703838	0.126812
1124.861928	0.120119
1125.019999	0.117236
1125.178052	0.120904
1125.336088	0.128856
1125.494104	0.130584
1125.652103	0.133868
1125.810083	0.131645
1125.968045	0.138383
1126.125989	0.144441
1126.283915	0.151497
1126.441823	0.155275
1126.599712	0.159605
1126.757583	0.158191
1126.915436	0.161516
1127.073270	0.155196
1127.231087	0.159601
1127.388885	0.160512
1127.546665	0.151887
1127.704426	0.144086
1127.862170	0.144635
1128.019895	0.140591
1128.177602	0.136294
1128.335291	0.133126
1128.492961	0.137273
1128.650614	0.130698
1128.808248	0.121958
1128.965864	0.123366
1129.123461	0.125761
1129.281041	0.123053
1129.438602	0.125189
1129.596145	0.124081
1129.753670	0.124199
1129.911176	0.125097
1130.068665	0.135261
1130.226135	0.140637
1130.383587	0.137799
1130.541020	0.138767
1130.698436	0.143373
1130.855833	0.137334
1131.013212	0.140436
1131.170573	0.138071
1131.327915	0.126828
1131.485239	0.119568
1131.642545	0.117261
1131.799833	0.117561
1131.957103	0.114413
1132.114354	0.115189
1132.271588	0.117197
1132.428803	0.124279
1132.585999	0.125011
1132.743178	0.130733
1132.900338	0.126173
1133.057480	0.122533
1133.214604	0.130580
1133.371710	0.132331
1133.528797	0.126527
1133.685866	0.125933
1133.842917	0.123721
1133.999950	0.130860
1134.156964	0.133901
1134.313960	0.144194
1134.470938	0.151015
1134.627898	0.144008
1134.784840	0.155048
1134.941763	0.156271
1135.098668	0.159941
1135.255555	0.157370
1135.412424	0.153175
1135.569274	0.159272
1135.726107	0.154729
1135.882921	0.152791
1136.039716	0.150390
1136.196494	0.143401
1136.353253	0.145729
1136.509995	0.140812
1136.666717	0.143925
1136.823422	0.149543
1136.980109	0.136462
1137.136777	0.139751
1137.293427	0.136626
1137.450059	0.147799
1137.606672	0.142758
1137.763267	0.142300
1137.919844	0.138312
1138.076403	0.131167
1138.232944	0.129606
1138.389466	0.132940
1138.545971	0.124743
1138.702457	0.132653
1138.858924	0.128068
1139.015374	0.132517
1139.171805	0.135607
1139.328218	0.141915
1139.484613	0.145144
1139.640990	0.136683
1139.797348	0.141087
1139.953688	0.156081
1140.110010	0.157410
1140.266314	0.164125
1140.422600	0.168736
1140.578867	0.157140
1140.735116	0.158958
1140.891347	0.161335
1141.047559	0.169387
1141.203754	0.167832
1141.359930	0.161340
1141.516088	0.152913
1141.672228	0.148660
1141.828349	0.137355
1141.984452	0.153869
1142.140537	0.150232
1142.296604	0.145317
1142.452653	0.137524
1142.608683	0.134778
1142.764695	0.126507
1142.920689	0.123406
1143.076665	0.119395
1143.232622	0.127966
1143.388562	0.122473
1143.544483	0.117875
1143.700385	0.122003
1143.856270	0.127712
1144.012136	0.125117
1144.167985	0.132151
1144.323814	0.141620
1144.479626	0.139232
1144.635420	0.136339
1144.791195	0.130590
1144.946952	0.142958
1145.102691	0.135740
1145.258411	0.136968
1145.414113	0.143143
1145.569798	0.139856
1145.725463	0.140171
1145.881111	0.139054
1146.036741	0.146415
1146.192352	0.140488
1146.347945	0.134212
1146.503519	0.142549
1146.659076	0.136651
1146.814614	0.133279
1146.970134	0.130013
1147.125636	0.131796
1147.281120	0.137490
1147.436585	0.135091
1147.592032	0.147998
1147.747461	0.146627
1147.902872	0.140407
1148.058265	0.140332
1148.213639	0.130377
1148.368995	0.140521
1148.524333	0.130555
1148.679653	0.133437
1148.834954	0.126915
1148.990237	0.119391
1149.145502	0.120761
1149.300749	0.124921
1149.455977	0.128564
1149.611188	0.137498
1149.766380	0.131312
1149.921553	0.143599
1150.076709	0.140661
1150.231846	0.142852
1150.386966	0.144253
1150.542066	0.151553
1150.697149	0.147516
1150.852214	0.140177
1151.007260	0.148497
1151.162288	0.140591
1151.317298	0.134734
1151.472289	0.136015
1151.627263	0.134539
1151.782218	0.131609
1151.937155	0.120052
1152.092073	0.120303
1152.246974	0.128740
1152.401856	0.118369
1152.556720	0.132883
1152.711566	0.129311
1152.866393	0.130528
1153.021203	0.131866
1153.175994	0.137445
1153.330767	0.139791
1153.485521	0.142737
1153.640258	0.138913
1153.794976	0.137131
1153.949676	0.141112
1154.104358	0.153340
1154.259021	0.147578
1154.413667	0.151619
1154.568294	0.155384
1154.722903	0.165417
1154.877493	0.159075
1155.032066	0.154923
1155.186620	0.161472
1155.341156	0.153748
1155.495674	0.140292
1155.650173	0.143812
1155.804654	0.142285
1155.959118	0.139676
1156.113562	0.133464
1156.267989	0.132901
1156.422397	0.139285
1156.576788	0.143089
1156.731160	0.147889
1156.885513	0.154816
1157.039849	0.149091
1157.194166	0.143449
1157.348465	0.141028
1157.502746	0.143338
1157.657009	0.146934
1157.811253	0.145437
1157.965479	0.135555
1158.119687	0.131715
1158.273877	0.127362
1158.428048	0.127339
1158.582201	0.134831
1158.736337	0.130942
1158.890453	0.140218
1159.044552	0.148659
1159.198632	0.143877
1159.352694	0.143670
1159.506738	0.142708
1159.660764	0.159790
1159.814771	0.167994
1159.968761	0.164477
1160.122732	0.163891
1160.276685	0.156777
1160.430619	0.153296
1160.584535	0.157012
1160.738434	0.173598
1160.892313	0.178699
1161.046175	0.166632
1161.200019	0.165584
1161.353844	0.159052
1161.507651	0.151119
1161.661440	0.143305
1161.815210	0.144332
1161.968962	0.149413
1162.122697	0.136053
1162.276412	0.129141
1162.430110	0.124987
1162.583789	0.126073
1162.737451	0.130925
1162.891094	0.150414
1163.044718	0.152599
1163.198325	0.144467
1163.351913	0.146614
1163.505483	0.149532
1163.659035	0.155497
1163.812569	0.152064
1163.966084	0.159474
1164.119581	0.144298
1164.273060	0.138284
1164.426521	0.144627
1164.579964	0.138413
1164.733388	0.143653
1164.886794	0.147800
1165.040182	0.147213
1165.193551	0.152795
1165.346903	0.140666
1165.500236	0.158833
1165.653551	0.144549
1165.806848	0.130146
1165.960126	0.135047
1166.113386	0.129644
1166.266628	0.129342
1166.419852	0.123597
1166.573058	0.132978
1166.726245	0.140093
1166.879414	0.148667
1167.032565	0.166308
1167.185698	0.171620
1167.338812	0.185244
1167.491909	0.174906
1167.644987	0.178935
1167.798046	0.171636
1167.951088	0.143540
1168.104111	0.141996
1168.257117	0.141175
1168.410103	0.139351
1168.563072	0.150763
1168.716023	0.142081
1168.868955	0.143525
1169.021869	0.130537
1169.174765	0.132526
1169.327642	0.139925
1169.480501	0.141572
1169.633343	0.125015
1169.786165	0.118640
1169.938970	0.114576
1170.091757	0.114638
1170.244525	0.125908
1170.397275	0.137505
1170.550007	0.147874
1170.702720	0.161082
1170.855415	0.156620
1171.008092	0.168469
1171.160751	0.178595
1171.313392	0.177826
1171.466014	0.192337
1171.618619	0.182091
1171.771205	0.182091
1171.923772	0.182091
