sample name	sample
index	1460
start time	 05-10-2021  01:53:17 PM


Wavelength (nm)	Absorbance
494.344910	0.014252
494.563924	0.014252
494.782919	0.014252
495.001897	-0.033955
495.220856	-0.000567
495.439797	-0.002412
495.658719	-0.006108
495.877624	-0.009437
496.096510	0.003946
496.315378	0.004937
496.534227	0.013227
496.753059	0.005291
496.971872	0.002589
497.190667	0.048512
497.409444	0.068613
497.628203	0.079412
497.846943	0.083625
498.065665	0.083353
498.284369	0.085309
498.503055	0.086890
498.721723	0.089084
498.940372	0.090610
499.159003	0.089929
499.377616	0.089908
499.596210	0.088302
499.814787	0.088707
500.033345	0.088867
500.251885	0.088280
500.470406	0.087570
500.688910	0.086808
500.907395	0.086500
501.125862	0.086934
501.344311	0.087062
501.562742	0.087666
501.781154	0.086896
501.999548	0.087162
502.217924	0.087468
502.436282	0.088092
502.654621	0.087829
502.872942	0.087402
503.091245	0.087581
503.309530	0.087773
503.527797	0.087533
503.746045	0.087443
503.964275	0.087545
504.182487	0.087384
504.400681	0.086240
504.618856	0.086254
504.837013	0.086846
505.055152	0.087023
505.273273	0.087259
505.491376	0.087878
505.709460	0.088702
505.927526	0.088713
506.145574	0.088941
506.363604	0.088808
506.581615	0.088844
506.799608	0.087861
507.017583	0.087482
507.235540	0.086976
507.453478	0.086464
507.671399	0.085184
507.889301	0.085356
508.107185	0.086393
508.325050	0.087885
508.542898	0.088505
508.760727	0.089424
508.978538	0.089740
509.196330	0.089556
509.414105	0.089996
509.631861	0.090708
509.849599	0.089671
510.067319	0.088989
510.285021	0.088657
510.502704	0.088526
510.720369	0.088647
510.938016	0.088325
511.155645	0.088448
511.373255	0.088988
511.590848	0.089310
511.808422	0.090215
512.025977	0.090391
512.243515	0.089744
512.461034	0.089870
512.678536	0.089599
512.896018	0.089800
513.113483	0.089516
513.330930	0.088681
513.548358	0.089619
513.765768	0.090225
513.983160	0.089664
514.200533	0.090319
514.417889	0.090776
514.635226	0.091229
514.852545	0.091858
515.069845	0.092556
515.287128	0.092767
515.504392	0.092297
515.721638	0.090990
515.938866	0.091516
516.156075	0.091384
516.373267	0.090947
516.590440	0.090124
516.807594	0.089616
517.024731	0.089434
517.241850	0.089850
517.458950	0.089369
517.676032	0.090576
517.893095	0.091182
518.110141	0.092543
518.327168	0.092449
518.544177	0.094090
518.761168	0.094492
518.978141	0.095536
519.195095	0.095924
519.412031	0.095732
519.628949	0.095162
519.845849	0.094962
520.062731	0.094162
520.279594	0.094434
520.496439	0.092856
520.713266	0.092693
520.930074	0.092092
521.146865	0.091719
521.363637	0.092873
521.580391	0.093908
521.797127	0.094007
522.013844	0.093919
522.230543	0.094669
522.447224	0.095173
522.663887	0.096120
522.880532	0.096127
523.097158	0.096817
523.313766	0.096505
523.530356	0.096675
523.746928	0.096911
523.963481	0.097452
524.180017	0.097357
524.396534	0.097884
524.613032	0.097551
524.829513	0.098290
525.045975	0.098393
525.262420	0.098572
525.478845	0.098332
525.695253	0.098088
525.911643	0.098115
526.128014	0.098072
526.344367	0.098523
526.560702	0.098721
526.777018	0.098752
526.993316	0.099060
527.209597	0.099201
527.425858	0.098827
527.642102	0.099728
527.858328	0.100001
528.074535	0.100047
528.290724	0.099968
528.506894	0.100677
528.723047	0.101092
528.939181	0.100865
529.155297	0.100628
529.371395	0.101465
529.587475	0.100436
529.803536	0.100546
530.019579	0.100972
530.235604	0.101472
530.451611	0.100804
530.667600	0.100615
530.883570	0.100179
531.099522	0.100931
531.315456	0.100868
531.531372	0.101611
531.747269	0.101455
531.963148	0.101694
532.179009	0.101732
532.394852	0.101955
532.610676	0.101654
532.826482	0.101899
533.042271	0.101568
533.258040	0.101642
533.473792	0.101381
533.689525	0.101450
533.905240	0.101237
534.120937	0.100833
534.336616	0.101023
534.552277	0.101535
534.767919	0.102294
534.983543	0.103263
535.199149	0.103985
535.414736	0.104967
535.630306	0.105176
535.845857	0.105578
536.061390	0.106123
536.276904	0.106270
536.492401	0.106447
536.707879	0.106481
536.923339	0.105870
537.138781	0.105549
537.354204	0.105452
537.569610	0.105380
537.784997	0.105595
538.000366	0.105795
538.215716	0.105713
538.431049	0.105663
538.646363	0.105966
538.861659	0.106666
539.076937	0.106849
539.292196	0.106705
539.507438	0.107082
539.722661	0.106795
539.937866	0.106513
540.153052	0.106827
540.368221	0.107464
540.583371	0.107323
540.798503	0.107134
541.013617	0.107443
541.228712	0.107706
541.443789	0.107496
541.658848	0.107953
541.873889	0.108289
542.088912	0.108669
542.303916	0.108618
542.518902	0.108791
542.733870	0.108949
542.948820	0.109033
543.163752	0.108875
543.378665	0.109341
543.593560	0.109231
543.808437	0.109665
544.023295	0.109279
544.238136	0.109094
544.452958	0.109427
544.667762	0.108952
544.882548	0.108775
545.097315	0.109198
545.312064	0.109307
545.526795	0.109398
545.741508	0.109288
545.956203	0.109849
546.170879	0.110108
546.385537	0.109928
546.600177	0.111016
546.814799	0.111104
547.029402	0.111600
547.243988	0.111809
547.458555	0.112256
547.673103	0.112371
547.887634	0.112430
548.102146	0.112362
548.316640	0.112768
548.531116	0.112370
548.745574	0.113153
548.960013	0.112720
549.174435	0.113219
549.388838	0.113388
549.603222	0.113208
549.817589	0.113129
550.031937	0.113535
550.246267	0.113431
550.460579	0.113727
550.674873	0.113133
550.889148	0.113210
551.103405	0.112925
551.317644	0.112742
551.531865	0.113184
551.746068	0.113267
551.960252	0.113246
552.174418	0.113664
552.388566	0.113324
552.602696	0.113833
552.816807	0.113921
553.030900	0.113711
553.244975	0.113720
553.459032	0.113704
553.673070	0.113845
553.887091	0.114132
554.101093	0.114117
554.315077	0.114419
554.529042	0.114163
554.742990	0.114057
554.956919	0.114595
555.170830	0.115009
555.384722	0.115270
555.598597	0.115374
555.812453	0.115517
556.026291	0.115370
556.240111	0.115864
556.453913	0.116243
556.667696	0.116450
556.881461	0.116397
557.095208	0.116001
557.308937	0.116165
557.522647	0.116265
557.736339	0.115907
557.950013	0.115935
558.163669	0.115858
558.377307	0.115429
558.590926	0.115520
558.804527	0.115650
559.018110	0.115555
559.231675	0.115365
559.445221	0.115169
559.658749	0.115295
559.872259	0.115095
560.085751	0.114677
560.299225	0.114755
560.512680	0.114918
560.726117	0.114679
560.939536	0.115074
561.152937	0.115614
561.366319	0.115873
561.579683	0.115914
561.793029	0.116296
562.006357	0.116497
562.219667	0.116535
562.432958	0.116244
562.646231	0.116839
562.859486	0.116899
563.072723	0.116416
563.285941	0.116296
563.499141	0.116185
563.712323	0.116657
563.925487	0.116838
564.138632	0.117234
564.351760	0.117580
564.564869	0.117292
564.777960	0.117143
564.991032	0.116922
565.204087	0.117158
565.417123	0.117236
565.630141	0.116737
565.843140	0.116838
566.056122	0.116876
566.269085	0.117241
566.482030	0.116954
566.694957	0.117424
566.907866	0.117602
567.120756	0.117607
567.333628	0.117930
567.546482	0.118236
567.759318	0.117940
567.972135	0.118139
568.184935	0.117800
568.397716	0.118279
568.610478	0.118200
568.823223	0.118700
569.035949	0.118762
569.248657	0.118652
569.461347	0.118568
569.674019	0.119099
569.886672	0.118942
570.099308	0.119052
570.311925	0.118813
570.524523	0.118812
570.737104	0.118778
570.949666	0.119032
571.162210	0.118988
571.374736	0.118769
571.587244	0.118855
571.799733	0.118755
572.012205	0.119004
572.224658	0.119484
572.437092	0.119416
572.649509	0.119193
572.861907	0.119107
573.074287	0.119397
573.286649	0.119864
573.498993	0.119515
573.711318	0.119884
573.923625	0.119964
574.135914	0.119799
574.348185	0.120115
574.560438	0.120372
574.772672	0.120777
574.984888	0.120595
575.197086	0.120631
575.409266	0.120770
575.621427	0.120791
575.833570	0.120975
576.045695	0.121139
576.257802	0.121016
576.469890	0.121532
576.681961	0.121455
576.894013	0.121876
577.106046	0.122253
577.318062	0.122539
577.530059	0.122558
577.742039	0.122410
577.954000	0.122518
578.165942	0.122734
578.377867	0.122389
578.589773	0.122153
578.801661	0.122011
579.013531	0.122080
579.225382	0.122163
579.437216	0.122845
579.649031	0.123044
579.860828	0.123095
580.072606	0.123395
580.284367	0.123466
580.496109	0.124116
580.707833	0.124433
580.919539	0.124196
581.131227	0.124568
581.342896	0.124176
581.554547	0.124391
581.766180	0.124478
581.977795	0.124488
582.189391	0.124729
582.400969	0.124568
582.612529	0.124676
582.824071	0.125015
583.035595	0.124903
583.247100	0.125126
583.458587	0.125245
583.670056	0.125268
583.881506	0.125174
584.092939	0.125383
584.304353	0.125403
584.515749	0.125486
584.727127	0.125247
584.938486	0.124942
585.149828	0.124986
585.361151	0.125062
585.572456	0.125136
585.783742	0.125489
585.995011	0.125339
586.206261	0.125708
586.417493	0.125925
586.628706	0.126278
586.839902	0.126743
587.051079	0.126785
587.262238	0.126575
587.473379	0.126689
587.684502	0.126385
587.895606	0.126357
588.106692	0.126136
588.317760	0.125865
588.528810	0.126234
588.739841	0.126525
588.950855	0.126728
589.161850	0.126844
589.372827	0.127184
589.583785	0.127731
589.794726	0.128146
590.005648	0.128631
590.216552	0.129166
590.427437	0.128830
590.638305	0.128969
590.849154	0.129092
591.059985	0.129152
591.270798	0.129051
591.481592	0.129134
591.692369	0.129315
591.903127	0.129424
592.113867	0.129355
592.324588	0.129396
592.535292	0.129555
592.745977	0.129487
592.956644	0.129994
593.167293	0.130085
593.377923	0.130273
593.588536	0.130244
593.799130	0.130070
594.009706	0.130287
594.220263	0.130447
594.430803	0.130091
594.641324	0.130035
594.851827	0.129966
595.062312	0.130149
595.272778	0.130010
595.483227	0.129867
595.693657	0.129674
595.904069	0.129698
596.114462	0.129842
596.324838	0.130055
596.535195	0.130201
596.745534	0.130280
596.955855	0.130365
597.166157	0.130786
597.376441	0.131132
597.586707	0.131531
597.796955	0.131505
598.007185	0.131427
598.217396	0.131480
598.427589	0.131607
598.637764	0.131831
598.847921	0.131756
599.058060	0.131440
599.268180	0.131263
599.478282	0.131210
599.688366	0.131242
599.898431	0.131239
600.108479	0.131412
600.318508	0.131432
600.528519	0.131276
600.738511	0.131440
600.948486	0.131408
601.158442	0.131368
601.368380	0.131642
601.578300	0.131636
601.788202	0.131848
601.998085	0.131663
602.207950	0.131709
602.417797	0.131827
602.627626	0.132038
602.837436	0.132341
603.047228	0.132606
603.257002	0.132364
603.466758	0.132886
603.676496	0.133170
603.886215	0.133674
604.095916	0.133992
604.305599	0.134220
604.515264	0.134093
604.724910	0.134030
604.934538	0.134233
605.144148	0.134365
605.353740	0.134241
605.563314	0.134184
605.772869	0.134198
605.982406	0.134442
606.191925	0.134501
606.401425	0.134805
606.610908	0.134914
606.820372	0.134919
607.029818	0.134977
607.239246	0.135094
607.448655	0.135423
607.658047	0.135216
607.867420	0.134702
608.076775	0.134553
608.286111	0.134278
608.495430	0.134134
608.704730	0.134223
608.914012	0.134338
609.123275	0.134413
609.332521	0.134233
609.541748	0.134546
609.750957	0.135023
609.960148	0.135048
610.169321	0.135412
610.378475	0.135783
610.587611	0.135957
610.796729	0.136120
611.005829	0.136225
611.214910	0.136264
611.423974	0.136315
611.633019	0.136547
611.842045	0.136765
612.051054	0.136632
612.260044	0.136469
612.469017	0.136360
612.677970	0.136434
612.886906	0.136349
613.095824	0.136354
613.304723	0.136445
613.513604	0.136145
613.722467	0.136208
613.931311	0.136475
614.140138	0.136604
614.348946	0.137133
614.557736	0.137213
614.766507	0.137414
614.975261	0.137699
615.183996	0.137875
615.392713	0.138472
615.601412	0.138532
615.810092	0.138469
616.018754	0.138699
616.227399	0.138365
616.436024	0.138559
616.644632	0.138609
616.853222	0.138469
617.061793	0.138645
617.270346	0.138415
617.478880	0.138751
617.687397	0.138926
617.895895	0.139200
618.104375	0.139475
618.312837	0.139578
618.521281	0.139511
618.729706	0.139887
618.938113	0.139674
619.146502	0.139559
619.354873	0.139432
619.563226	0.139626
619.771560	0.139607
619.979876	0.139464
620.188174	0.139374
620.396453	0.139410
620.604715	0.139283
620.812958	0.139242
621.021183	0.139497
621.229390	0.139644
621.437578	0.139629
621.645748	0.139542
621.853900	0.139709
622.062034	0.139749
622.270150	0.139727
622.478247	0.139739
622.686326	0.139888
622.894387	0.139913
623.102430	0.139633
623.310454	0.139723
623.518461	0.139810
623.726449	0.139765
623.934418	0.139873
624.142370	0.140225
624.350303	0.140575
624.558218	0.140733
624.766115	0.140616
624.973994	0.140929
625.181855	0.140745
625.389697	0.140743
625.597521	0.140978
625.805327	0.141075
626.013114	0.140924
626.220883	0.140811
626.428634	0.140817
626.636367	0.140926
626.844082	0.140886
627.051778	0.141195
627.259457	0.141413
627.467117	0.141403
627.674758	0.141292
627.882382	0.141297
628.089987	0.141256
628.297574	0.141493
628.505143	0.141864
628.712694	0.142003
628.920226	0.141929
629.127740	0.141803
629.335236	0.141910
629.542714	0.141944
629.750174	0.142072
629.957615	0.142151
630.165038	0.142159
630.372443	0.142068
630.579829	0.142042
630.787198	0.142063
630.994548	0.141920
631.201880	0.141472
631.409194	0.141650
631.616489	0.141745
631.823766	0.141940
632.031025	0.142123
632.238266	0.142078
632.445489	0.142327
632.652693	0.142433
632.859879	0.142919
633.067047	0.143610
633.274197	0.143983
633.481329	0.143945
633.688442	0.143958
633.895537	0.144049
634.102614	0.144207
634.309672	0.144193
634.516713	0.144309
634.723735	0.144162
634.930739	0.144013
635.137724	0.143941
635.344692	0.144042
635.551641	0.144298
635.758572	0.143969
635.965485	0.143957
636.172379	0.143963
636.379256	0.144310
636.586114	0.144364
636.792954	0.144498
636.999775	0.144561
637.206579	0.145035
637.413364	0.145073
637.620131	0.145353
637.826880	0.145678
638.033610	0.146107
638.240323	0.146161
638.447017	0.146374
638.653692	0.146582
638.860350	0.146820
639.066990	0.146895
639.273611	0.146782
639.480214	0.146900
639.686798	0.146987
639.893365	0.147014
640.099913	0.147034
640.306443	0.147270
640.512955	0.147530
640.719449	0.147410
640.925924	0.147575
641.132381	0.147856
641.338820	0.147918
641.545241	0.147842
641.751644	0.147811
641.958028	0.147786
642.164394	0.147814
642.370742	0.147740
642.577071	0.147998
642.783383	0.147885
642.989676	0.148011
643.195951	0.148171
643.402207	0.148119
643.608446	0.148197
643.814666	0.148373
644.020868	0.148488
644.227052	0.148676
644.433218	0.148633
644.639365	0.148759
644.845494	0.148922
645.051605	0.148924
645.257698	0.149519
645.463772	0.149675
645.669828	0.149994
645.875866	0.150048
646.081886	0.150017
646.287888	0.150212
646.493871	0.150329
646.699836	0.150402
646.905783	0.150758
647.111712	0.150657
647.317622	0.150966
647.523514	0.150875
647.729388	0.151011
647.935244	0.151065
648.141082	0.151332
648.346901	0.150964
648.552702	0.150946
648.758485	0.150938
648.964250	0.151129
649.169996	0.150934
649.375724	0.150936
649.581434	0.151148
649.787126	0.151468
649.992800	0.151259
650.198455	0.151620
650.404092	0.151755
650.609711	0.151394
650.815311	0.151287
651.020894	0.151452
651.226458	0.151347
651.432004	0.151306
651.637532	0.150978
651.843041	0.151039
652.048532	0.151238
652.254006	0.151140
652.459460	0.151522
652.664897	0.151530
652.870315	0.151602
653.075716	0.151832
653.281097	0.151867
653.486461	0.152110
653.691807	0.152421
653.897134	0.152452
654.102443	0.152486
654.307734	0.152632
654.513006	0.152805
654.718261	0.152864
654.923497	0.153124
655.128715	0.153193
655.333915	0.153300
655.539096	0.153399
655.744259	0.153452
655.949404	0.153871
656.154531	0.154067
656.359640	0.154286
656.564730	0.154283
656.769802	0.154457
656.974856	0.154793
657.179892	0.154671
657.384909	0.154639
657.589908	0.154805
657.794889	0.154595
657.999852	0.154632
658.204797	0.154648
658.409723	0.154750
658.614631	0.154524
658.819521	0.154409
659.024393	0.154857
659.229246	0.155081
659.434081	0.155248
659.638898	0.155582
659.843697	0.155648
660.048478	0.155593
660.253240	0.155853
660.457984	0.156026
660.662710	0.156175
660.867417	0.155922
661.072107	0.155773
661.276778	0.155836
661.481431	0.155944
661.686066	0.156222
661.890682	0.156482
662.095281	0.156539
662.299861	0.156751
662.504422	0.156732
662.708966	0.157114
662.913491	0.157404
663.117999	0.157498
663.322488	0.157469
663.526958	0.157324
663.731411	0.157444
663.935845	0.157544
664.140261	0.157428
664.344659	0.157433
664.549038	0.157459
664.753400	0.157292
664.957743	0.157116
665.162068	0.156894
665.366375	0.156793
665.570663	0.156890
665.774933	0.156647
665.979185	0.156765
666.183419	0.156785
666.387635	0.156755
666.591832	0.156939
666.796011	0.157318
667.000172	0.157588
667.204315	0.157564
667.408439	0.157286
667.612545	0.157511
667.816634	0.157536
668.020703	0.157777
668.224755	0.157892
668.428788	0.157916
668.632803	0.157757
668.836800	0.157714
669.040779	0.157999
669.244739	0.158101
669.448681	0.158154
669.652605	0.158332
669.856511	0.158376
670.060399	0.158595
670.264268	0.158528
670.468119	0.158794
670.671952	0.159301
670.875767	0.159533
671.079563	0.159945
671.283341	0.160293
671.487101	0.160519
671.690843	0.160741
671.894567	0.160898
672.098272	0.161371
672.301959	0.161625
672.505628	0.161616
672.709278	0.161882
672.912911	0.162093
673.116525	0.162151
673.320121	0.162026
673.523699	0.162221
673.727258	0.162111
673.930799	0.162168
674.134322	0.162155
674.337827	0.162310
674.541314	0.162386
674.744782	0.162196
674.948232	0.162213
675.151664	0.162434
675.355078	0.162462
675.558474	0.162655
675.761851	0.162756
675.965210	0.162842
676.168551	0.162939
676.371873	0.162855
676.575178	0.163100
676.778464	0.163225
676.981732	0.163412
677.184981	0.163240
677.388213	0.163185
677.591426	0.163258
677.794621	0.163470
677.997798	0.163479
678.200956	0.163457
678.404097	0.163487
678.607219	0.163516
678.810323	0.163666
679.013408	0.164047
679.216476	0.164403
679.419525	0.164494
679.622556	0.164741
679.825569	0.165008
680.028563	0.165321
680.231540	0.165316
680.434498	0.165692
680.637438	0.165673
680.840359	0.165816
681.043263	0.165988
681.246148	0.165890
681.449015	0.165877
681.651864	0.165820
681.854694	0.165872
682.057506	0.166122
682.260301	0.165850
682.463076	0.165939
682.665834	0.166075
682.868573	0.166036
683.071295	0.166237
683.273998	0.166296
683.476682	0.166450
683.679349	0.166608
683.881997	0.166707
684.084627	0.167014
684.287239	0.167096
684.489833	0.167056
684.692408	0.167239
684.894965	0.167193
685.097504	0.167428
685.300025	0.167440
685.502527	0.167299
685.705012	0.167380
685.907478	0.167252
686.109925	0.167480
686.312355	0.167348
686.514766	0.167349
686.717159	0.167370
686.919534	0.167159
687.121891	0.167156
687.324230	0.167357
687.526550	0.167311
687.728852	0.167534
687.931136	0.167297
688.133401	0.167344
688.335649	0.167061
688.537878	0.167155
688.740089	0.167154
688.942281	0.167207
689.144456	0.167261
689.346612	0.167390
689.548750	0.167480
689.750870	0.167780
689.952971	0.167966
690.155055	0.168368
690.357120	0.168515
690.559167	0.168502
690.761195	0.168612
690.963206	0.168727
691.165198	0.168785
691.367172	0.169065
691.569128	0.169144
691.771065	0.169409
691.972984	0.169580
692.174885	0.170043
692.376768	0.170322
692.578633	0.170418
692.780479	0.170426
692.982308	0.170441
693.184118	0.170444
693.385909	0.170551
693.587683	0.170395
693.789438	0.170369
693.991175	0.170117
694.192894	0.170171
694.394595	0.170364
694.596277	0.170667
694.797941	0.170981
694.999587	0.170930
695.201215	0.170955
695.402824	0.171263
695.604416	0.171432
695.805989	0.171560
696.007543	0.171692
696.209080	0.171715
696.410598	0.171566
696.612099	0.171396
696.813580	0.171453
697.015044	0.171376
697.216490	0.171359
697.417917	0.171349
697.619326	0.171438
697.820717	0.171436
698.022089	0.171303
698.223444	0.171470
698.424780	0.171632
698.626098	0.171704
698.827397	0.171900
699.028679	0.172069
699.229942	0.171948
699.431187	0.171935
699.632414	0.172012
699.833622	0.172189
700.034813	0.172201
700.235985	0.172252
700.437139	0.172215
700.638274	0.172473
700.839392	0.172429
701.040491	0.172849
701.241572	0.173157
701.442635	0.173364
701.643679	0.173381
701.844706	0.173379
702.045714	0.173274
702.246704	0.173355
702.447675	0.173335
702.648629	0.173329
702.849564	0.173231
703.050481	0.173254
703.251380	0.173194
703.452260	0.173383
703.653122	0.173481
703.853966	0.173598
704.054792	0.173739
704.255600	0.173485
704.456389	0.173530
704.657160	0.173402
704.857913	0.173281
705.058648	0.173160
705.259365	0.173119
705.460063	0.172980
705.660743	0.173215
705.861405	0.173218
706.062048	0.173296
706.262674	0.173426
706.463281	0.173327
706.663870	0.173237
706.864441	0.173163
707.064993	0.173329
707.265527	0.173508
707.466043	0.173396
707.666541	0.173329
707.867021	0.173623
708.067482	0.173402
708.267925	0.173557
708.468350	0.173827
708.668757	0.174113
708.869145	0.173992
709.069516	0.173905
709.269868	0.174061
709.470201	0.174024
709.670517	0.173641
709.870814	0.173771
710.071093	0.173928
710.271354	0.173725
710.471597	0.173690
710.671821	0.173658
710.872028	0.173572
711.072216	0.173663
711.272385	0.173775
711.472537	0.173946
711.672670	0.173877
711.872785	0.173694
712.072882	0.173848
712.272961	0.173793
712.473021	0.173840
712.673063	0.174187
712.873087	0.174061
713.073093	0.174272
713.273081	0.174538
713.473050	0.174885
713.673001	0.175036
713.872934	0.175059
714.072849	0.175375
714.272745	0.175701
714.472623	0.175793
714.672483	0.175953
714.872325	0.175873
715.072148	0.175801
715.271954	0.175796
715.471741	0.175834
715.671509	0.175867
715.871260	0.175672
716.070992	0.175674
716.270707	0.175639
716.470403	0.175620
716.670080	0.175612
716.869740	0.175665
717.069381	0.175703
717.269004	0.175764
717.468609	0.175662
717.668195	0.175573
717.867764	0.175519
718.067314	0.175529
718.266846	0.175531
718.466360	0.175608
718.665855	0.175461
718.865332	0.175101
719.064791	0.174923
719.264232	0.174901
719.463655	0.174907
719.663059	0.174692
719.862445	0.174469
720.061813	0.174186
720.261163	0.173897
720.460494	0.173808
720.659807	0.174027
720.859102	0.174018
721.058379	0.173954
721.257638	0.173972
721.456878	0.173971
721.656100	0.174045
721.855304	0.174178
722.054490	0.174511
722.253657	0.174421
722.452806	0.174424
722.651937	0.174589
722.851050	0.174694
723.050145	0.174574
723.249221	0.174511
723.448279	0.174454
723.647319	0.174411
723.846340	0.174090
724.045344	0.173971
724.244329	0.173603
724.443296	0.173033
724.642245	0.172776
724.841175	0.172542
725.040088	0.172283
725.238982	0.171915
725.437857	0.171458
725.636715	0.171184
725.835554	0.171255
726.034376	0.171344
726.233179	0.171427
726.431963	0.171348
726.630730	0.171463
726.829478	0.171310
727.028208	0.171390
727.226920	0.171446
727.425614	0.171530
727.624289	0.171444
727.822946	0.171306
728.021585	0.171584
728.220206	0.171560
728.418808	0.171383
728.617392	0.171592
728.815958	0.171755
729.014506	0.171967
729.213036	0.172115
729.411547	0.172132
729.610040	0.172132
729.808515	0.171990
730.006972	0.171864
730.205410	0.171943
730.403831	0.171736
730.602233	0.171464
730.800616	0.171352
730.998982	0.171107
731.197329	0.170894
731.395658	0.170795
731.593969	0.170828
731.792262	0.170907
731.990536	0.170744
732.188793	0.170553
732.387031	0.170610
732.585250	0.170522
732.783452	0.170478
732.981635	0.170425
733.179800	0.170342
733.377947	0.170224
733.576076	0.170098
733.774186	0.170365
733.972278	0.170340
734.170352	0.170071
734.368408	0.169924
734.566446	0.169631
734.764465	0.169511
734.962466	0.169413
735.160449	0.169118
735.358413	0.169162
735.556360	0.168846
735.754288	0.168871
735.952198	0.168718
736.150090	0.168626
736.347963	0.168592
736.545818	0.168444
736.743655	0.168425
736.941474	0.168216
737.139275	0.167986
737.337057	0.167847
737.534821	0.167528
737.732567	0.167523
737.930295	0.167478
738.128005	0.167569
738.325696	0.167817
738.523369	0.167638
738.721024	0.167808
738.918660	0.167893
739.116279	0.167836
739.313879	0.168081
739.511461	0.168236
739.709024	0.168152
739.906570	0.167965
740.104097	0.167796
740.301606	0.167868
740.499097	0.168041
740.696569	0.167712
740.894024	0.167511
741.091460	0.167482
741.288878	0.167137
741.486277	0.166957
741.683659	0.166832
741.881022	0.166604
742.078367	0.166251
742.275694	0.165697
742.473002	0.165528
742.670293	0.165657
742.867565	0.165359
743.064819	0.165404
743.262054	0.165484
743.459272	0.165341
743.656471	0.165130
743.853652	0.165010
744.050815	0.164996
744.247959	0.164872
744.445085	0.164502
744.642194	0.164561
744.839283	0.164435
745.036355	0.164259
745.233408	0.164121
745.430444	0.164123
745.627461	0.164258
745.824459	0.164369
746.021440	0.164449
746.218402	0.164462
746.415346	0.164349
746.612272	0.164195
746.809180	0.164187
747.006069	0.164349
747.202940	0.164404
747.399793	0.164353
747.596628	0.164163
747.793444	0.164189
747.990243	0.164261
748.187023	0.164163
748.383784	0.164162
748.580528	0.164329
748.777253	0.164396
748.973960	0.164259
749.170649	0.164226
749.367320	0.164363
749.563973	0.164371
749.760607	0.164269
749.957223	0.164260
750.153821	0.164045
750.350400	0.163680
750.546962	0.163464
750.743505	0.163423
750.940030	0.163238
751.136536	0.162880
751.333025	0.162826
751.529495	0.162670
751.725947	0.162472
751.922381	0.162424
752.118796	0.162274
752.315194	0.162421
752.511573	0.162187
752.707934	0.162185
752.904276	0.162275
753.100601	0.162050
753.296907	0.161967
753.493195	0.161865
753.689465	0.161789
753.885716	0.161702
754.081949	0.161129
754.278164	0.161085
754.474361	0.160890
754.670540	0.160648
754.866700	0.160618
755.062843	0.160469
755.258967	0.160398
755.455072	0.160199
755.651160	0.159987
755.847229	0.160062
756.043280	0.160010
756.239313	0.159888
756.435328	0.159749
756.631324	0.159625
756.827302	0.159285
757.023262	0.159174
757.219204	0.159105
757.415127	0.159111
757.611033	0.159147
757.806920	0.159064
758.002788	0.159062
758.198639	0.159067
758.394471	0.158938
758.590286	0.159258
758.786081	0.159212
758.981859	0.159143
759.177619	0.159050
759.373360	0.158716
759.569083	0.158726
759.764788	0.158812
759.960474	0.158991
760.156143	0.159019
760.351793	0.158835
760.547425	0.158775
760.743038	0.158939
760.938634	0.159067
761.134211	0.159250
761.329770	0.159296
761.525311	0.159085
761.720833	0.158754
761.916338	0.158638
762.111824	0.158816
762.307292	0.158911
762.502741	0.158900
762.698173	0.158642
762.893586	0.158703
763.088981	0.158660
763.284358	0.158858
763.479716	0.158858
763.675057	0.158934
763.870379	0.158634
764.065683	0.158543
764.260968	0.158528
764.456236	0.158606
764.651485	0.158419
764.846716	0.158383
765.041929	0.158341
765.237123	0.158478
765.432299	0.158397
765.627457	0.158581
765.822597	0.158578
766.017719	0.158420
766.212822	0.158537
766.407907	0.158750
766.602974	0.158377
766.798023	0.158423
766.993054	0.158275
767.188066	0.158123
767.383060	0.157844
767.578036	0.157737
767.772993	0.157735
767.967933	0.157629
768.162854	0.157352
768.357757	0.157458
768.552642	0.156922
768.747508	0.156830
768.942356	0.156761
769.137186	0.156573
769.331998	0.156316
769.526792	0.156223
769.721567	0.156046
769.916324	0.155815
770.111063	0.155787
770.305784	0.155842
770.500486	0.155588
770.695171	0.155406
770.889837	0.155510
771.084484	0.155442
771.279114	0.155350
771.473725	0.155298
771.668318	0.155364
771.862893	0.155340
772.057450	0.155264
772.251988	0.155474
772.446509	0.155589
772.641011	0.155606
772.835494	0.155720
773.029960	0.155724
773.224407	0.155672
773.418836	0.155646
773.613247	0.155566
773.807640	0.155526
774.002014	0.155467
774.196370	0.155266
774.390708	0.155076
774.585028	0.155078
774.779330	0.154849
774.973613	0.154849
775.167878	0.154846
775.362125	0.154801
775.556354	0.154659
775.750564	0.154626
775.944756	0.154729
776.138930	0.154945
776.333086	0.154960
776.527223	0.155188
776.721343	0.155116
776.915444	0.155025
777.109526	0.155086
777.303591	0.155338
777.497637	0.155483
777.691666	0.155452
777.885676	0.155197
778.079667	0.155110
778.273641	0.154829
778.467596	0.154839
778.661533	0.155041
778.855452	0.154992
779.049352	0.154929
779.243235	0.154623
779.437099	0.154568
779.630945	0.154945
779.824773	0.154986
780.018582	0.155347
780.212373	0.155452
780.406146	0.155434
780.599901	0.155523
780.793638	0.155430
780.987356	0.155277
781.181056	0.155444
781.374738	0.155378
781.568402	0.155329
781.762047	0.154989
781.955674	0.155041
782.149283	0.154851
782.342874	0.154900
782.536447	0.154965
782.730001	0.155132
782.923537	0.155387
783.117055	0.155388
783.310555	0.155534
783.504036	0.155870
783.697499	0.155734
783.890944	0.156031
784.084371	0.156019
784.277780	0.156190
784.471170	0.156301
784.664542	0.156207
784.857896	0.156263
785.051231	0.156375
785.244549	0.156554
785.437848	0.156591
785.631129	0.156456
785.824392	0.156343
786.017636	0.156370
786.210863	0.156514
786.404071	0.156483
786.597260	0.156480
786.790432	0.156471
786.983585	0.156462
787.176721	0.156883
787.369838	0.157061
787.562936	0.157316
787.756017	0.157399
787.949079	0.157558
788.142123	0.157737
788.335149	0.157758
788.528156	0.157839
788.721146	0.157795
788.914117	0.157618
789.107070	0.157487
789.300005	0.157537
789.492921	0.157520
789.685819	0.157394
789.878699	0.157356
790.071561	0.157491
790.264405	0.157359
790.457230	0.157397
790.650037	0.157406
790.842826	0.157591
791.035597	0.157523
791.228349	0.157435
791.421084	0.157254
791.613800	0.157141
791.806497	0.157056
791.999177	0.157301
792.191838	0.157385
792.384481	0.157570
792.577106	0.157364
792.769713	0.157470
792.962301	0.157641
793.154871	0.157771
793.347423	0.157989
793.539957	0.158095
793.732473	0.158164
793.924970	0.158200
794.117449	0.158151
794.309910	0.158555
794.502353	0.158613
794.694777	0.158659
794.887183	0.159052
795.079571	0.159003
795.271941	0.159063
795.464293	0.159055
795.656626	0.158846
795.848941	0.158938
796.041238	0.158877
796.233516	0.158945
796.425777	0.159158
796.618019	0.159338
796.810243	0.159619
797.002449	0.159894
797.194636	0.160201
797.386805	0.160578
797.578956	0.160496
797.771089	0.160465
797.963204	0.160592
798.155300	0.160773
798.347378	0.160708
798.539438	0.160677
798.731480	0.160670
798.923503	0.160558
799.115509	0.160720
799.307496	0.161194
799.499465	0.161605
799.691415	0.161829
799.883348	0.161831
800.075262	0.161997
800.267158	0.162284
800.459035	0.162337
800.650895	0.162509
800.842736	0.162395
801.034559	0.162469
801.226364	0.162591
801.418150	0.162795
801.609919	0.163163
801.801669	0.163139
801.993401	0.163234
802.185114	0.163641
802.376810	0.164004
802.568487	0.164610
802.760146	0.164587
802.951787	0.164619
803.143409	0.164600
803.335014	0.164329
803.526600	0.164532
803.718168	0.164552
803.909717	0.164459
804.101249	0.164308
804.292762	0.164100
804.484257	0.164199
804.675734	0.164194
804.867192	0.164319
805.058632	0.164457
805.250054	0.164597
805.441458	0.164824
805.632844	0.164960
805.824211	0.165104
806.015561	0.165304
806.206891	0.165591
806.398204	0.165736
806.589499	0.165936
806.780775	0.166265
806.972033	0.166366
807.163273	0.166480
807.354495	0.166445
807.545698	0.166863
807.736883	0.167127
807.928050	0.167335
808.119199	0.167890
808.310329	0.168136
808.501441	0.168514
808.692535	0.168921
808.883611	0.169339
809.074669	0.169755
809.265708	0.169650
809.456729	0.169870
809.647732	0.170046
809.838717	0.170108
810.029683	0.170475
810.220632	0.170551
810.411562	0.170717
810.602474	0.170837
810.793367	0.171174
810.984242	0.171484
811.175100	0.171799
811.365938	0.171941
811.556759	0.172075
811.747562	0.172094
811.938346	0.172360
812.129112	0.172527
812.319860	0.172341
812.510589	0.172295
812.701300	0.172545
812.891994	0.172488
813.082668	0.172786
813.273325	0.173147
813.463964	0.173413
813.654584	0.173728
813.845186	0.173733
814.035769	0.174418
814.226335	0.174942
814.416882	0.175053
814.607411	0.175516
814.797922	0.175593
814.988415	0.175536
815.178889	0.175691
815.369345	0.175585
815.559783	0.176166
815.750203	0.176053
815.940605	0.176004
816.130988	0.176346
816.321353	0.176434
816.511700	0.176576
816.702028	0.176993
816.892339	0.177159
817.082631	0.177366
817.272905	0.177067
817.463161	0.177290
817.653398	0.177434
817.843617	0.177581
818.033819	0.177517
818.224001	0.177700
818.414166	0.177749
818.604312	0.178199
818.794440	0.178384
818.984550	0.178746
819.174642	0.178629
819.364716	0.178586
819.554771	0.178711
819.744808	0.178634
819.934827	0.178780
820.124827	0.179038
820.314810	0.178577
820.504774	0.178462
820.694720	0.178457
820.884647	0.178821
821.074557	0.179130
821.264448	0.179036
821.454321	0.179577
821.644176	0.179721
821.834012	0.180035
822.023831	0.180674
822.213631	0.181378
822.403413	0.181746
822.593176	0.181977
822.782922	0.182452
822.972649	0.182675
823.162358	0.182993
823.352049	0.183374
823.541721	0.183243
823.731376	0.183238
823.921012	0.183378
824.110629	0.183614
824.300229	0.184019
824.489811	0.183964
824.679374	0.184476
824.868919	0.184648
825.058445	0.184747
825.247954	0.185130
825.437444	0.185499
825.626916	0.185402
825.816370	0.185780
826.005806	0.185854
826.195223	0.186285
826.384622	0.186582
826.574003	0.186779
826.763366	0.186802
826.952711	0.186951
827.142037	0.186981
827.331345	0.187240
827.520635	0.187144
827.709906	0.187453
827.899160	0.187446
828.088395	0.187643
828.277612	0.187914
828.466810	0.188355
828.655991	0.188662
828.845153	0.188756
829.034297	0.189248
829.223423	0.189839
829.412531	0.190132
829.601620	0.190544
829.790691	0.190354
829.979744	0.190544
830.168779	0.190847
830.357795	0.190984
830.546793	0.191357
830.735773	0.191487
830.924735	0.191610
831.113679	0.191911
831.302604	0.192053
831.491511	0.192545
831.680400	0.192367
831.869271	0.192530
832.058123	0.192485
832.246957	0.192868
832.435773	0.193020
832.624571	0.193129
832.813351	0.192847
833.002112	0.193157
833.190855	0.193317
833.379580	0.193985
833.568287	0.194287
833.756975	0.194838
833.945645	0.194960
834.134297	0.195373
834.322931	0.195613
834.511547	0.196055
834.700144	0.196328
834.888723	0.196856
835.077284	0.197238
835.265826	0.197093
835.454351	0.197310
835.642857	0.197390
835.831345	0.197632
836.019815	0.198264
836.208266	0.198628
836.396699	0.198901
836.585114	0.199107
836.773511	0.199280
836.961890	0.200033
837.150250	0.200579
837.338592	0.201090
837.526916	0.201277
837.715222	0.201340
837.903510	0.201882
838.091779	0.202430
838.280030	0.202798
838.468263	0.203305
838.656477	0.203695
838.844674	0.203894
839.032852	0.204459
839.221012	0.204447
839.409153	0.204813
839.597277	0.204991
839.785382	0.205046
839.973469	0.205274
840.161538	0.205355
840.349589	0.205468
840.537621	0.205650
840.725635	0.205782
840.913631	0.206450
841.101609	0.206527
841.289568	0.206801
841.477509	0.207045
841.665432	0.206748
841.853337	0.206901
842.041224	0.206937
842.229092	0.207174
842.416942	0.207366
842.604774	0.207558
842.792588	0.207638
842.980383	0.207628
843.168160	0.207874
843.355919	0.208566
843.543660	0.208947
843.731382	0.209482
843.919087	0.209969
844.106773	0.210454
844.294441	0.210544
844.482090	0.211120
844.669722	0.211681
844.857335	0.212252
845.044930	0.212666
845.232507	0.212932
845.420065	0.213255
845.607605	0.213261
845.795127	0.213186
845.982631	0.213376
846.170117	0.213422
846.357584	0.213642
846.545033	0.213512
846.732464	0.213436
846.919877	0.213721
847.107272	0.213859
847.294648	0.214361
847.482006	0.214591
847.669346	0.214902
847.856667	0.215434
848.043971	0.215493
848.231256	0.216068
848.418523	0.216579
848.605771	0.216820
848.793002	0.217034
848.980214	0.216837
849.167408	0.217300
849.354584	0.217841
849.541742	0.218103
849.728881	0.218620
849.916002	0.218734
850.103105	0.218958
850.290190	0.219080
850.477256	0.219542
850.664304	0.220108
850.851334	0.220186
851.038346	0.220368
851.225340	0.220432
851.412315	0.220461
851.599272	0.220447
851.786211	0.220710
851.973132	0.220951
852.160034	0.221200
852.346918	0.221662
852.533784	0.221707
852.720632	0.221984
852.907462	0.222274
853.094273	0.222758
853.281066	0.223776
853.467841	0.224169
853.654598	0.224505
853.841336	0.224601
854.028056	0.224541
854.214758	0.225251
854.401442	0.225295
854.588107	0.225443
854.774755	0.225615
854.961384	0.225303
855.147995	0.225307
855.334587	0.225633
855.521162	0.225879
855.707718	0.226334
855.894256	0.226395
856.080775	0.226740
856.267277	0.227124
856.453760	0.227530
856.640225	0.227931
856.826672	0.228317
857.013101	0.228628
857.199511	0.228718
857.385903	0.228908
857.572277	0.229300
857.758633	0.229632
857.944970	0.229946
858.131290	0.230238
858.317591	0.230234
858.503873	0.230429
858.690138	0.230411
858.876384	0.231202
859.062612	0.231801
859.248822	0.231845
859.435014	0.232102
859.621188	0.232140
859.807343	0.232407
859.993480	0.233042
860.179599	0.233656
860.365699	0.234076
860.551781	0.234233
860.737846	0.234293
860.923891	0.234598
861.109919	0.235088
861.295929	0.235840
861.481920	0.236100
861.667893	0.236126
861.853848	0.236403
862.039784	0.236652
862.225702	0.237113
862.411603	0.237207
862.597484	0.237602
862.783348	0.237814
862.969193	0.237651
863.155021	0.237735
863.340830	0.238001
863.526620	0.238028
863.712393	0.238204
863.898147	0.238013
864.083883	0.238644
864.269601	0.238820
864.455301	0.239223
864.640982	0.239461
864.826645	0.239701
865.012290	0.239898
865.197917	0.239999
865.383526	0.240575
865.569116	0.240760
865.754688	0.240575
865.940242	0.240728
866.125777	0.240516
866.311295	0.240947
866.496794	0.241001
866.682275	0.241182
866.867737	0.241275
867.053182	0.241361
867.238608	0.241404
867.424016	0.241124
867.609406	0.241256
867.794778	0.241419
867.980131	0.240878
868.165466	0.240950
868.350783	0.240817
868.536082	0.240962
868.721362	0.240631
868.906625	0.240728
869.091869	0.241297
869.277094	0.241249
869.462302	0.241193
869.647491	0.241676
869.832662	0.241852
870.017815	0.242357
870.202950	0.242592
870.388066	0.243177
870.573165	0.243462
870.758245	0.243394
870.943306	0.243805
871.128350	0.244331
871.313375	0.244770
871.498382	0.245184
871.683371	0.245639
871.868342	0.246302
872.053294	0.246476
872.238229	0.247067
872.423144	0.247632
872.608042	0.248034
872.792922	0.248347
872.977783	0.248640
873.162626	0.248804
873.347451	0.248686
873.532258	0.248635
873.717046	0.248974
873.901816	0.249122
874.086568	0.249218
874.271302	0.249396
874.456017	0.249353
874.640715	0.249459
874.825394	0.249937
875.010055	0.250343
875.194697	0.250168
875.379322	0.249964
875.563928	0.250019
875.748516	0.250022
875.933085	0.249862
876.117637	0.250409
876.302170	0.250854
876.486685	0.250739
876.671182	0.250872
876.855661	0.250881
877.040121	0.251186
877.224563	0.251236
877.408987	0.251532
877.593393	0.251812
877.777780	0.251755
877.962150	0.251385
878.146501	0.251637
878.330833	0.251657
878.515148	0.251756
878.699444	0.252363
878.883722	0.252399
879.067982	0.252344
879.252224	0.252695
879.436447	0.252524
879.620653	0.252896
879.804840	0.252750
879.989008	0.252609
880.173159	0.253168
880.357291	0.252605
880.541405	0.252617
880.725501	0.252868
880.909579	0.252764
881.093638	0.253395
881.277680	0.253641
881.461703	0.253765
881.645707	0.253942
881.829694	0.254069
882.013662	0.254317
882.197612	0.254444
882.381544	0.254779
882.565458	0.254849
882.749353	0.254817
882.933230	0.254615
883.117089	0.254733
883.300930	0.254741
883.484753	0.254285
883.668557	0.254219
883.852343	0.254337
884.036111	0.254062
884.219861	0.253722
884.403592	0.253613
884.587305	0.253734
884.771000	0.253454
884.954677	0.253404
885.138335	0.254159
885.321976	0.254429
885.505598	0.254518
885.689201	0.254353
885.872787	0.254482
886.056354	0.254196
886.239904	0.253833
886.423434	0.254193
886.606947	0.254074
886.790442	0.253416
886.973918	0.253298
887.157376	0.253355
887.340816	0.253864
887.524237	0.254340
887.707641	0.254520
887.891026	0.254827
888.074393	0.255002
888.257741	0.255251
888.441072	0.255935
888.624384	0.256025
888.807678	0.255559
888.990954	0.255237
889.174211	0.255177
889.357451	0.255347
889.540672	0.255294
889.723875	0.255413
889.907059	0.255003
890.090226	0.254524
890.273374	0.254364
890.456504	0.254761
890.639616	0.254862
890.822709	0.254841
891.005785	0.255223
891.188842	0.254840
891.371881	0.254635
891.554901	0.255448
891.737904	0.255288
891.920888	0.255256
892.103854	0.255529
892.286802	0.255502
892.469731	0.255245
892.652643	0.254743
892.835536	0.255383
893.018410	0.255082
893.201267	0.254678
893.384106	0.254872
893.566926	0.254796
893.749728	0.254562
893.932511	0.254273
894.115277	0.254314
894.298024	0.253926
894.480753	0.253825
894.663464	0.253931
894.846157	0.253583
895.028831	0.253396
895.211487	0.253406
895.394125	0.253423
895.576745	0.253484
895.759346	0.253427
895.941930	0.253489
896.124495	0.253497
896.307041	0.253262
896.489570	0.253817
896.672080	0.253386
896.854573	0.253813
897.037046	0.253798
897.219502	0.253943
897.401940	0.253868
897.584359	0.253995
897.766760	0.253608
897.949143	0.253676
898.131507	0.253447
898.313854	0.254020
898.496182	0.253486
898.678492	0.253136
898.860783	0.252917
899.043057	0.253006
899.225312	0.252772
899.407549	0.252471
899.589768	0.252218
899.771968	0.251904
899.954151	0.251530
900.136315	0.251318
900.318461	0.251204
900.500588	0.250864
900.682698	0.250379
900.864789	0.250503
901.046862	0.250345
901.228917	0.250397
901.410953	0.250210
901.592971	0.249775
901.774972	0.249286
901.956953	0.249089
902.138917	0.249124
902.320862	0.249052
902.502790	0.248709
902.684699	0.248694
902.866589	0.248160
903.048462	0.247526
903.230316	0.247037
903.412152	0.246754
903.593970	0.246500
903.775770	0.245779
903.957551	0.245513
904.139314	0.244855
904.321059	0.244665
904.502786	0.244895
904.684494	0.245354
904.866185	0.245993
905.047857	0.246480
905.229510	0.245851
905.411146	0.245863
905.592763	0.245595
905.774363	0.245337
905.955943	0.245192
906.137506	0.244603
906.319051	0.243892
906.500577	0.243080
906.682085	0.242495
906.863575	0.242660
907.045046	0.242483
907.226500	0.242119
907.407935	0.242077
907.589352	0.241772
907.770750	0.241134
907.952131	0.240477
908.133493	0.240445
908.314837	0.239897
908.496163	0.239269
908.677470	0.238689
908.858760	0.238362
909.040031	0.238328
909.221284	0.237841
909.402518	0.237734
909.583735	0.237637
909.764933	0.237113
909.946113	0.237012
910.127275	0.236668
910.308418	0.236608
910.489544	0.235797
910.670651	0.234716
910.851740	0.234650
911.032810	0.234051
911.213863	0.233448
911.394897	0.232975
911.575913	0.232596
911.756911	0.232064
911.937890	0.231310
912.118851	0.230967
912.299794	0.230828
912.480719	0.229999
912.661626	0.229738
912.842514	0.229695
913.023384	0.229382
913.204236	0.229358
913.385070	0.228896
913.565886	0.228605
913.746683	0.229007
913.927462	0.228553
914.108223	0.228444
914.288965	0.227847
914.469690	0.227398
914.650396	0.227062
914.831084	0.226256
915.011754	0.226260
915.192405	0.226536
915.373038	0.225775
915.553653	0.225366
915.734250	0.224654
915.914829	0.224158
916.095389	0.224029
916.275931	0.223874
916.456455	0.223603
916.636961	0.223582
916.817448	0.222467
916.997917	0.221779
917.178368	0.221393
917.358801	0.221002
917.539216	0.221082
917.719612	0.220267
917.899990	0.219565
918.080350	0.218559
918.260692	0.217245
918.441015	0.217007
918.621320	0.216656
918.801607	0.216677
918.981876	0.216201
919.162127	0.215968
919.342359	0.215711
919.522573	0.215199
919.702769	0.215253
919.882947	0.215385
920.063106	0.214987
920.243247	0.214703
920.423370	0.214068
920.603475	0.213351
920.783562	0.212476
920.963630	0.212024
921.143680	0.211032
921.323712	0.210140
921.503725	0.209464
921.683721	0.208572
921.863698	0.207614
922.043657	0.207154
922.223598	0.206721
922.403520	0.206040
922.583424	0.205093
922.763311	0.205211
922.943178	0.204453
923.123028	0.203391
923.302859	0.202807
923.482673	0.202422
923.662467	0.201813
923.842244	0.201471
924.022003	0.200723
924.201743	0.200615
924.381465	0.199662
924.561169	0.199764
924.740854	0.199527
924.920522	0.199370
925.100171	0.199058
925.279802	0.198040
925.459414	0.197114
925.639009	0.196798
925.818585	0.195899
925.998143	0.195156
926.177683	0.194579
926.357205	0.194417
926.536708	0.193769
926.716193	0.193505
926.895660	0.192855
927.075109	0.192742
927.254539	0.192371
927.433951	0.191775
927.613345	0.191394
927.792721	0.190037
927.972079	0.188933
928.151418	0.187613
928.330739	0.186200
928.510042	0.185584
928.689327	0.184340
928.868593	0.183501
929.047841	0.182847
929.227071	0.181742
929.406283	0.181043
929.585476	0.179699
929.764652	0.179384
929.943809	0.178838
930.122948	0.178055
930.302068	0.178072
930.481171	0.177686
930.660255	0.177162
930.839321	0.176907
931.018369	0.176046
931.197398	0.176361
931.376409	0.175115
931.555402	0.174515
931.734377	0.174129
931.913334	0.172986
932.092272	0.172017
932.271192	0.171205
932.450094	0.170846
932.628978	0.170417
932.807844	0.169103
932.986691	0.169079
933.165520	0.168698
933.344331	0.167965
933.523123	0.167104
933.701898	0.166335
933.880654	0.166468
934.059392	0.165606
934.238111	0.165343
934.416813	0.165378
934.595496	0.164986
934.774161	0.164067
934.952808	0.163842
935.131437	0.162967
935.310047	0.161843
935.488639	0.159743
935.667213	0.159122
935.845769	0.158051
936.024306	0.156937
936.202825	0.155894
936.381326	0.155730
936.559809	0.154140
936.738274	0.154427
936.916720	0.154838
937.095148	0.154667
937.273558	0.154101
937.451950	0.153729
937.630323	0.153376
937.808678	0.153061
937.987015	0.151904
938.165334	0.152172
938.343635	0.150153
938.521917	0.149509
938.700181	0.148239
938.878427	0.147383
939.056655	0.147711
939.234864	0.147025
939.413055	0.145372
939.591228	0.145002
939.769383	0.143583
939.947519	0.143388
940.125638	0.141953
940.303738	0.142145
940.481820	0.141321
940.659883	0.138903
940.837929	0.138020
941.015956	0.138475
941.193965	0.137680
941.371955	0.136877
941.549928	0.136305
941.727882	0.135868
941.905818	0.134419
942.083736	0.133416
942.261636	0.132996
942.439517	0.131880
942.617380	0.131211
942.795225	0.130120
942.973052	0.129491
943.150860	0.128866
943.328651	0.127351
943.506423	0.126747
943.684176	0.126212
943.861912	0.125573
944.039629	0.125622
944.217328	0.123421
944.395009	0.123275
944.572672	0.121663
944.750317	0.120945
944.927943	0.120431
945.105551	0.120066
945.283141	0.119846
945.460712	0.119690
945.638265	0.118080
945.815801	0.118446
945.993317	0.118047
946.170816	0.118544
946.348297	0.117713
946.525759	0.117085
946.703203	0.116670
946.880629	0.116864
947.058036	0.115404
947.235425	0.114515
947.412797	0.113486
947.590149	0.111328
947.767484	0.109485
947.944800	0.109091
948.122099	0.107974
948.299379	0.106828
948.476640	0.103645
948.653884	0.102963
948.831109	0.102703
949.008316	0.103016
949.185505	0.103460
949.362676	0.103631
949.539828	0.101943
949.716962	0.101433
949.894078	0.101176
950.071176	0.101745
950.248256	0.101415
950.425317	0.101103
950.602360	0.099694
950.779385	0.098623
950.956391	0.099320
951.133380	0.099745
951.310350	0.099891
951.487302	0.098334
951.664235	0.096899
951.841151	0.096360
952.018048	0.094943
952.194927	0.094653
952.371788	0.093097
952.548631	0.091938
952.725455	0.091473
952.902261	0.091560
953.079049	0.092340
953.255819	0.093529
953.432570	0.091149
953.609303	0.092604
953.786018	0.091549
953.962715	0.091734
954.139394	0.089722
954.316054	0.087976
954.492696	0.085662
954.669320	0.085498
954.845926	0.083591
955.022513	0.085641
955.199083	0.084464
955.375634	0.084917
955.552166	0.085492
955.728681	0.086305
955.905177	0.089488
956.081655	0.089869
956.258115	0.089790
956.434557	0.089076
956.610980	0.088347
956.787385	0.086877
956.963772	0.085761
957.140141	0.084992
957.316492	0.084347
957.492824	0.081305
957.669138	0.081027
957.845434	0.080638
958.021712	0.081469
958.197971	0.079930
958.374212	0.078150
958.550435	0.077751
958.726640	0.078318
958.902826	0.078339
959.078995	0.076389
959.255145	0.074976
959.431277	0.074243
959.607390	0.073864
959.783486	0.075029
959.959563	0.074851
960.135622	0.073916
960.311662	0.072134
960.487685	0.073786
960.663689	0.076732
960.839675	0.078798
961.015643	0.078157
961.191593	0.080386
961.367524	0.078873
961.543437	0.081233
961.719332	0.081431
961.895209	0.081915
962.071067	0.079507
962.246907	0.077504
962.422730	0.076965
962.598533	0.077688
962.774319	0.075375
962.950086	0.076462
963.125835	0.076539
963.301566	0.076369
963.477279	0.076669
963.652973	0.075769
963.828650	0.076667
964.004308	0.074974
964.179947	0.074100
964.355569	0.074326
964.531172	0.075365
964.706757	0.074657
964.882324	0.073767
965.057873	0.073696
965.233403	0.075773
965.408916	0.076421
965.584410	0.079247
965.759885	0.079352
965.935343	0.078361
966.110782	0.077160
966.286203	0.076772
966.461606	0.078067
966.636991	0.078978
966.812357	0.079172
966.987705	0.080677
967.163035	0.079581
967.338347	0.078449
967.513641	0.078412
967.688916	0.078621
967.864173	0.081078
968.039412	0.081589
968.214632	0.080759
968.389835	0.079960
968.565019	0.078743
968.740185	0.078883
968.915333	0.079740
969.090462	0.082703
969.265573	0.079576
969.440667	0.077507
969.615741	0.077827
969.790798	0.076360
969.965836	0.076121
970.140856	0.074969
970.315858	0.073146
970.490842	0.075140
970.665808	0.074454
970.840755	0.079727
971.015684	0.080802
971.190595	0.078594
971.365487	0.079794
971.540362	0.080000
971.715218	0.080319
971.890056	0.082984
972.064875	0.084627
972.239677	0.083391
972.414460	0.080376
972.589225	0.078451
972.763972	0.080351
972.938700	0.079710
973.113411	0.081309
973.288103	0.080215
973.462777	0.077931
973.637432	0.073857
973.812070	0.074522
973.986689	0.074783
974.161290	0.075147
974.335873	0.074105
974.510437	0.075355
974.684984	0.072872
974.859512	0.074846
975.034022	0.075448
975.208513	0.076460
975.382987	0.075404
975.557442	0.075569
975.731879	0.076406
975.906298	0.077896
976.080698	0.076692
976.255080	0.075987
976.429445	0.074892
976.603790	0.073697
976.778118	0.074561
976.952427	0.077951
977.126719	0.078178
977.300992	0.076803
977.475246	0.074439
977.649483	0.076174
977.823701	0.079398
977.997901	0.079982
978.172083	0.081600
978.346247	0.080219
978.520392	0.076474
978.694519	0.076700
978.868628	0.076714
979.042719	0.078955
979.216791	0.077527
979.390845	0.076063
979.564882	0.075316
979.738899	0.074414
979.912899	0.074864
980.086880	0.075825
980.260843	0.076540
980.434788	0.077501
980.608715	0.078886
980.782623	0.078699
980.956514	0.079310
981.130386	0.079555
981.304240	0.079237
981.478075	0.077747
981.651892	0.076942
981.825692	0.075631
981.999472	0.075616
982.173235	0.073105
982.346980	0.071738
982.520706	0.071668
982.694414	0.072887
982.868104	0.074204
983.041775	0.076177
983.215428	0.076341
983.389064	0.076939
983.562680	0.077340
983.736279	0.076969
983.909860	0.078628
984.083422	0.077288
984.256966	0.075377
984.430491	0.073925
984.603999	0.072331
984.777488	0.071668
984.950959	0.071035
985.124412	0.068571
985.297847	0.070949
985.471263	0.069882
985.644661	0.070539
985.818041	0.070543
985.991403	0.071890
986.164747	0.071747
986.338072	0.071653
986.511379	0.071945
986.684668	0.073924
986.857938	0.073653
987.031191	0.074857
987.204425	0.075035
987.377641	0.076480
987.550839	0.075241
987.724018	0.075691
987.897179	0.076186
988.070322	0.075687
988.243447	0.075927
988.416554	0.074549
988.589642	0.073235
988.762712	0.072632
988.935764	0.070884
989.108798	0.071560
989.281813	0.072250
989.454811	0.072760
989.627790	0.073208
989.800751	0.072059
989.973693	0.073362
990.146617	0.075058
990.319524	0.075637
990.492412	0.076400
990.665281	0.076730
990.838133	0.078661
991.010966	0.079643
991.183781	0.080540
991.356578	0.082304
991.529356	0.081915
991.702117	0.083343
991.874859	0.083402
992.047583	0.083563
992.220288	0.082893
992.392976	0.082529
992.565645	0.081293
992.738296	0.081042
992.910929	0.081036
993.083543	0.078720
993.256139	0.076546
993.428718	0.076502
993.601277	0.076107
993.773819	0.077564
993.946342	0.073374
994.118848	0.073956
994.291335	0.073361
994.463803	0.071050
994.636254	0.072797
994.808686	0.073281
994.981100	0.071730
995.153496	0.071487
995.325874	0.070138
995.498233	0.071856
995.670574	0.071486
995.842897	0.072123
996.015202	0.074667
996.187488	0.073611
996.359757	0.072499
996.532007	0.073879
996.704239	0.075086
996.876452	0.075506
997.048648	0.077047
997.220825	0.076218
997.392984	0.075202
997.565124	0.074642
997.737247	0.075697
997.909351	0.076770
998.081437	0.077776
998.253505	0.077625
998.425554	0.079039
998.597586	0.078294
998.769599	0.080008
998.941594	0.080280
999.113571	0.080957
999.285529	0.079152
999.457469	0.078987
999.629391	0.077845
999.801295	0.077655
999.973181	0.074725
1000.145048	0.075153
1000.316897	0.074323
1000.488728	0.075302
1000.660541	0.073371
1000.832335	0.074247
1001.004111	0.072754
1001.175869	0.073796
1001.347609	0.072706
1001.519331	0.074915
1001.691034	0.075159
1001.862719	0.073987
1002.034386	0.073446
1002.206035	0.074568
1002.377665	0.075501
1002.549277	0.075598
1002.720871	0.074907
1002.892447	0.076099
1003.064004	0.076675
1003.235544	0.076295
1003.407065	0.076978
1003.578568	0.077360
1003.750052	0.076174
1003.921519	0.075611
1004.092967	0.076972
1004.264397	0.076116
1004.435809	0.074914
1004.607202	0.074595
1004.778577	0.074315
1004.949934	0.072651
1005.121273	0.073652
1005.292594	0.073948
1005.463896	0.072966
1005.635180	0.072883
1005.806446	0.072038
1005.977694	0.072102
1006.148923	0.070707
1006.320135	0.070094
1006.491328	0.072474
1006.662503	0.071998
1006.833659	0.073134
1007.004798	0.073956
1007.175918	0.073498
1007.347020	0.073887
1007.518103	0.075019
1007.689169	0.074669
1007.860216	0.075212
1008.031245	0.074778
1008.202256	0.073912
1008.373248	0.074230
1008.544223	0.077080
1008.715179	0.077507
1008.886117	0.077884
1009.057036	0.077085
1009.227938	0.076550
1009.398821	0.076556
1009.569686	0.074875
1009.740533	0.074065
1009.911361	0.072367
1010.082172	0.068988
1010.252964	0.069587
1010.423738	0.069221
1010.594493	0.070174
1010.765231	0.070630
1010.935950	0.070926
1011.106651	0.073317
1011.277334	0.074651
1011.447998	0.076210
1011.618645	0.076144
1011.789273	0.077195
1011.959882	0.077018
1012.130474	0.075267
1012.301048	0.076386
1012.471603	0.076454
1012.642140	0.075767
1012.812658	0.075191
1012.983159	0.072518
1013.153641	0.073050
1013.324105	0.071795
1013.494551	0.071198
1013.664979	0.071675
1013.835388	0.071551
1014.005779	0.070287
1014.176152	0.069896
1014.346507	0.070222
1014.516843	0.073930
1014.687162	0.073504
1014.857462	0.072431
1015.027744	0.074256
1015.198007	0.073957
1015.368252	0.073187
1015.538480	0.075103
1015.708689	0.075820
1015.878879	0.075335
1016.049052	0.073657
1016.219206	0.073402
1016.389342	0.073648
1016.559460	0.072834
1016.729559	0.072884
1016.899641	0.073328
1017.069704	0.072410
1017.239749	0.071721
1017.409775	0.072819
1017.579784	0.072307
1017.749774	0.073382
1017.919746	0.072842
1018.089700	0.074143
1018.259635	0.075152
1018.429553	0.075182
1018.599452	0.072458
1018.769333	0.073348
1018.939195	0.071988
1019.109040	0.072094
1019.278866	0.072354
1019.448674	0.073751
1019.618464	0.073471
1019.788235	0.072269
1019.957989	0.072072
1020.127724	0.074736
1020.297441	0.074543
1020.467139	0.073923
1020.636820	0.073825
1020.806482	0.073790
1020.976126	0.072476
1021.145752	0.070856
1021.315359	0.069825
1021.484948	0.070145
1021.654519	0.069208
1021.824072	0.068872
1021.993607	0.069740
1022.163123	0.070337
1022.332621	0.071153
1022.502101	0.071436
1022.671563	0.071842
1022.841007	0.073440
1023.010432	0.071215
1023.179839	0.069715
1023.349228	0.069388
1023.518598	0.068177
1023.687951	0.068341
1023.857285	0.067323
1024.026601	0.068130
1024.195899	0.068695
1024.365178	0.068136
1024.534439	0.070866
1024.703682	0.073941
1024.872907	0.073055
1025.042114	0.074288
1025.211302	0.072249
1025.380472	0.071168
1025.549624	0.070207
1025.718758	0.069267
1025.887873	0.069010
1026.056970	0.067888
1026.226049	0.066523
1026.395110	0.066159
1026.564153	0.065635
1026.733177	0.066854
1026.902183	0.067502
1027.071171	0.067445
1027.240141	0.068400
1027.409092	0.070220
1027.578026	0.071168
1027.746940	0.071083
1027.915837	0.071287
1028.084716	0.071851
1028.253576	0.071240
1028.422418	0.069838
1028.591242	0.071188
1028.760048	0.070805
1028.928835	0.069870
1029.097604	0.069130
1029.266355	0.069104
1029.435088	0.068897
1029.603803	0.069768
1029.772499	0.068838
1029.941177	0.069563
1030.109837	0.066749
1030.278478	0.067804
1030.447102	0.067691
1030.615707	0.067851
1030.784294	0.068749
1030.952863	0.070071
1031.121413	0.068816
1031.289945	0.069960
1031.458460	0.071002
1031.626955	0.070979
1031.795433	0.070621
1031.963892	0.070734
1032.132334	0.070066
1032.300756	0.070775
1032.469161	0.069956
1032.637548	0.070053
1032.805916	0.071220
1032.974266	0.071649
1033.142598	0.073644
1033.310911	0.072260
1033.479207	0.072925
1033.647484	0.073351
1033.815743	0.071318
1033.983983	0.072953
1034.152206	0.073470
1034.320410	0.073315
1034.488596	0.071728
1034.656764	0.072099
1034.824914	0.071685
1034.993045	0.069962
1035.161158	0.069049
1035.329253	0.070287
1035.497330	0.069294
1035.665388	0.067985
1035.833428	0.067330
1036.001450	0.069183
1036.169454	0.068883
1036.337440	0.068342
1036.505407	0.070217
1036.673356	0.070938
1036.841287	0.069216
1037.009200	0.068056
1037.177094	0.067212
1037.344970	0.067163
1037.512828	0.065332
1037.680668	0.064091
1037.848489	0.065947
1038.016293	0.063957
1038.184078	0.063315
1038.351845	0.062997
1038.519593	0.063236
1038.687324	0.064160
1038.855036	0.065351
1039.022730	0.065306
1039.190406	0.065849
1039.358063	0.065103
1039.525702	0.067354
1039.693323	0.068926
1039.860926	0.069583
1040.028511	0.069658
1040.196077	0.068541
1040.363625	0.067659
1040.531155	0.067809
1040.698667	0.067220
1040.866161	0.066994
1041.033636	0.065935
1041.201093	0.063922
1041.368532	0.065380
1041.535952	0.066410
1041.703355	0.070048
1041.870739	0.068961
1042.038105	0.068363
1042.205452	0.070011
1042.372782	0.071734
1042.540093	0.072684
1042.707386	0.074482
1042.874661	0.075256
1043.041918	0.075478
1043.209156	0.073496
1043.376376	0.074677
1043.543578	0.075412
1043.710762	0.073755
1043.877927	0.073499
1044.045074	0.072172
1044.212203	0.071868
1044.379314	0.069772
1044.546407	0.069740
1044.713481	0.069293
1044.880537	0.068936
1045.047575	0.068539
1045.214595	0.069915
1045.381596	0.068678
1045.548579	0.067713
1045.715544	0.067880
1045.882491	0.067821
1046.049420	0.066619
1046.216330	0.066708
1046.383222	0.065160
1046.550096	0.066158
1046.716951	0.065699
1046.883789	0.067240
1047.050608	0.067787
1047.217409	0.068055
1047.384192	0.068931
1047.550956	0.069378
1047.717703	0.069313
1047.884431	0.070773
1048.051140	0.070767
1048.217832	0.070411
1048.384505	0.069099
1048.551161	0.070976
1048.717798	0.069925
1048.884416	0.071135
1049.051017	0.071479
1049.217599	0.071128
1049.384163	0.071090
1049.550709	0.071184
1049.717237	0.071607
1049.883746	0.070889
1050.050237	0.069327
1050.216710	0.068872
1050.383165	0.067630
1050.549601	0.068272
1050.716019	0.068624
1050.882420	0.069814
1051.048801	0.069720
1051.215165	0.068924
1051.381510	0.070387
1051.547837	0.070804
1051.714146	0.072195
1051.880437	0.071225
1052.046709	0.069556
1052.212964	0.069607
1052.379200	0.069520
1052.545417	0.069628
1052.711617	0.070180
1052.877798	0.069032
1053.043961	0.068071
1053.210106	0.065904
1053.376233	0.066080
1053.542341	0.067365
1053.708432	0.066502
1053.874504	0.066061
1054.040557	0.063433
1054.206593	0.062900
1054.372610	0.062012
1054.538609	0.062748
1054.704590	0.062603
1054.870553	0.062085
1055.036497	0.062707
1055.202424	0.062382
1055.368331	0.061395
1055.534221	0.063204
1055.700093	0.063378
1055.865946	0.064233
1056.031781	0.065181
1056.197598	0.067389
1056.363397	0.068035
1056.529177	0.066929
1056.694939	0.067684
1056.860683	0.067734
1057.026409	0.067588
1057.192116	0.067933
1057.357806	0.068359
1057.523477	0.066155
1057.689130	0.063970
1057.854764	0.064049
1058.020381	0.063182
1058.185979	0.064486
1058.351559	0.064376
1058.517120	0.065730
1058.682664	0.065996
1058.848189	0.067440
1059.013696	0.067535
1059.179185	0.068016
1059.344656	0.067190
1059.510108	0.068743
1059.675542	0.068661
1059.840958	0.068751
1060.006356	0.069410
1060.171735	0.068589
1060.337096	0.066866
1060.502439	0.068149
1060.667764	0.067043
1060.833071	0.069076
1060.998359	0.067231
1061.163629	0.066842
1061.328881	0.067540
1061.494115	0.065634
1061.659330	0.065626
1061.824527	0.066348
1061.989706	0.066212
1062.154867	0.067326
1062.320010	0.066609
1062.485134	0.066131
1062.650240	0.066113
1062.815328	0.066148
1062.980398	0.066378
1063.145449	0.065863
1063.310482	0.064325
1063.475497	0.064715
1063.640494	0.065433
1063.805473	0.065020
1063.970433	0.065767
1064.135375	0.064601
1064.300299	0.062789
1064.465204	0.062433
1064.630092	0.060892
1064.794961	0.061067
1064.959812	0.059891
1065.124645	0.060146
1065.289459	0.059377
1065.454256	0.060179
1065.619034	0.059797
1065.783793	0.060536
1065.948535	0.062332
1066.113258	0.064371
1066.277964	0.063802
1066.442651	0.065142
1066.607319	0.065015
1066.771970	0.065925
1066.936602	0.066407
1067.101216	0.065941
1067.265812	0.066394
1067.430389	0.064059
1067.594949	0.064806
1067.759490	0.067304
1067.924013	0.066557
1068.088518	0.067179
1068.253004	0.067707
1068.417472	0.066612
1068.581922	0.068438
1068.746354	0.066816
1068.910768	0.068377
1069.075163	0.069083
1069.239540	0.067696
1069.403899	0.068912
1069.568240	0.069734
1069.732562	0.068455
1069.896866	0.070357
1070.061152	0.070394
1070.225420	0.072473
1070.389670	0.071965
1070.553901	0.072749
1070.718114	0.073302
1070.882309	0.072853
1071.046486	0.071727
1071.210644	0.071937
1071.374784	0.068431
1071.538906	0.066957
1071.703010	0.066975
1071.867096	0.066906
1072.031163	0.066460
1072.195212	0.067134
1072.359243	0.065812
1072.523256	0.065979
1072.687250	0.065421
1072.851226	0.067381
1073.015184	0.067206
1073.179124	0.066706
1073.343045	0.067025
1073.506949	0.064779
1073.670834	0.063699
1073.834701	0.063414
1073.998549	0.063014
1074.162380	0.062465
1074.326192	0.062272
1074.489986	0.063653
1074.653761	0.062686
1074.817519	0.063233
1074.981258	0.063632
1075.144979	0.065181
1075.308682	0.068710
1075.472367	0.068379
1075.636033	0.068496
1075.799681	0.067014
1075.963311	0.066422
1076.126923	0.067009
1076.290516	0.065883
1076.454092	0.066021
1076.617649	0.063724
1076.781187	0.060993
1076.944708	0.062439
1077.108210	0.064324
1077.271695	0.067487
1077.435160	0.067487
1077.598608	0.068147
1077.762038	0.069117
1077.925449	0.069175
1078.088842	0.071507
1078.252217	0.072462
1078.415573	0.071576
1078.578912	0.071887
1078.742232	0.070069
1078.905534	0.071727
1079.068817	0.072034
1079.232083	0.071879
1079.395330	0.071866
1079.558559	0.071668
1079.721770	0.071183
1079.884962	0.071631
1080.048136	0.068696
1080.211293	0.069915
1080.374430	0.069678
1080.537550	0.070656
1080.700651	0.069220
1080.863735	0.068084
1081.026800	0.066196
1081.189846	0.068178
1081.352875	0.068357
1081.515885	0.072576
1081.678877	0.072912
1081.841851	0.070939
1082.004807	0.069670
1082.167744	0.070934
1082.330663	0.072705
1082.493564	0.074736
1082.656447	0.071567
1082.819312	0.070538
1082.982158	0.069746
1083.144986	0.067890
1083.307796	0.070118
1083.470587	0.070225
1083.633361	0.069827
1083.796116	0.069748
1083.958853	0.066391
1084.121571	0.066714
1084.284272	0.066952
1084.446954	0.067189
1084.609618	0.066783
1084.772264	0.065185
1084.934892	0.064076
1085.097501	0.063341
1085.260092	0.063960
1085.422665	0.065866
1085.585220	0.066788
1085.747756	0.068060
1085.910274	0.065903
1086.072774	0.065933
1086.235256	0.066742
1086.397720	0.067132
1086.560165	0.068304
1086.722592	0.066560
1086.885001	0.065522
1087.047392	0.064395
1087.209764	0.063549
1087.372119	0.062903
1087.534455	0.065561
1087.696772	0.065685
1087.859072	0.066542
1088.021353	0.064293
1088.183616	0.064483
1088.345861	0.065788
1088.508088	0.066770
1088.670296	0.067854
1088.832486	0.069035
1088.994658	0.067779
1089.156812	0.069392
1089.318948	0.068654
1089.481065	0.070575
1089.643164	0.072879
1089.805245	0.072174
1089.967308	0.068664
1090.129352	0.068870
1090.291378	0.067423
1090.453386	0.067580
1090.615376	0.066354
1090.777347	0.064437
1090.939301	0.066132
1091.101236	0.067537
1091.263153	0.067122
1091.425051	0.068985
1091.586932	0.063384
1091.748794	0.065331
1091.910638	0.066625
1092.072463	0.065379
1092.234271	0.068888
1092.396060	0.065526
1092.557831	0.062753
1092.719584	0.063078
1092.881319	0.065033
1093.043035	0.066865
1093.204733	0.068429
1093.366413	0.067421
1093.528075	0.070209
1093.689718	0.070303
1093.851343	0.070019
1094.012950	0.070643
1094.174539	0.069998
1094.336110	0.068615
1094.497662	0.071193
1094.659196	0.069927
1094.820712	0.068525
1094.982210	0.065404
1095.143689	0.064818
1095.305151	0.064637
1095.466594	0.062854
1095.628018	0.061639
1095.789425	0.063379
1095.950813	0.063127
1096.112183	0.060608
1096.273535	0.060537
1096.434869	0.059106
1096.596184	0.059681
1096.757482	0.064638
1096.918761	0.065177
1097.080021	0.066750
1097.241264	0.066145
1097.402488	0.064410
1097.563694	0.065118
1097.724882	0.063908
1097.886052	0.063499
1098.047203	0.058921
1098.208336	0.054736
1098.369451	0.053084
1098.530548	0.053288
1098.691627	0.052148
1098.852687	0.054519
1099.013729	0.054620
1099.174753	0.056516
1099.335758	0.058424
1099.496746	0.061749
1099.657715	0.062503
1099.818666	0.062255
1099.979599	0.062163
1100.140513	0.063852
1100.301409	0.062619
1100.462287	0.060445
1100.623147	0.058772
1100.783989	0.058628
1100.944812	0.056718
1101.105617	0.057996
1101.266404	0.061619
1101.427173	0.063501
1101.587923	0.061274
1101.748656	0.059650
1101.909370	0.062224
1102.070066	0.063435
1102.230743	0.061416
1102.391403	0.061833
1102.552044	0.061452
1102.712667	0.058273
1102.873271	0.057628
1103.033858	0.059680
1103.194426	0.059338
1103.354976	0.061486
1103.515508	0.059327
1103.676021	0.060451
1103.836517	0.059907
1103.996994	0.059120
1104.157453	0.062602
1104.317893	0.062978
1104.478316	0.061420
1104.638720	0.063745
1104.799106	0.062102
1104.959474	0.065342
1105.119823	0.069134
1105.280155	0.070026
1105.440468	0.070777
1105.600763	0.069452
1105.761039	0.066622
1105.921298	0.067368
1106.081538	0.066413
1106.241760	0.063612
1106.401964	0.061161
1106.562149	0.059303
1106.722316	0.059354
1106.882465	0.058037
1107.042596	0.055412
1107.202709	0.055870
1107.362803	0.057768
1107.522879	0.057207
1107.682937	0.061215
1107.842977	0.063369
1108.002999	0.062261
1108.163002	0.063378
1108.322987	0.062957
1108.482954	0.067310
1108.642902	0.069769
1108.802833	0.067613
1108.962745	0.069215
1109.122639	0.066855
1109.282515	0.067364
1109.442372	0.065116
1109.602211	0.061208
1109.762032	0.062356
1109.921835	0.058564
1110.081620	0.061235
1110.241386	0.061720
1110.401134	0.060015
1110.560864	0.059786
1110.720576	0.055552
1110.880269	0.057324
1111.039945	0.062111
1111.199602	0.060580
1111.359240	0.060484
1111.518861	0.053837
1111.678463	0.050535
1111.838047	0.048434
1111.997613	0.048997
1112.157161	0.052507
1112.316690	0.055974
1112.476202	0.051235
1112.635695	0.047790
1112.795169	0.047617
1112.954626	0.052395
1113.114064	0.057398
1113.273484	0.061086
1113.432886	0.058975
1113.592270	0.057389
1113.751635	0.054482
1113.910983	0.057170
1114.070312	0.062795
1114.229622	0.063952
1114.388915	0.063137
1114.548189	0.063825
1114.707445	0.066013
1114.866683	0.065158
1115.025903	0.068225
1115.185104	0.068733
1115.344287	0.072307
1115.503452	0.070225
1115.662599	0.073061
1115.821727	0.076313
1115.980838	0.071621
1116.139930	0.067769
1116.299004	0.071247
1116.458059	0.068310
1116.617097	0.069698
1116.776116	0.069960
1116.935117	0.072531
1117.094099	0.069754
1117.253064	0.065452
1117.412010	0.067739
1117.570938	0.069892
1117.729848	0.072218
1117.888740	0.073122
1118.047613	0.070616
1118.206468	0.067598
1118.365305	0.067204
1118.524124	0.065328
1118.682924	0.065870
1118.841707	0.064823
1119.000471	0.063132
1119.159216	0.059191
1119.317944	0.057534
1119.476653	0.056555
1119.635344	0.054859
1119.794017	0.052560
1119.952672	0.053023
1120.111308	0.052385
1120.269927	0.049846
1120.428527	0.050452
1120.587108	0.050382
1120.745672	0.051415
1120.904217	0.054604
1121.062744	0.055757
1121.221253	0.058752
1121.379744	0.059642
1121.538216	0.058714
1121.696671	0.058582
1121.855107	0.058783
1122.013524	0.057909
1122.171924	0.057092
1122.330305	0.056135
1122.488668	0.053910
1122.647013	0.052079
1122.805340	0.048200
1122.963648	0.049799
1123.121938	0.049482
1123.280210	0.046409
1123.438464	0.047170
1123.596700	0.045590
1123.754917	0.041980
1123.913116	0.046103
1124.071297	0.043673
1124.229459	0.046113
1124.387604	0.041384
1124.545730	0.044242
1124.703838	0.045090
1124.861928	0.048097
1125.019999	0.051517
1125.178052	0.050459
1125.336088	0.047416
1125.494104	0.046921
1125.652103	0.046853
1125.810083	0.050955
1125.968045	0.051264
1126.125989	0.050590
1126.283915	0.048889
1126.441823	0.044642
1126.599712	0.047065
1126.757583	0.044988
1126.915436	0.049599
1127.073270	0.050827
1127.231087	0.049865
1127.388885	0.049674
1127.546665	0.054229
1127.704426	0.054140
1127.862170	0.056968
1128.019895	0.056570
1128.177602	0.058130
1128.335291	0.053429
1128.492961	0.058672
1128.650614	0.060347
1128.808248	0.064773
1128.965864	0.066886
1129.123461	0.062636
1129.281041	0.059128
1129.438602	0.058949
1129.596145	0.057687
1129.753670	0.056229
1129.911176	0.049698
1130.068665	0.051362
1130.226135	0.045589
1130.383587	0.041558
1130.541020	0.046827
1130.698436	0.049969
1130.855833	0.047967
1131.013212	0.052538
1131.170573	0.052474
1131.327915	0.057297
1131.485239	0.049226
1131.642545	0.048761
1131.799833	0.046957
1131.957103	0.046516
1132.114354	0.042709
1132.271588	0.045427
1132.428803	0.044013
1132.585999	0.050798
1132.743178	0.046548
1132.900338	0.053326
1133.057480	0.056981
1133.214604	0.062193
1133.371710	0.060213
1133.528797	0.059021
1133.685866	0.063094
1133.842917	0.062366
1133.999950	0.061810
1134.156964	0.068112
1134.313960	0.068485
1134.470938	0.070061
1134.627898	0.064798
1134.784840	0.064443
1134.941763	0.067541
1135.098668	0.063896
1135.255555	0.064450
1135.412424	0.064149
1135.569274	0.059013
1135.726107	0.059302
1135.882921	0.050654
1136.039716	0.048467
1136.196494	0.050115
1136.353253	0.054246
1136.509995	0.051492
1136.666717	0.051328
1136.823422	0.048480
1136.980109	0.048522
1137.136777	0.043038
1137.293427	0.048200
1137.450059	0.048353
1137.606672	0.046570
1137.763267	0.050699
1137.919844	0.051787
1138.076403	0.051912
1138.232944	0.052858
1138.389466	0.054034
1138.545971	0.059198
1138.702457	0.055318
1138.858924	0.057115
1139.015374	0.062943
1139.171805	0.054717
1139.328218	0.052234
1139.484613	0.051433
1139.640990	0.050436
1139.797348	0.044036
1139.953688	0.043106
1140.110010	0.042226
1140.266314	0.037898
1140.422600	0.035046
1140.578867	0.044048
1140.735116	0.049905
1140.891347	0.047153
1141.047559	0.048311
1141.203754	0.051855
1141.359930	0.044895
1141.516088	0.049517
1141.672228	0.051219
1141.828349	0.051903
1141.984452	0.041815
1142.140537	0.042496
1142.296604	0.046669
1142.452653	0.042753
1142.608683	0.039478
1142.764695	0.048525
1142.920689	0.045807
1143.076665	0.051445
1143.232622	0.049903
1143.388562	0.051598
1143.544483	0.049927
1143.700385	0.050863
1143.856270	0.053415
1144.012136	0.056660
1144.167985	0.049514
1144.323814	0.047739
1144.479626	0.044876
1144.635420	0.041733
1144.791195	0.045895
1144.946952	0.046065
1145.102691	0.048230
1145.258411	0.048851
1145.414113	0.045896
1145.569798	0.049251
1145.725463	0.053056
1145.881111	0.054468
1146.036741	0.056484
1146.192352	0.053442
1146.347945	0.055068
1146.503519	0.049093
1146.659076	0.048871
1146.814614	0.052692
1146.970134	0.052662
1147.125636	0.047076
1147.281120	0.047913
1147.436585	0.048889
1147.592032	0.048309
1147.747461	0.046621
1147.902872	0.043697
1148.058265	0.042615
1148.213639	0.039421
1148.368995	0.039890
1148.524333	0.037990
1148.679653	0.037426
1148.834954	0.038830
1148.990237	0.039042
1149.145502	0.039185
1149.300749	0.042652
1149.455977	0.042339
1149.611188	0.045503
1149.766380	0.046578
1149.921553	0.057539
1150.076709	0.055429
1150.231846	0.048757
1150.386966	0.050935
1150.542066	0.050557
1150.697149	0.052093
1150.852214	0.047891
1151.007260	0.048031
1151.162288	0.049893
1151.317298	0.043552
1151.472289	0.045026
1151.627263	0.052833
1151.782218	0.049682
1151.937155	0.050243
1152.092073	0.049517
1152.246974	0.056193
1152.401856	0.059140
1152.556720	0.052304
1152.711566	0.054387
1152.866393	0.052171
1153.021203	0.049579
1153.175994	0.047090
1153.330767	0.046537
1153.485521	0.044713
1153.640258	0.046274
1153.794976	0.044661
1153.949676	0.047113
1154.104358	0.043816
1154.259021	0.042571
1154.413667	0.046168
1154.568294	0.051900
1154.722903	0.049862
1154.877493	0.052977
1155.032066	0.050540
1155.186620	0.048564
1155.341156	0.045896
1155.495674	0.048332
1155.650173	0.048386
1155.804654	0.045735
1155.959118	0.043279
1156.113562	0.042012
1156.267989	0.036868
1156.422397	0.036301
1156.576788	0.037296
1156.731160	0.034168
1156.885513	0.036168
1157.039849	0.039355
1157.194166	0.037279
1157.348465	0.035948
1157.502746	0.039557
1157.657009	0.036583
1157.811253	0.038439
1157.965479	0.039300
1158.119687	0.042052
1158.273877	0.037015
1158.428048	0.031252
1158.582201	0.033995
1158.736337	0.032983
1158.890453	0.026283
1159.044552	0.035784
1159.198632	0.027658
1159.352694	0.029477
1159.506738	0.032422
1159.660764	0.036059
1159.814771	0.041148
1159.968761	0.030430
1160.122732	0.038735
1160.276685	0.049037
1160.430619	0.045030
1160.584535	0.049695
1160.738434	0.038258
1160.892313	0.034738
1161.046175	0.031397
1161.200019	0.035239
1161.353844	0.040591
1161.507651	0.033540
1161.661440	0.027397
1161.815210	0.030828
1161.968962	0.029722
1162.122697	0.040662
1162.276412	0.048529
1162.430110	0.050842
1162.583789	0.042111
1162.737451	0.040327
1162.891094	0.043212
1163.044718	0.042068
1163.198325	0.043927
1163.351913	0.052593
1163.505483	0.048054
1163.659035	0.050487
1163.812569	0.047024
1163.966084	0.056459
1164.119581	0.057747
1164.273060	0.049959
1164.426521	0.055754
1164.579964	0.053885
1164.733388	0.045969
1164.886794	0.048631
1165.040182	0.037676
1165.193551	0.042593
1165.346903	0.040499
1165.500236	0.042297
1165.653551	0.049623
1165.806848	0.044388
1165.960126	0.043431
1166.113386	0.043484
1166.266628	0.041069
1166.419852	0.041585
1166.573058	0.042063
1166.726245	0.039201
1166.879414	0.036846
1167.032565	0.035092
1167.185698	0.034977
1167.338812	0.031174
1167.491909	0.034185
1167.644987	0.033925
1167.798046	0.037014
1167.951088	0.036258
1168.104111	0.033935
1168.257117	0.034454
1168.410103	0.030967
1168.563072	0.033060
1168.716023	0.039552
1168.868955	0.029783
1169.021869	0.040719
1169.174765	0.045009
1169.327642	0.046172
1169.480501	0.044427
1169.633343	0.041566
1169.786165	0.041769
1169.938970	0.042200
1170.091757	0.031204
1170.244525	0.039459
1170.397275	0.026086
1170.550007	0.020685
1170.702720	0.022849
1170.855415	0.023280
1171.008092	0.025923
1171.160751	0.025848
1171.313392	0.021880
1171.466014	0.002308
1171.618619	0.015978
1171.771205	0.015978
1171.923772	0.015978
