sample name	sample
index	339
start time	 03-01-2021  11:07:44 AM


Wavelength (nm)	Absorbance
494.344910	NaN
494.563924	NaN
494.782919	NaN
495.001897	0.023957
495.220856	0.415836
495.439797	0.402757
495.658719	0.258126
495.877624	0.224659
496.096510	0.165786
496.315378	0.149037
496.534227	0.113718
496.753059	0.059484
496.971872	0.080837
497.190667	0.225597
497.409444	0.234006
497.628203	0.245808
497.846943	0.247302
498.065665	0.253091
498.284369	0.253971
498.503055	0.254162
498.721723	0.253974
498.940372	0.254966
499.159003	0.253748
499.377616	0.252863
499.596210	0.251312
499.814787	0.250140
500.033345	0.247245
500.251885	0.246434
500.470406	0.244890
500.688910	0.242831
500.907395	0.241332
501.125862	0.240329
501.344311	0.241067
501.562742	0.241085
501.781154	0.240172
501.999548	0.239936
502.217924	0.237931
502.436282	0.237383
502.654621	0.237165
502.872942	0.236129
503.091245	0.234978
503.309530	0.233582
503.527797	0.232513
503.746045	0.232140
503.964275	0.230675
504.182487	0.230146
504.400681	0.229718
504.618856	0.229278
504.837013	0.228254
505.055152	0.228266
505.273273	0.227778
505.491376	0.227021
505.709460	0.226939
505.927526	0.226321
506.145574	0.226627
506.363604	0.225181
506.581615	0.225336
506.799608	0.224916
507.017583	0.224033
507.235540	0.222452
507.453478	0.221556
507.671399	0.220104
507.889301	0.219549
508.107185	0.218172
508.325050	0.217352
508.542898	0.216269
508.760727	0.215624
508.978538	0.215307
509.196330	0.215034
509.414105	0.213762
509.631861	0.212418
509.849599	0.212156
510.067319	0.211438
510.285021	0.210733
510.502704	0.210685
510.720369	0.210134
510.938016	0.209450
511.155645	0.208841
511.373255	0.207889
511.590848	0.208426
511.808422	0.208449
512.025977	0.207959
512.243515	0.208040
512.461034	0.205709
512.678536	0.205397
512.896018	0.204973
513.113483	0.204364
513.330930	0.204700
513.548358	0.203774
513.765768	0.202304
513.983160	0.202328
514.200533	0.201603
514.417889	0.201860
514.635226	0.201580
514.852545	0.200998
515.069845	0.200879
515.287128	0.200462
515.504392	0.198972
515.721638	0.199133
515.938866	0.197562
516.156075	0.196468
516.373267	0.196387
516.590440	0.195396
516.807594	0.195007
517.024731	0.193956
517.241850	0.193443
517.458950	0.192860
517.676032	0.191523
517.893095	0.191213
518.110141	0.191592
518.327168	0.190644
518.544177	0.190632
518.761168	0.189913
518.978141	0.190251
519.195095	0.189808
519.412031	0.190900
519.628949	0.191230
519.845849	0.191490
520.062731	0.191065
520.279594	0.190831
520.496439	0.190841
520.713266	0.189958
520.930074	0.188526
521.146865	0.187918
521.363637	0.186496
521.580391	0.186208
521.797127	0.186248
522.013844	0.185768
522.230543	0.185709
522.447224	0.184605
522.663887	0.184807
522.880532	0.185363
523.097158	0.185398
523.313766	0.186219
523.530356	0.185477
523.746928	0.184513
523.963481	0.184153
524.180017	0.184138
524.396534	0.184253
524.613032	0.183930
524.829513	0.183674
525.045975	0.182829
525.262420	0.181413
525.478845	0.181771
525.695253	0.181282
525.911643	0.181087
526.128014	0.180381
526.344367	0.179970
526.560702	0.180070
526.777018	0.179889
526.993316	0.180641
527.209597	0.181366
527.425858	0.180641
527.642102	0.181390
527.858328	0.180931
528.074535	0.180614
528.290724	0.180135
528.506894	0.179931
528.723047	0.179629
528.939181	0.179090
529.155297	0.178878
529.371395	0.179223
529.587475	0.178730
529.803536	0.179428
530.019579	0.179416
530.235604	0.179587
530.451611	0.178905
530.667600	0.179215
530.883570	0.178997
531.099522	0.178941
531.315456	0.178175
531.531372	0.178060
531.747269	0.177384
531.963148	0.177617
532.179009	0.177298
532.394852	0.177777
532.610676	0.177515
532.826482	0.176946
533.042271	0.176470
533.258040	0.176785
533.473792	0.176656
533.689525	0.176730
533.905240	0.176025
534.120937	0.176165
534.336616	0.176100
534.552277	0.175927
534.767919	0.176439
534.983543	0.176621
535.199149	0.176659
535.414736	0.176504
535.630306	0.176523
535.845857	0.176528
536.061390	0.177026
536.276904	0.176898
536.492401	0.176625
536.707879	0.176131
536.923339	0.175993
537.138781	0.175817
537.354204	0.175944
537.569610	0.175428
537.784997	0.175666
538.000366	0.175157
538.215716	0.175121
538.431049	0.175256
538.646363	0.175563
538.861659	0.175024
539.076937	0.174878
539.292196	0.174502
539.507438	0.174333
539.722661	0.174027
539.937866	0.173939
540.153052	0.174133
540.368221	0.174410
540.583371	0.174211
540.798503	0.174930
541.013617	0.174465
541.228712	0.174651
541.443789	0.175337
541.658848	0.175868
541.873889	0.175777
542.088912	0.175670
542.303916	0.175298
542.518902	0.175202
542.733870	0.174842
542.948820	0.175383
543.163752	0.175477
543.378665	0.174876
543.593560	0.174385
543.808437	0.174255
544.023295	0.173778
544.238136	0.174068
544.452958	0.174277
544.667762	0.174274
544.882548	0.174466
545.097315	0.174133
545.312064	0.174332
545.526795	0.174106
545.741508	0.174166
545.956203	0.173857
546.170879	0.173285
546.385537	0.173424
546.600177	0.173248
546.814799	0.172909
547.029402	0.172784
547.243988	0.172650
547.458555	0.172863
547.673103	0.172527
547.887634	0.173090
548.102146	0.173344
548.316640	0.173332
548.531116	0.173347
548.745574	0.173074
548.960013	0.173239
549.174435	0.173175
549.388838	0.172842
549.603222	0.172781
549.817589	0.172387
550.031937	0.172215
550.246267	0.171847
550.460579	0.171642
550.674873	0.171734
550.889148	0.171700
551.103405	0.171480
551.317644	0.171816
551.531865	0.172034
551.746068	0.172492
551.960252	0.172529
552.174418	0.172579
552.388566	0.172851
552.602696	0.172893
552.816807	0.173004
553.030900	0.173220
553.244975	0.173310
553.459032	0.173067
553.673070	0.172811
553.887091	0.172722
554.101093	0.172915
554.315077	0.172942
554.529042	0.172740
554.742990	0.172680
554.956919	0.172896
555.170830	0.172633
555.384722	0.172969
555.598597	0.173047
555.812453	0.173232
556.026291	0.172819
556.240111	0.172683
556.453913	0.172775
556.667696	0.173033
556.881461	0.173176
557.095208	0.173399
557.308937	0.172767
557.522647	0.172600
557.736339	0.172574
557.950013	0.173013
558.163669	0.173216
558.377307	0.173370
558.590926	0.172781
558.804527	0.172559
559.018110	0.172626
559.231675	0.172914
559.445221	0.173002
559.658749	0.172800
559.872259	0.172544
560.085751	0.172517
560.299225	0.172345
560.512680	0.172653
560.726117	0.172807
560.939536	0.172955
561.152937	0.173263
561.366319	0.173368
561.579683	0.173638
561.793029	0.173847
562.006357	0.173353
562.219667	0.173247
562.432958	0.173084
562.646231	0.173008
562.859486	0.172860
563.072723	0.172848
563.285941	0.172702
563.499141	0.172581
563.712323	0.172435
563.925487	0.173007
564.138632	0.172983
564.351760	0.173037
564.564869	0.172919
564.777960	0.172930
564.991032	0.172908
565.204087	0.172754
565.417123	0.172765
565.630141	0.172640
565.843140	0.172596
566.056122	0.172976
566.269085	0.173161
566.482030	0.173342
566.694957	0.172964
566.907866	0.172988
567.120756	0.173447
567.333628	0.173798
567.546482	0.174026
567.759318	0.173684
567.972135	0.173428
568.184935	0.173397
568.397716	0.173374
568.610478	0.173417
568.823223	0.173249
569.035949	0.173322
569.248657	0.173157
569.461347	0.172851
569.674019	0.173261
569.886672	0.173791
570.099308	0.173772
570.311925	0.173608
570.524523	0.173927
570.737104	0.174251
570.949666	0.173870
571.162210	0.173924
571.374736	0.174393
571.587244	0.174688
571.799733	0.174566
572.012205	0.174657
572.224658	0.174828
572.437092	0.174990
572.649509	0.174876
572.861907	0.175198
573.074287	0.175449
573.286649	0.175234
573.498993	0.175163
573.711318	0.175088
573.923625	0.175188
574.135914	0.175748
574.348185	0.175794
574.560438	0.176152
574.772672	0.176087
574.984888	0.175833
575.197086	0.176188
575.409266	0.175998
575.621427	0.175821
575.833570	0.175919
576.045695	0.175518
576.257802	0.175488
576.469890	0.175318
576.681961	0.175412
576.894013	0.175633
577.106046	0.175831
577.318062	0.175919
577.530059	0.176081
577.742039	0.176272
577.954000	0.176510
578.165942	0.176699
578.377867	0.176731
578.589773	0.177094
578.801661	0.177066
579.013531	0.176761
579.225382	0.176449
579.437216	0.176408
579.649031	0.175864
579.860828	0.175708
580.072606	0.175540
580.284367	0.175503
580.496109	0.175391
580.707833	0.175617
580.919539	0.175815
581.131227	0.176337
581.342896	0.176484
581.554547	0.176750
581.766180	0.176906
581.977795	0.177172
582.189391	0.177771
582.400969	0.177837
582.612529	0.177912
582.824071	0.177954
583.035595	0.178187
583.247100	0.178379
583.458587	0.178604
583.670056	0.178386
583.881506	0.178218
584.092939	0.177829
584.304353	0.178109
584.515749	0.177959
584.727127	0.178097
584.938486	0.177805
585.149828	0.178172
585.361151	0.178579
585.572456	0.179043
585.783742	0.179252
585.995011	0.179244
586.206261	0.179334
586.417493	0.179596
586.628706	0.179630
586.839902	0.179692
587.051079	0.179747
587.262238	0.179626
587.473379	0.179550
587.684502	0.179803
587.895606	0.180100
588.106692	0.179786
588.317760	0.179619
588.528810	0.179813
588.739841	0.180025
588.950855	0.180472
589.161850	0.180693
589.372827	0.181012
589.583785	0.180981
589.794726	0.181144
590.005648	0.181781
590.216552	0.181911
590.427437	0.181609
590.638305	0.181877
590.849154	0.181508
591.059985	0.181468
591.270798	0.180987
591.481592	0.181338
591.692369	0.181339
591.903127	0.181100
592.113867	0.181399
592.324588	0.181957
592.535292	0.181896
592.745977	0.181873
592.956644	0.182205
593.167293	0.182659
593.377923	0.182252
593.588536	0.182627
593.799130	0.182448
594.009706	0.182665
594.220263	0.182763
594.430803	0.183083
594.641324	0.183405
594.851827	0.183321
595.062312	0.183183
595.272778	0.183645
595.483227	0.183423
595.693657	0.183581
595.904069	0.183501
596.114462	0.183440
596.324838	0.183229
596.535195	0.183262
596.745534	0.183473
596.955855	0.183797
597.166157	0.183707
597.376441	0.184133
597.586707	0.184306
597.796955	0.184708
598.007185	0.184823
598.217396	0.185117
598.427589	0.185242
598.637764	0.185469
598.847921	0.185496
599.058060	0.185812
599.268180	0.185694
599.478282	0.186086
599.688366	0.185936
599.898431	0.185929
600.108479	0.186159
600.318508	0.186714
600.528519	0.186658
600.738511	0.186957
600.948486	0.187043
601.158442	0.187117
601.368380	0.187150
601.578300	0.187139
601.788202	0.187401
601.998085	0.187455
602.207950	0.187147
602.417797	0.186942
602.627626	0.186904
602.837436	0.186920
603.047228	0.187208
603.257002	0.187362
603.466758	0.187485
603.676496	0.187515
603.886215	0.187998
604.095916	0.187876
604.305599	0.187996
604.515264	0.188155
604.724910	0.188769
604.934538	0.189050
605.144148	0.188971
605.353740	0.189294
605.563314	0.189317
605.772869	0.189119
605.982406	0.189562
606.191925	0.190108
606.401425	0.190405
606.610908	0.189994
606.820372	0.189840
607.029818	0.190112
607.239246	0.190187
607.448655	0.190309
607.658047	0.190196
607.867420	0.189911
608.076775	0.189918
608.286111	0.189912
608.495430	0.190250
608.704730	0.190297
608.914012	0.190270
609.123275	0.190280
609.332521	0.190728
609.541748	0.190960
609.750957	0.191405
609.960148	0.191517
610.169321	0.191615
610.378475	0.191813
610.587611	0.192017
610.796729	0.192171
611.005829	0.192325
611.214910	0.192285
611.423974	0.192465
611.633019	0.192557
611.842045	0.192599
612.051054	0.192566
612.260044	0.192460
612.469017	0.192340
612.677970	0.192249
612.886906	0.192364
613.095824	0.192480
613.304723	0.192683
613.513604	0.192522
613.722467	0.192853
613.931311	0.193148
614.140138	0.193168
614.348946	0.193575
614.557736	0.193882
614.766507	0.193968
614.975261	0.194128
615.183996	0.194047
615.392713	0.194403
615.601412	0.194440
615.810092	0.194588
616.018754	0.194711
616.227399	0.194492
616.436024	0.194678
616.644632	0.194935
616.853222	0.194927
617.061793	0.194959
617.270346	0.194987
617.478880	0.194960
617.687397	0.194801
617.895895	0.194916
618.104375	0.195083
618.312837	0.195220
618.521281	0.195120
618.729706	0.195099
618.938113	0.195207
619.146502	0.195428
619.354873	0.195356
619.563226	0.195522
619.771560	0.195695
619.979876	0.195876
620.188174	0.196080
620.396453	0.196397
620.604715	0.196516
620.812958	0.196736
621.021183	0.196789
621.229390	0.197042
621.437578	0.197152
621.645748	0.197295
621.853900	0.197598
622.062034	0.197554
622.270150	0.197345
622.478247	0.197445
622.686326	0.197441
622.894387	0.197324
623.102430	0.197328
623.310454	0.197485
623.518461	0.197477
623.726449	0.197435
623.934418	0.197452
624.142370	0.197451
624.350303	0.197657
624.558218	0.197918
624.766115	0.198234
624.973994	0.198354
625.181855	0.198474
625.389697	0.198685
625.597521	0.198806
625.805327	0.198722
626.013114	0.199003
626.220883	0.199159
626.428634	0.199363
626.636367	0.199356
626.844082	0.199686
627.051778	0.199653
627.259457	0.199558
627.467117	0.199589
627.674758	0.199805
627.882382	0.199997
628.089987	0.200060
628.297574	0.199992
628.505143	0.200201
628.712694	0.199964
628.920226	0.200076
629.127740	0.200292
629.335236	0.200414
629.542714	0.200648
629.750174	0.200466
629.957615	0.200376
630.165038	0.200211
630.372443	0.200341
630.579829	0.200498
630.787198	0.200712
630.994548	0.200867
631.201880	0.200947
631.409194	0.200997
631.616489	0.201543
631.823766	0.201923
632.031025	0.202534
632.238266	0.202722
632.445489	0.202903
632.652693	0.203109
632.859879	0.203195
633.067047	0.203566
633.274197	0.203497
633.481329	0.203724
633.688442	0.203719
633.895537	0.203605
634.102614	0.203738
634.309672	0.203818
634.516713	0.203886
634.723735	0.203738
634.930739	0.203768
635.137724	0.204146
635.344692	0.203868
635.551641	0.204037
635.758572	0.204068
635.965485	0.204123
636.172379	0.204201
636.379256	0.204295
636.586114	0.204518
636.792954	0.204410
636.999775	0.204500
637.206579	0.204639
637.413364	0.204722
637.620131	0.204994
637.826880	0.204938
638.033610	0.205090
638.240323	0.205199
638.447017	0.205391
638.653692	0.205486
638.860350	0.205500
639.066990	0.205554
639.273611	0.205693
639.480214	0.205583
639.686798	0.205861
639.893365	0.206154
640.099913	0.206440
640.306443	0.206586
640.512955	0.206896
640.719449	0.206853
640.925924	0.207068
641.132381	0.207328
641.338820	0.207636
641.545241	0.207475
641.751644	0.207407
641.958028	0.207375
642.164394	0.207317
642.370742	0.207461
642.577071	0.207734
642.783383	0.207801
642.989676	0.207655
643.195951	0.207764
643.402207	0.207840
643.608446	0.208020
643.814666	0.208129
644.020868	0.208507
644.227052	0.208541
644.433218	0.208716
644.639365	0.208894
644.845494	0.209319
645.051605	0.209311
645.257698	0.209718
645.463772	0.209927
645.669828	0.209795
645.875866	0.210090
646.081886	0.210296
646.287888	0.210503
646.493871	0.210437
646.699836	0.210245
646.905783	0.210427
647.111712	0.210578
647.317622	0.210666
647.523514	0.211115
647.729388	0.211024
647.935244	0.210980
648.141082	0.210938
648.346901	0.211323
648.552702	0.211406
648.758485	0.211641
648.964250	0.211641
649.169996	0.211948
649.375724	0.211770
649.581434	0.211890
649.787126	0.212225
649.992800	0.212458
650.198455	0.212601
650.404092	0.212875
650.609711	0.212971
650.815311	0.213375
651.020894	0.213300
651.226458	0.213495
651.432004	0.213712
651.637532	0.213856
651.843041	0.213815
652.048532	0.213708
652.254006	0.213966
652.459460	0.214100
652.664897	0.213861
652.870315	0.213889
653.075716	0.214024
653.281097	0.213909
653.486461	0.213809
653.691807	0.214028
653.897134	0.214183
654.102443	0.214132
654.307734	0.214299
654.513006	0.214514
654.718261	0.214671
654.923497	0.214939
655.128715	0.215279
655.333915	0.215293
655.539096	0.215576
655.744259	0.215707
655.949404	0.215932
656.154531	0.216034
656.359640	0.216208
656.564730	0.216405
656.769802	0.216658
656.974856	0.216536
657.179892	0.216975
657.384909	0.216977
657.589908	0.217173
657.794889	0.217401
657.999852	0.217898
658.204797	0.218258
658.409723	0.218643
658.614631	0.218893
658.819521	0.219467
659.024393	0.219449
659.229246	0.219745
659.434081	0.220172
659.638898	0.220426
659.843697	0.220215
660.048478	0.220176
660.253240	0.220311
660.457984	0.220411
660.662710	0.220505
660.867417	0.220859
661.072107	0.221059
661.276778	0.220990
661.481431	0.220816
661.686066	0.220970
661.890682	0.221255
662.095281	0.221001
662.299861	0.221108
662.504422	0.221065
662.708966	0.220913
662.913491	0.221207
663.117999	0.221522
663.322488	0.221569
663.526958	0.221520
663.731411	0.221551
663.935845	0.221964
664.140261	0.222138
664.344659	0.222438
664.549038	0.222667
664.753400	0.222405
664.957743	0.222574
665.162068	0.223036
665.366375	0.223255
665.570663	0.223434
665.774933	0.223756
665.979185	0.223786
666.183419	0.223930
666.387635	0.224121
666.591832	0.224374
666.796011	0.224630
667.000172	0.224739
667.204315	0.224991
667.408439	0.225219
667.612545	0.225206
667.816634	0.225242
668.020703	0.225186
668.224755	0.225496
668.428788	0.225677
668.632803	0.225492
668.836800	0.225508
669.040779	0.225747
669.244739	0.225755
669.448681	0.225922
669.652605	0.226096
669.856511	0.226401
670.060399	0.226641
670.264268	0.226764
670.468119	0.227154
670.671952	0.227400
670.875767	0.227575
671.079563	0.227880
671.283341	0.227825
671.487101	0.228021
671.690843	0.228179
671.894567	0.228219
672.098272	0.228314
672.301959	0.228329
672.505628	0.228287
672.709278	0.228323
672.912911	0.228451
673.116525	0.228851
673.320121	0.229160
673.523699	0.229277
673.727258	0.229356
673.930799	0.229554
674.134322	0.229703
674.337827	0.229897
674.541314	0.230203
674.744782	0.230334
674.948232	0.230347
675.151664	0.230235
675.355078	0.230208
675.558474	0.230190
675.761851	0.230329
675.965210	0.230490
676.168551	0.230692
676.371873	0.230561
676.575178	0.230646
676.778464	0.230802
676.981732	0.231192
677.184981	0.231510
677.388213	0.231873
677.591426	0.232209
677.794621	0.232412
677.997798	0.232602
678.200956	0.232813
678.404097	0.233072
678.607219	0.233278
678.810323	0.233318
679.013408	0.233628
679.216476	0.233780
679.419525	0.233909
679.622556	0.234210
679.825569	0.234589
680.028563	0.234747
680.231540	0.234912
680.434498	0.235055
680.637438	0.235333
680.840359	0.235302
681.043263	0.235410
681.246148	0.235412
681.449015	0.235295
681.651864	0.235157
681.854694	0.235328
682.057506	0.235314
682.260301	0.235437
682.463076	0.235354
682.665834	0.235510
682.868573	0.235754
683.071295	0.235982
683.273998	0.236320
683.476682	0.236547
683.679349	0.236779
683.881997	0.237048
684.084627	0.237338
684.287239	0.237533
684.489833	0.237610
684.692408	0.237601
684.894965	0.237575
685.097504	0.237830
685.300025	0.238078
685.502527	0.238236
685.705012	0.238270
685.907478	0.238042
686.109925	0.238056
686.312355	0.238233
686.514766	0.238329
686.717159	0.238628
686.919534	0.238316
687.121891	0.238422
687.324230	0.238397
687.526550	0.238620
687.728852	0.238856
687.931136	0.239254
688.133401	0.239430
688.335649	0.239695
688.537878	0.239589
688.740089	0.240010
688.942281	0.240199
689.144456	0.240443
689.346612	0.240733
689.548750	0.240848
689.750870	0.240846
689.952971	0.240906
690.155055	0.241232
690.357120	0.241549
690.559167	0.241658
690.761195	0.241457
690.963206	0.241492
691.165198	0.241391
691.367172	0.241669
691.569128	0.241816
691.771065	0.242211
691.972984	0.241994
692.174885	0.242224
692.376768	0.242365
692.578633	0.242796
692.780479	0.242913
692.982308	0.242958
693.184118	0.243153
693.385909	0.243239
693.587683	0.243373
693.789438	0.243848
693.991175	0.243870
694.192894	0.244007
694.394595	0.244046
694.596277	0.244218
694.797941	0.244412
694.999587	0.244436
695.201215	0.244728
695.402824	0.244474
695.604416	0.244472
695.805989	0.244429
696.007543	0.244445
696.209080	0.244510
696.410598	0.244691
696.612099	0.244881
696.813580	0.245067
697.015044	0.245137
697.216490	0.245287
697.417917	0.245361
697.619326	0.245610
697.820717	0.245647
698.022089	0.245726
698.223444	0.245832
698.424780	0.245793
698.626098	0.245713
698.827397	0.245770
699.028679	0.246024
699.229942	0.246021
699.431187	0.246044
699.632414	0.246146
699.833622	0.246313
700.034813	0.246592
700.235985	0.246761
700.437139	0.247143
700.638274	0.247429
700.839392	0.247741
701.040491	0.247978
701.241572	0.248351
701.442635	0.248565
701.643679	0.248817
701.844706	0.248766
702.045714	0.248700
702.246704	0.248690
702.447675	0.248822
702.648629	0.248646
702.849564	0.248689
703.050481	0.248766
703.251380	0.248799
703.452260	0.248788
703.653122	0.248765
703.853966	0.248986
704.054792	0.248973
704.255600	0.248829
704.456389	0.249051
704.657160	0.249158
704.857913	0.248916
705.058648	0.248986
705.259365	0.248835
705.460063	0.248780
705.660743	0.248735
705.861405	0.248612
706.062048	0.248564
706.262674	0.248450
706.463281	0.248242
706.663870	0.248186
706.864441	0.248107
707.064993	0.248320
707.265527	0.248448
707.466043	0.248641
707.666541	0.248714
707.867021	0.248978
708.067482	0.248973
708.267925	0.248982
708.468350	0.249392
708.668757	0.249462
708.869145	0.249584
709.069516	0.249624
709.269868	0.249731
709.470201	0.249841
709.670517	0.249819
709.870814	0.249825
710.071093	0.249926
710.271354	0.249970
710.471597	0.249979
710.671821	0.250025
710.872028	0.249941
711.072216	0.250053
711.272385	0.250226
711.472537	0.250228
711.672670	0.250441
711.872785	0.250475
712.072882	0.250399
712.272961	0.250209
712.473021	0.250215
712.673063	0.250274
712.873087	0.250067
713.073093	0.250033
713.273081	0.249859
713.473050	0.249779
713.673001	0.249753
713.872934	0.249628
714.072849	0.250163
714.272745	0.250212
714.472623	0.250264
714.672483	0.250325
714.872325	0.250410
715.072148	0.250497
715.271954	0.250297
715.471741	0.250503
715.671509	0.250196
715.871260	0.249910
716.070992	0.249510
716.270707	0.249574
716.470403	0.249366
716.670080	0.249353
716.869740	0.249220
717.069381	0.249472
717.269004	0.249129
717.468609	0.249221
717.668195	0.249037
717.867764	0.249145
718.067314	0.249180
718.266846	0.249246
718.466360	0.249092
718.665855	0.249376
718.865332	0.249248
719.064791	0.249396
719.264232	0.249515
719.463655	0.249582
719.663059	0.249370
719.862445	0.249223
720.061813	0.249161
720.261163	0.249133
720.460494	0.248870
720.659807	0.248799
720.859102	0.248912
721.058379	0.249067
721.257638	0.248907
721.456878	0.249234
721.656100	0.249163
721.855304	0.249241
722.054490	0.249238
722.253657	0.249211
722.452806	0.249208
722.651937	0.248982
722.851050	0.248655
723.050145	0.248876
723.249221	0.248596
723.448279	0.248731
723.647319	0.248486
723.846340	0.248470
724.045344	0.248373
724.244329	0.248256
724.443296	0.248386
724.642245	0.248511
724.841175	0.248482
725.040088	0.248509
725.238982	0.248120
725.437857	0.248311
725.636715	0.248018
725.835554	0.248008
726.034376	0.248053
726.233179	0.248038
726.431963	0.248014
726.630730	0.247773
726.829478	0.247872
727.028208	0.248235
727.226920	0.248101
727.425614	0.248234
727.624289	0.248208
727.822946	0.248259
728.021585	0.248320
728.220206	0.248187
728.418808	0.248093
728.617392	0.247905
728.815958	0.247836
729.014506	0.247929
729.213036	0.247987
729.411547	0.247985
729.610040	0.247886
729.808515	0.247745
730.006972	0.247817
730.205410	0.247974
730.403831	0.248056
730.602233	0.247655
730.800616	0.247342
730.998982	0.247196
731.197329	0.247016
731.395658	0.246814
731.593969	0.246591
731.792262	0.246226
731.990536	0.246024
732.188793	0.245897
732.387031	0.245831
732.585250	0.245858
732.783452	0.245730
732.981635	0.245874
733.179800	0.246052
733.377947	0.246047
733.576076	0.246359
733.774186	0.246439
733.972278	0.246367
734.170352	0.246391
734.368408	0.246310
734.566446	0.246198
734.764465	0.245864
734.962466	0.245620
735.160449	0.245282
735.358413	0.245118
735.556360	0.245059
735.754288	0.244814
735.952198	0.244560
736.150090	0.244269
736.347963	0.244208
736.545818	0.244278
736.743655	0.244067
736.941474	0.244010
737.139275	0.243678
737.337057	0.243398
737.534821	0.243488
737.732567	0.243677
737.930295	0.243683
738.128005	0.243438
738.325696	0.243011
738.523369	0.243037
738.721024	0.243143
738.918660	0.243370
739.116279	0.243365
739.313879	0.243103
739.511461	0.242790
739.709024	0.242827
739.906570	0.242829
740.104097	0.243049
740.301606	0.242716
740.499097	0.242546
740.696569	0.242270
740.894024	0.242119
741.091460	0.242056
741.288878	0.241925
741.486277	0.241805
741.683659	0.241859
741.881022	0.241762
742.078367	0.241824
742.275694	0.241915
742.473002	0.241772
742.670293	0.241852
742.867565	0.241600
743.064819	0.241517
743.262054	0.241382
743.459272	0.240974
743.656471	0.240485
743.853652	0.240433
744.050815	0.240243
744.247959	0.240118
744.445085	0.239741
744.642194	0.239746
744.839283	0.239783
745.036355	0.239650
745.233408	0.239746
745.430444	0.240038
745.627461	0.239839
745.824459	0.239457
746.021440	0.239296
746.218402	0.239133
746.415346	0.239006
746.612272	0.238749
746.809180	0.238595
747.006069	0.238427
747.202940	0.238246
747.399793	0.237978
747.596628	0.237789
747.793444	0.237607
747.990243	0.237406
748.187023	0.237264
748.383784	0.237296
748.580528	0.237042
748.777253	0.236606
748.973960	0.236337
749.170649	0.236309
749.367320	0.236303
749.563973	0.236119
749.760607	0.235890
749.957223	0.235770
750.153821	0.235436
750.350400	0.235398
750.546962	0.235403
750.743505	0.235296
750.940030	0.235085
751.136536	0.234897
751.333025	0.234631
751.529495	0.234567
751.725947	0.234211
751.922381	0.234010
752.118796	0.234076
752.315194	0.233928
752.511573	0.233740
752.707934	0.233687
752.904276	0.233604
753.100601	0.233504
753.296907	0.233563
753.493195	0.233414
753.689465	0.233143
753.885716	0.232746
754.081949	0.232678
754.278164	0.232699
754.474361	0.232563
754.670540	0.232533
754.866700	0.232555
755.062843	0.232327
755.258967	0.232329
755.455072	0.232579
755.651160	0.232453
755.847229	0.232310
756.043280	0.232191
756.239313	0.232036
756.435328	0.231928
756.631324	0.231768
756.827302	0.231757
757.023262	0.231644
757.219204	0.231435
757.415127	0.231503
757.611033	0.231596
757.806920	0.231359
758.002788	0.231203
758.198639	0.231126
758.394471	0.231130
758.590286	0.231076
758.786081	0.231289
758.981859	0.231348
759.177619	0.230904
759.373360	0.230707
759.569083	0.230590
759.764788	0.230749
759.960474	0.230504
760.156143	0.230496
760.351793	0.230322
760.547425	0.230003
760.743038	0.229695
760.938634	0.229987
761.134211	0.229901
761.329770	0.229651
761.525311	0.229154
761.720833	0.229132
761.916338	0.228981
762.111824	0.228757
762.307292	0.228644
762.502741	0.228664
762.698173	0.228473
762.893586	0.228461
763.088981	0.228621
763.284358	0.228609
763.479716	0.228104
763.675057	0.227798
763.870379	0.227773
764.065683	0.227782
764.260968	0.227467
764.456236	0.227130
764.651485	0.226861
764.846716	0.226850
765.041929	0.226872
765.237123	0.227305
765.432299	0.227418
765.627457	0.227260
765.822597	0.227214
766.017719	0.227164
766.212822	0.227395
766.407907	0.227366
766.602974	0.227257
766.798023	0.227284
766.993054	0.227099
767.188066	0.227146
767.383060	0.227311
767.578036	0.227354
767.772993	0.227539
767.967933	0.227293
768.162854	0.227227
768.357757	0.226982
768.552642	0.226862
768.747508	0.226774
768.942356	0.226502
769.137186	0.226512
769.331998	0.226213
769.526792	0.226161
769.721567	0.226050
769.916324	0.226225
770.111063	0.226178
770.305784	0.226171
770.500486	0.226014
770.695171	0.225777
770.889837	0.225490
771.084484	0.225678
771.279114	0.225625
771.473725	0.225549
771.668318	0.225309
771.862893	0.225530
772.057450	0.225493
772.251988	0.225325
772.446509	0.225587
772.641011	0.225521
772.835494	0.225158
773.029960	0.224902
773.224407	0.224972
773.418836	0.225000
773.613247	0.224606
773.807640	0.224590
774.002014	0.224718
774.196370	0.224699
774.390708	0.224816
774.585028	0.225030
774.779330	0.225085
774.973613	0.224939
775.167878	0.224732
775.362125	0.224965
775.556354	0.224978
775.750564	0.225182
775.944756	0.224893
776.138930	0.224721
776.333086	0.224470
776.527223	0.224430
776.721343	0.224530
776.915444	0.224543
777.109526	0.224317
777.303591	0.224451
777.497637	0.224251
777.691666	0.224344
777.885676	0.224444
778.079667	0.224407
778.273641	0.224340
778.467596	0.224202
778.661533	0.224097
778.855452	0.224009
779.049352	0.223624
779.243235	0.223622
779.437099	0.223457
779.630945	0.223498
779.824773	0.223401
780.018582	0.223300
780.212373	0.223252
780.406146	0.223254
780.599901	0.223315
780.793638	0.223335
780.987356	0.223143
781.181056	0.223293
781.374738	0.223340
781.568402	0.223487
781.762047	0.223529
781.955674	0.223829
782.149283	0.223930
782.342874	0.224117
782.536447	0.224060
782.730001	0.224367
782.923537	0.224448
783.117055	0.224615
783.310555	0.224753
783.504036	0.224721
783.697499	0.224656
783.890944	0.224636
784.084371	0.224528
784.277780	0.224534
784.471170	0.224581
784.664542	0.224470
784.857896	0.224242
785.051231	0.224143
785.244549	0.224309
785.437848	0.224395
785.631129	0.224363
785.824392	0.224368
786.017636	0.224589
786.210863	0.224402
786.404071	0.224634
786.597260	0.224554
786.790432	0.224484
786.983585	0.224425
787.176721	0.224353
787.369838	0.224546
787.562936	0.224609
787.756017	0.224691
787.949079	0.224664
788.142123	0.224684
788.335149	0.225094
788.528156	0.225250
788.721146	0.225321
788.914117	0.225527
789.107070	0.225570
789.300005	0.225719
789.492921	0.225895
789.685819	0.226287
789.878699	0.226341
790.071561	0.226121
790.264405	0.226252
790.457230	0.226365
790.650037	0.226233
790.842826	0.226492
791.035597	0.226680
791.228349	0.226414
791.421084	0.226036
791.613800	0.225990
791.806497	0.226230
791.999177	0.226127
792.191838	0.226008
792.384481	0.226190
792.577106	0.225938
792.769713	0.225785
792.962301	0.225978
793.154871	0.225979
793.347423	0.226022
793.539957	0.225914
793.732473	0.226079
793.924970	0.226097
794.117449	0.226138
794.309910	0.226334
794.502353	0.226394
794.694777	0.226366
794.887183	0.226816
795.079571	0.227087
795.271941	0.227373
795.464293	0.227348
795.656626	0.227715
795.848941	0.227873
796.041238	0.227867
796.233516	0.227948
796.425777	0.228180
796.618019	0.228165
796.810243	0.228075
797.002449	0.227952
797.194636	0.228509
797.386805	0.228608
797.578956	0.228657
797.771089	0.228548
797.963204	0.228808
798.155300	0.228795
798.347378	0.228862
798.539438	0.228754
798.731480	0.228647
798.923503	0.228254
799.115509	0.228291
799.307496	0.228171
799.499465	0.228402
799.691415	0.228272
799.883348	0.228254
800.075262	0.228197
800.267158	0.228355
800.459035	0.228548
800.650895	0.228822
800.842736	0.228875
801.034559	0.229045
801.226364	0.229193
801.418150	0.229338
801.609919	0.229511
801.801669	0.229773
801.993401	0.230242
802.185114	0.230475
802.376810	0.230552
802.568487	0.230809
802.760146	0.230923
802.951787	0.231206
803.143409	0.231443
803.335014	0.231665
803.526600	0.232023
803.718168	0.231882
803.909717	0.231838
804.101249	0.231953
804.292762	0.232230
804.484257	0.232455
804.675734	0.232549
804.867192	0.232715
805.058632	0.232877
805.250054	0.233031
805.441458	0.233535
805.632844	0.234106
805.824211	0.234564
806.015561	0.234712
806.206891	0.235112
806.398204	0.235267
806.589499	0.235548
806.780775	0.235879
806.972033	0.235909
807.163273	0.235948
807.354495	0.236292
807.545698	0.236228
807.736883	0.236062
807.928050	0.236206
808.119199	0.236593
808.310329	0.236802
808.501441	0.237044
808.692535	0.237154
808.883611	0.237578
809.074669	0.237125
809.265708	0.237657
809.456729	0.238194
809.647732	0.238182
809.838717	0.238262
810.029683	0.238604
810.220632	0.238636
810.411562	0.238860
810.602474	0.238910
810.793367	0.239326
810.984242	0.239330
811.175100	0.239474
811.365938	0.239948
811.556759	0.240176
811.747562	0.240365
811.938346	0.240702
812.129112	0.240813
812.319860	0.241131
812.510589	0.241588
812.701300	0.241805
812.891994	0.241940
813.082668	0.241829
813.273325	0.241908
813.463964	0.242129
813.654584	0.242515
813.845186	0.243023
814.035769	0.243105
814.226335	0.242920
814.416882	0.242840
814.607411	0.243131
814.797922	0.243399
814.988415	0.243688
815.178889	0.243401
815.369345	0.243194
815.559783	0.243026
815.750203	0.243012
815.940605	0.243227
816.130988	0.243399
816.321353	0.243392
816.511700	0.243643
816.702028	0.243930
816.892339	0.244355
817.082631	0.244627
817.272905	0.244933
817.463161	0.245270
817.653398	0.245527
817.843617	0.245992
818.033819	0.246572
818.224001	0.246752
818.414166	0.246872
818.604312	0.247004
818.794440	0.247147
818.984550	0.247637
819.174642	0.247932
819.364716	0.248329
819.554771	0.248670
819.744808	0.248727
819.934827	0.248813
820.124827	0.249275
820.314810	0.249890
820.504774	0.250302
820.694720	0.250078
820.884647	0.250248
821.074557	0.250704
821.264448	0.250769
821.454321	0.251132
821.644176	0.251375
821.834012	0.251460
822.023831	0.251440
822.213631	0.251749
822.403413	0.252117
822.593176	0.252374
822.782922	0.252536
822.972649	0.252635
823.162358	0.252910
823.352049	0.253285
823.541721	0.253533
823.731376	0.253772
823.921012	0.254077
824.110629	0.254365
824.300229	0.254493
824.489811	0.254598
824.679374	0.255143
824.868919	0.255271
825.058445	0.255473
825.247954	0.255609
825.437444	0.255921
825.626916	0.256083
825.816370	0.256534
826.005806	0.256953
826.195223	0.257295
826.384622	0.257478
826.574003	0.257664
826.763366	0.257867
826.952711	0.258238
827.142037	0.258415
827.331345	0.258516
827.520635	0.258843
827.709906	0.259000
827.899160	0.259343
828.088395	0.259553
828.277612	0.259855
828.466810	0.260398
828.655991	0.260837
828.845153	0.261347
829.034297	0.261860
829.223423	0.262068
829.412531	0.262675
829.601620	0.262662
829.790691	0.263003
829.979744	0.263461
830.168779	0.263710
830.357795	0.264105
830.546793	0.264487
830.735773	0.264714
830.924735	0.265141
831.113679	0.265259
831.302604	0.265883
831.491511	0.266162
831.680400	0.266314
831.869271	0.266577
832.058123	0.266528
832.246957	0.266605
832.435773	0.266895
832.624571	0.267192
832.813351	0.267389
833.002112	0.267690
833.190855	0.267953
833.379580	0.268211
833.568287	0.268722
833.756975	0.269286
833.945645	0.269778
834.134297	0.270089
834.322931	0.270437
834.511547	0.270884
834.700144	0.271215
834.888723	0.271799
835.077284	0.271854
835.265826	0.272212
835.454351	0.272567
835.642857	0.272878
835.831345	0.272975
836.019815	0.273275
836.208266	0.273578
836.396699	0.273724
836.585114	0.273928
836.773511	0.274648
836.961890	0.274913
837.150250	0.275215
837.338592	0.275589
837.526916	0.276304
837.715222	0.276958
837.903510	0.277309
838.091779	0.277599
838.280030	0.278182
838.468263	0.278613
838.656477	0.278824
838.844674	0.279059
839.032852	0.279253
839.221012	0.279395
839.409153	0.279333
839.597277	0.279726
839.785382	0.280306
839.973469	0.280167
840.161538	0.280388
840.349589	0.280759
840.537621	0.280964
840.725635	0.281429
840.913631	0.281718
841.101609	0.282063
841.289568	0.282250
841.477509	0.282250
841.665432	0.282727
841.853337	0.282941
842.041224	0.283419
842.229092	0.283800
842.416942	0.283783
842.604774	0.284256
842.792588	0.284611
842.980383	0.284946
843.168160	0.285464
843.355919	0.285860
843.543660	0.286082
843.731382	0.286038
843.919087	0.286432
844.106773	0.286651
844.294441	0.286689
844.482090	0.286880
844.669722	0.287105
844.857335	0.287536
845.044930	0.287905
845.232507	0.288582
845.420065	0.289381
845.607605	0.289495
845.795127	0.290017
845.982631	0.290601
846.170117	0.290893
846.357584	0.291396
846.545033	0.291657
846.732464	0.291972
846.919877	0.292030
847.107272	0.292289
847.294648	0.292775
847.482006	0.293104
847.669346	0.293501
847.856667	0.293845
848.043971	0.293861
848.231256	0.293958
848.418523	0.294417
848.605771	0.294989
848.793002	0.295105
848.980214	0.295258
849.167408	0.295678
849.354584	0.296117
849.541742	0.296833
849.728881	0.297754
849.916002	0.298451
850.103105	0.298593
850.290190	0.299078
850.477256	0.299311
850.664304	0.299440
850.851334	0.299628
851.038346	0.299332
851.225340	0.299677
851.412315	0.299761
851.599272	0.299991
851.786211	0.300641
851.973132	0.300681
852.160034	0.301352
852.346918	0.302177
852.533784	0.302671
852.720632	0.303416
852.907462	0.303472
853.094273	0.303899
853.281066	0.304183
853.467841	0.304343
853.654598	0.304988
853.841336	0.304861
854.028056	0.305043
854.214758	0.305384
854.401442	0.305612
854.588107	0.305996
854.774755	0.306251
854.961384	0.306679
855.147995	0.306817
855.334587	0.306677
855.521162	0.307092
855.707718	0.307282
855.894256	0.307693
856.080775	0.308163
856.267277	0.308515
856.453760	0.308763
856.640225	0.309093
856.826672	0.309766
857.013101	0.310624
857.199511	0.311177
857.385903	0.311594
857.572277	0.311716
857.758633	0.312136
857.944970	0.312649
858.131290	0.313002
858.317591	0.313049
858.503873	0.312990
858.690138	0.313010
858.876384	0.313165
859.062612	0.313732
859.248822	0.313955
859.435014	0.314397
859.621188	0.314505
859.807343	0.314687
859.993480	0.315110
860.179599	0.315849
860.365699	0.315725
860.551781	0.316349
860.737846	0.316644
860.923891	0.316609
861.109919	0.316874
861.295929	0.317209
861.481920	0.317663
861.667893	0.317735
861.853848	0.318038
862.039784	0.318762
862.225702	0.318769
862.411603	0.318998
862.597484	0.319755
862.783348	0.319977
862.969193	0.320003
863.155021	0.320619
863.340830	0.321066
863.526620	0.320873
863.712393	0.321121
863.898147	0.321516
864.083883	0.321802
864.269601	0.322120
864.455301	0.322200
864.640982	0.322753
864.826645	0.322639
865.012290	0.322984
865.197917	0.323461
865.383526	0.323567
865.569116	0.323804
865.754688	0.323939
865.940242	0.324022
866.125777	0.324539
866.311295	0.324723
866.496794	0.325004
866.682275	0.325102
866.867737	0.325042
867.053182	0.325216
867.238608	0.325390
867.424016	0.325527
867.609406	0.326086
867.794778	0.326049
867.980131	0.326497
868.165466	0.326892
868.350783	0.327589
868.536082	0.328173
868.721362	0.328733
868.906625	0.328963
869.091869	0.329655
869.277094	0.329807
869.462302	0.330202
869.647491	0.330184
869.832662	0.330578
870.017815	0.330312
870.202950	0.330538
870.388066	0.330922
870.573165	0.330936
870.758245	0.331000
870.943306	0.331229
871.128350	0.331342
871.313375	0.331620
871.498382	0.331507
871.683371	0.332230
871.868342	0.332198
872.053294	0.332223
872.238229	0.332621
872.423144	0.332881
872.608042	0.333205
872.792922	0.333680
872.977783	0.333808
873.162626	0.334285
873.347451	0.334682
873.532258	0.334940
873.717046	0.335166
873.901816	0.335479
874.086568	0.335763
874.271302	0.335980
874.456017	0.336132
874.640715	0.336805
874.825394	0.336744
875.010055	0.336622
875.194697	0.337003
875.379322	0.337260
875.563928	0.337561
875.748516	0.337459
875.933085	0.337223
876.117637	0.337233
876.302170	0.337183
876.486685	0.337542
876.671182	0.337501
876.855661	0.337669
877.040121	0.337979
877.224563	0.338379
877.408987	0.338791
877.593393	0.338902
877.777780	0.339277
877.962150	0.339262
878.146501	0.338939
878.330833	0.339386
878.515148	0.339392
878.699444	0.339295
878.883722	0.338554
879.067982	0.338748
879.252224	0.339112
879.436447	0.338681
879.620653	0.338789
879.804840	0.338970
879.989008	0.338923
880.173159	0.339132
880.357291	0.339024
880.541405	0.339936
880.725501	0.339768
880.909579	0.339794
881.093638	0.340119
881.277680	0.340053
881.461703	0.340682
881.645707	0.341025
881.829694	0.341189
882.013662	0.341628
882.197612	0.341268
882.381544	0.341413
882.565458	0.342165
882.749353	0.342912
882.933230	0.343055
883.117089	0.343178
883.300930	0.343028
883.484753	0.343160
883.668557	0.343476
883.852343	0.343676
884.036111	0.344017
884.219861	0.343681
884.403592	0.343374
884.587305	0.343800
884.771000	0.343594
884.954677	0.344048
885.138335	0.343956
885.321976	0.344169
885.505598	0.344421
885.689201	0.344341
885.872787	0.344288
886.056354	0.344729
886.239904	0.344684
886.423434	0.344489
886.606947	0.344245
886.790442	0.344740
886.973918	0.344466
887.157376	0.344846
887.340816	0.345157
887.524237	0.344974
887.707641	0.344920
887.891026	0.344643
888.074393	0.345072
888.257741	0.345259
888.441072	0.345042
888.624384	0.345107
888.807678	0.345165
888.990954	0.344794
889.174211	0.344875
889.357451	0.344750
889.540672	0.345289
889.723875	0.345332
889.907059	0.345622
890.090226	0.345237
890.273374	0.344912
890.456504	0.344663
890.639616	0.345119
890.822709	0.345553
891.005785	0.345680
891.188842	0.345704
891.371881	0.345755
891.554901	0.345615
891.737904	0.345740
891.920888	0.345963
892.103854	0.346116
892.286802	0.345783
892.469731	0.345741
892.652643	0.345510
892.835536	0.345908
893.018410	0.345563
893.201267	0.345453
893.384106	0.346144
893.566926	0.346278
893.749728	0.345956
893.932511	0.346262
894.115277	0.345922
894.298024	0.346109
894.480753	0.345545
894.663464	0.346142
894.846157	0.346122
895.028831	0.345912
895.211487	0.345967
895.394125	0.346360
895.576745	0.346086
895.759346	0.346345
895.941930	0.346085
896.124495	0.346110
896.307041	0.345870
896.489570	0.345696
896.672080	0.345435
896.854573	0.345054
897.037046	0.344696
897.219502	0.344537
897.401940	0.344459
897.584359	0.344339
897.766760	0.344232
897.949143	0.343759
898.131507	0.343178
898.313854	0.343310
898.496182	0.343193
898.678492	0.342743
898.860783	0.342610
899.043057	0.342412
899.225312	0.342256
899.407549	0.342376
899.589768	0.342770
899.771968	0.342951
899.954151	0.342308
900.136315	0.342108
900.318461	0.342585
900.500588	0.342265
900.682698	0.342350
900.864789	0.342393
901.046862	0.341764
901.228917	0.341021
901.410953	0.341073
901.592971	0.341039
901.774972	0.340933
901.956953	0.340180
902.138917	0.339697
902.320862	0.339133
902.502790	0.338721
902.684699	0.338791
902.866589	0.339149
903.048462	0.338804
903.230316	0.338945
903.412152	0.339032
903.593970	0.338595
903.775770	0.338831
903.957551	0.338964
904.139314	0.338869
904.321059	0.338171
904.502786	0.337778
904.684494	0.337359
904.866185	0.336652
905.047857	0.336087
905.229510	0.335888
905.411146	0.335691
905.592763	0.335432
905.774363	0.335307
905.955943	0.335088
906.137506	0.334822
906.319051	0.334583
906.500577	0.334674
906.682085	0.334175
906.863575	0.334057
907.045046	0.334002
907.226500	0.333326
907.407935	0.332952
907.589352	0.332947
907.770750	0.332124
907.952131	0.331820
908.133493	0.331329
908.314837	0.331388
908.496163	0.331564
908.677470	0.330618
908.858760	0.330254
909.040031	0.329160
909.221284	0.328895
909.402518	0.329055
909.583735	0.328775
909.764933	0.327763
909.946113	0.327033
910.127275	0.326400
910.308418	0.326117
910.489544	0.325713
910.670651	0.326002
910.851740	0.325266
911.032810	0.324608
911.213863	0.324422
911.394897	0.324495
911.575913	0.324239
911.756911	0.323559
911.937890	0.322883
912.118851	0.322984
912.299794	0.322490
912.480719	0.321845
912.661626	0.321288
912.842514	0.320665
913.023384	0.320242
913.204236	0.319686
913.385070	0.319346
913.565886	0.319378
913.746683	0.318766
913.927462	0.318305
914.108223	0.317839
914.288965	0.317590
914.469690	0.317598
914.650396	0.317199
914.831084	0.316669
915.011754	0.316617
915.192405	0.315881
915.373038	0.315212
915.553653	0.314827
915.734250	0.315031
915.914829	0.315036
916.095389	0.314013
916.275931	0.313948
916.456455	0.313830
916.636961	0.313063
916.817448	0.313434
916.997917	0.313314
917.178368	0.313283
917.358801	0.312467
917.539216	0.311610
917.719612	0.311636
917.899990	0.310295
918.080350	0.309656
918.260692	0.309392
918.441015	0.308314
918.621320	0.307706
918.801607	0.306719
918.981876	0.306263
919.162127	0.305783
919.342359	0.304903
919.522573	0.304749
919.702769	0.304264
919.882947	0.303237
920.063106	0.302942
920.243247	0.302400
920.423370	0.301167
920.603475	0.301152
920.783562	0.300628
920.963630	0.300440
921.143680	0.299889
921.323712	0.299921
921.503725	0.300018
921.683721	0.299351
921.863698	0.298788
922.043657	0.298701
922.223598	0.297512
922.403520	0.297400
922.583424	0.296695
922.763311	0.297110
922.943178	0.295727
923.123028	0.295191
923.302859	0.294969
923.482673	0.294189
923.662467	0.293852
923.842244	0.293573
924.022003	0.292691
924.201743	0.292200
924.381465	0.290438
924.561169	0.290172
924.740854	0.289600
924.920522	0.288589
925.100171	0.288469
925.279802	0.288187
925.459414	0.287734
925.639009	0.287230
925.818585	0.286588
925.998143	0.286510
926.177683	0.285285
926.357205	0.285308
926.536708	0.285490
926.716193	0.285096
926.895660	0.284324
927.075109	0.283883
927.254539	0.283490
927.433951	0.283147
927.613345	0.282358
927.792721	0.282766
927.972079	0.281339
928.151418	0.280742
928.330739	0.279935
928.510042	0.279420
928.689327	0.279204
928.868593	0.278058
929.047841	0.277752
929.227071	0.277599
929.406283	0.276285
929.585476	0.275659
929.764652	0.274726
929.943809	0.273838
930.122948	0.273711
930.302068	0.272453
930.481171	0.272784
930.660255	0.271963
930.839321	0.271098
931.018369	0.270912
931.197398	0.270897
931.376409	0.270026
931.555402	0.269464
931.734377	0.268893
931.913334	0.268779
932.092272	0.267459
932.271192	0.266774
932.450094	0.266109
932.628978	0.266615
932.807844	0.266076
932.986691	0.265591
933.165520	0.264909
933.344331	0.263764
933.523123	0.263321
933.701898	0.263062
933.880654	0.262255
934.059392	0.262306
934.238111	0.261896
934.416813	0.260857
934.595496	0.260336
934.774161	0.261081
934.952808	0.261246
935.131437	0.260335
935.310047	0.259854
935.488639	0.259581
935.667213	0.258680
935.845769	0.257632
936.024306	0.257593
936.202825	0.257196
936.381326	0.256238
936.559809	0.256129
936.738274	0.256391
936.916720	0.256122
937.095148	0.256129
937.273558	0.256399
937.451950	0.255802
937.630323	0.255216
937.808678	0.255199
937.987015	0.254397
938.165334	0.253396
938.343635	0.252151
938.521917	0.251615
938.700181	0.250497
938.878427	0.249414
939.056655	0.248613
939.234864	0.247357
939.413055	0.246804
939.591228	0.246826
939.769383	0.246248
939.947519	0.245769
940.125638	0.244897
940.303738	0.244538
940.481820	0.243897
940.659883	0.244450
940.837929	0.244964
941.015956	0.244636
941.193965	0.245232
941.371955	0.245321
941.549928	0.245549
941.727882	0.245549
941.905818	0.245122
942.083736	0.245187
942.261636	0.244275
942.439517	0.243922
942.617380	0.243602
942.795225	0.242164
942.973052	0.241512
943.150860	0.241140
943.328651	0.241368
943.506423	0.241537
943.684176	0.240882
943.861912	0.240713
944.039629	0.241074
944.217328	0.239932
944.395009	0.239935
944.572672	0.238446
944.750317	0.238478
944.927943	0.237618
945.105551	0.236864
945.283141	0.237690
945.460712	0.237070
945.638265	0.236318
945.815801	0.236753
945.993317	0.236504
946.170816	0.237394
946.348297	0.236941
946.525759	0.236791
946.703203	0.237612
946.880629	0.237891
947.058036	0.240101
947.235425	0.239722
947.412797	0.240545
947.590149	0.240702
947.767484	0.240836
947.944800	0.241240
948.122099	0.241183
948.299379	0.240637
948.476640	0.241292
948.653884	0.239882
948.831109	0.239889
949.008316	0.239139
949.185505	0.238228
949.362676	0.238028
949.539828	0.239309
949.716962	0.240174
949.894078	0.240060
950.071176	0.238563
950.248256	0.239040
950.425317	0.240554
950.602360	0.241945
950.779385	0.243695
950.956391	0.244263
951.133380	0.243750
951.310350	0.244386
951.487302	0.245773
951.664235	0.246956
951.841151	0.249087
952.018048	0.250778
952.194927	0.251069
952.371788	0.252463
952.548631	0.252994
952.725455	0.252800
952.902261	0.253402
953.079049	0.254626
953.255819	0.255611
953.432570	0.252377
953.609303	0.252208
953.786018	0.252199
953.962715	0.251914
954.139394	0.253938
954.316054	0.255148
954.492696	0.255121
954.669320	0.255712
954.845926	0.256733
955.022513	0.262125
955.199083	0.263052
955.375634	0.264424
955.552166	0.263750
955.728681	0.265600
955.905177	0.265778
956.081655	0.269666
956.258115	0.271020
956.434557	0.272484
956.610980	0.271474
956.787385	0.270652
956.963772	0.271098
957.140141	0.274269
957.316492	0.273579
957.492824	0.276638
957.669138	0.270805
957.845434	0.270659
958.021712	0.270918
958.197971	0.271498
958.374212	0.275045
958.550435	0.277091
958.726640	0.277185
958.902826	0.278169
959.078995	0.276094
959.255145	0.280433
959.431277	0.282149
959.607390	0.283110
959.783486	0.282960
959.959563	0.283258
960.135622	0.281568
960.311662	0.279674
960.487685	0.279925
960.663689	0.282955
960.839675	0.285781
961.015643	0.283455
961.191593	0.281103
961.367524	0.283521
961.543437	0.284359
961.719332	0.288927
961.895209	0.292685
962.071067	0.293767
962.246907	0.294021
962.422730	0.295272
962.598533	0.296972
962.774319	0.301004
962.950086	0.299545
963.125835	0.296146
963.301566	0.294309
963.477279	0.292373
963.652973	0.294114
963.828650	0.295138
964.004308	0.293899
964.179947	0.294362
964.355569	0.295566
964.531172	0.294737
964.706757	0.296949
964.882324	0.298724
965.057873	0.302662
965.233403	0.302718
965.408916	0.302978
965.584410	0.299977
965.759885	0.299671
965.935343	0.299251
966.110782	0.303905
966.286203	0.305833
966.461606	0.305596
966.636991	0.306338
966.812357	0.307223
966.987705	0.303215
967.163035	0.308212
967.338347	0.310650
967.513641	0.309980
967.688916	0.305064
967.864173	0.302236
968.039412	0.303363
968.214632	0.302229
968.389835	0.301413
968.565019	0.306738
968.740185	0.304600
968.915333	0.303375
969.090462	0.301317
969.265573	0.303282
969.440667	0.305343
969.615741	0.306346
969.790798	0.304087
969.965836	0.303357
970.140856	0.300420
970.315858	0.301667
970.490842	0.301936
970.665808	0.304577
970.840755	0.304661
971.015684	0.304339
971.190595	0.301645
971.365487	0.300362
971.540362	0.298886
971.715218	0.300244
971.890056	0.300520
972.064875	0.298185
972.239677	0.298477
972.414460	0.300853
972.589225	0.302078
972.763972	0.300562
972.938700	0.298027
973.113411	0.298603
973.288103	0.295135
973.462777	0.294369
973.637432	0.296806
973.812070	0.295311
973.986689	0.293113
974.161290	0.291246
974.335873	0.292607
974.510437	0.294535
974.684984	0.296994
974.859512	0.298895
975.034022	0.298918
975.208513	0.297239
975.382987	0.297654
975.557442	0.294824
975.731879	0.293479
975.906298	0.293097
976.080698	0.292766
976.255080	0.288564
976.429445	0.288958
976.603790	0.287082
976.778118	0.286571
976.952427	0.285305
977.126719	0.287757
977.300992	0.286233
977.475246	0.285653
977.649483	0.285619
977.823701	0.287324
977.997901	0.286445
978.172083	0.285954
978.346247	0.286315
978.520392	0.287124
978.694519	0.284627
978.868628	0.284019
979.042719	0.284210
979.216791	0.286707
979.390845	0.286546
979.564882	0.286981
979.738899	0.287371
979.912899	0.288615
980.086880	0.287990
980.260843	0.291331
980.434788	0.294087
980.608715	0.295956
980.782623	0.294223
980.956514	0.294167
981.130386	0.293152
981.304240	0.292078
981.478075	0.290331
981.651892	0.290259
981.825692	0.288230
981.999472	0.284710
982.173235	0.282169
982.346980	0.283394
982.520706	0.284019
982.694414	0.284457
982.868104	0.285526
983.041775	0.285124
983.215428	0.284192
983.389064	0.286409
983.562680	0.287698
983.736279	0.285796
983.909860	0.284081
984.083422	0.280379
984.256966	0.276770
984.430491	0.275025
984.603999	0.275243
984.777488	0.274822
984.950959	0.273586
985.124412	0.273665
985.297847	0.273857
985.471263	0.274460
985.644661	0.277450
985.818041	0.277477
985.991403	0.277896
986.164747	0.275727
986.338072	0.275178
986.511379	0.270456
986.684668	0.267045
986.857938	0.267633
987.031191	0.266492
987.204425	0.264924
987.377641	0.267868
987.550839	0.264851
987.724018	0.266251
987.897179	0.262756
988.070322	0.262823
988.243447	0.265766
988.416554	0.263908
988.589642	0.263457
988.762712	0.260473
988.935764	0.257082
989.108798	0.259628
989.281813	0.257714
989.454811	0.258454
989.627790	0.259079
989.800751	0.257627
989.973693	0.257689
990.146617	0.256821
990.319524	0.261659
990.492412	0.263081
990.665281	0.260972
990.838133	0.260521
991.010966	0.259288
991.183781	0.258948
991.356578	0.257172
991.529356	0.257278
991.702117	0.255881
991.874859	0.253182
992.047583	0.252569
992.220288	0.254449
992.392976	0.253801
992.565645	0.255458
992.738296	0.255377
992.910929	0.254416
993.083543	0.255749
993.256139	0.256489
993.428718	0.254758
993.601277	0.254754
993.773819	0.253435
993.946342	0.253159
994.118848	0.251971
994.291335	0.251237
994.463803	0.254373
994.636254	0.250282
994.808686	0.249316
994.981100	0.249090
995.153496	0.245727
995.325874	0.245603
995.498233	0.245935
995.670574	0.247549
995.842897	0.245939
996.015202	0.241921
996.187488	0.243718
996.359757	0.245545
996.532007	0.243812
996.704239	0.245399
996.876452	0.243492
997.048648	0.243030
997.220825	0.240514
997.392984	0.241242
997.565124	0.240648
997.737247	0.238970
997.909351	0.235421
998.081437	0.236652
998.253505	0.235944
998.425554	0.236873
998.597586	0.238050
998.769599	0.238489
998.941594	0.236167
999.113571	0.236597
999.285529	0.234510
999.457469	0.233237
999.629391	0.232681
999.801295	0.231964
999.973181	0.231391
1000.145048	0.228631
1000.316897	0.229373
1000.488728	0.231550
1000.660541	0.229395
1000.832335	0.230607
1001.004111	0.231572
1001.175869	0.229383
1001.347609	0.227760
1001.519331	0.226006
1001.691034	0.227739
1001.862719	0.227114
1002.034386	0.224182
1002.206035	0.227084
1002.377665	0.227204
1002.549277	0.227947
1002.720871	0.230090
1002.892447	0.232575
1003.064004	0.233207
1003.235544	0.232614
1003.407065	0.230490
1003.578568	0.232416
1003.750052	0.230615
1003.921519	0.227493
1004.092967	0.228314
1004.264397	0.227462
1004.435809	0.226561
1004.607202	0.227189
1004.778577	0.223804
1004.949934	0.223153
1005.121273	0.222262
1005.292594	0.222315
1005.463896	0.225167
1005.635180	0.223705
1005.806446	0.223438
1005.977694	0.223216
1006.148923	0.220703
1006.320135	0.222245
1006.491328	0.220391
1006.662503	0.220505
1006.833659	0.219167
1007.004798	0.218386
1007.175918	0.217198
1007.347020	0.213359
1007.518103	0.214320
1007.689169	0.215440
1007.860216	0.212542
1008.031245	0.213847
1008.202256	0.212049
1008.373248	0.212014
1008.544223	0.212208
1008.715179	0.212208
1008.886117	0.214162
1009.057036	0.211023
1009.227938	0.209406
1009.398821	0.211431
1009.569686	0.213623
1009.740533	0.212535
1009.911361	0.213042
1010.082172	0.212159
1010.252964	0.212142
1010.423738	0.210978
1010.594493	0.210516
1010.765231	0.210846
1010.935950	0.210397
1011.106651	0.208186
1011.277334	0.210407
1011.447998	0.209269
1011.618645	0.206687
1011.789273	0.205177
1011.959882	0.205098
1012.130474	0.205109
1012.301048	0.205011
1012.471603	0.204297
1012.642140	0.203451
1012.812658	0.201384
1012.983159	0.200346
1013.153641	0.200712
1013.324105	0.200984
1013.494551	0.200563
1013.664979	0.199407
1013.835388	0.197104
1014.005779	0.197054
1014.176152	0.196406
1014.346507	0.195612
1014.516843	0.196938
1014.687162	0.195020
1014.857462	0.196013
1015.027744	0.196349
1015.198007	0.196508
1015.368252	0.196895
1015.538480	0.193685
1015.708689	0.192998
1015.878879	0.192444
1016.049052	0.192480
1016.219206	0.193516
1016.389342	0.190596
1016.559460	0.190997
1016.729559	0.190376
1016.899641	0.189794
1017.069704	0.193750
1017.239749	0.195215
1017.409775	0.195289
1017.579784	0.192706
1017.749774	0.194349
1017.919746	0.195160
1018.089700	0.192833
1018.259635	0.191541
1018.429553	0.192807
1018.599452	0.191586
1018.769333	0.190983
1018.939195	0.192366
1019.109040	0.192836
1019.278866	0.193003
1019.448674	0.191570
1019.618464	0.193200
1019.788235	0.194692
1019.957989	0.192680
1020.127724	0.191209
1020.297441	0.190597
1020.467139	0.189497
1020.636820	0.187735
1020.806482	0.185473
1020.976126	0.186861
1021.145752	0.185894
1021.315359	0.185890
1021.484948	0.187012
1021.654519	0.185223
1021.824072	0.184001
1021.993607	0.182949
1022.163123	0.183027
1022.332621	0.183377
1022.502101	0.182422
1022.671563	0.181165
1022.841007	0.180625
1023.010432	0.179923
1023.179839	0.182172
1023.349228	0.182362
1023.518598	0.181946
1023.687951	0.182912
1023.857285	0.183033
1024.026601	0.183010
1024.195899	0.183968
1024.365178	0.184343
1024.534439	0.184106
1024.703682	0.182392
1024.872907	0.183734
1025.042114	0.184385
1025.211302	0.185163
1025.380472	0.183076
1025.549624	0.180660
1025.718758	0.178924
1025.887873	0.176828
1026.056970	0.176608
1026.226049	0.178757
1026.395110	0.175798
1026.564153	0.175321
1026.733177	0.173820
1026.902183	0.174873
1027.071171	0.176354
1027.240141	0.175700
1027.409092	0.176528
1027.578026	0.174143
1027.746940	0.170877
1027.915837	0.172445
1028.084716	0.172029
1028.253576	0.173101
1028.422418	0.173106
1028.591242	0.173465
1028.760048	0.172832
1028.928835	0.172549
1029.097604	0.172678
1029.266355	0.173177
1029.435088	0.173101
1029.603803	0.172855
1029.772499	0.172362
1029.941177	0.172707
1030.109837	0.173241
1030.278478	0.176096
1030.447102	0.175905
1030.615707	0.176999
1030.784294	0.176208
1030.952863	0.174522
1031.121413	0.172517
1031.289945	0.171457
1031.458460	0.169110
1031.626955	0.166810
1031.795433	0.165440
1031.963892	0.166084
1032.132334	0.166037
1032.300756	0.166649
1032.469161	0.166561
1032.637548	0.166752
1032.805916	0.164312
1032.974266	0.163805
1033.142598	0.163152
1033.310911	0.161018
1033.479207	0.160115
1033.647484	0.159358
1033.815743	0.158598
1033.983983	0.157329
1034.152206	0.156876
1034.320410	0.158647
1034.488596	0.159633
1034.656764	0.161336
1034.824914	0.162437
1034.993045	0.161132
1035.161158	0.161073
1035.329253	0.161602
1035.497330	0.162887
1035.665388	0.161556
1035.833428	0.161600
1036.001450	0.160997
1036.169454	0.158950
1036.337440	0.157728
1036.505407	0.158723
1036.673356	0.158064
1036.841287	0.158300
1037.009200	0.157492
1037.177094	0.159107
1037.344970	0.158476
1037.512828	0.158772
1037.680668	0.158329
1037.848489	0.159572
1038.016293	0.160173
1038.184078	0.160242
1038.351845	0.158370
1038.519593	0.155403
1038.687324	0.155439
1038.855036	0.156723
1039.022730	0.156110
1039.190406	0.158606
1039.358063	0.159101
1039.525702	0.156850
1039.693323	0.156937
1039.860926	0.158696
1040.028511	0.161221
1040.196077	0.159850
1040.363625	0.157293
1040.531155	0.158569
1040.698667	0.156338
1040.866161	0.156634
1041.033636	0.156470
1041.201093	0.156039
1041.368532	0.154108
1041.535952	0.154807
1041.703355	0.156047
1041.870739	0.154837
1042.038105	0.153316
1042.205452	0.152565
1042.372782	0.150998
1042.540093	0.152071
1042.707386	0.152036
1042.874661	0.151343
1043.041918	0.151287
1043.209156	0.150978
1043.376376	0.152343
1043.543578	0.151816
1043.710762	0.152483
1043.877927	0.152583
1044.045074	0.151639
1044.212203	0.150789
1044.379314	0.152200
1044.546407	0.152033
1044.713481	0.151595
1044.880537	0.151521
1045.047575	0.150228
1045.214595	0.152120
1045.381596	0.152052
1045.548579	0.151800
1045.715544	0.151287
1045.882491	0.149972
1046.049420	0.147775
1046.216330	0.147157
1046.383222	0.147310
1046.550096	0.149193
1046.716951	0.147266
1046.883789	0.147103
1047.050608	0.144782
1047.217409	0.146982
1047.384192	0.148242
1047.550956	0.149604
1047.717703	0.149871
1047.884431	0.150529
1048.051140	0.151252
1048.217832	0.151012
1048.384505	0.150081
1048.551161	0.152846
1048.717798	0.150713
1048.884416	0.149556
1049.051017	0.149085
1049.217599	0.149241
1049.384163	0.148512
1049.550709	0.147465
1049.717237	0.147022
1049.883746	0.148739
1050.050237	0.147222
1050.216710	0.146062
1050.383165	0.145571
1050.549601	0.144581
1050.716019	0.146999
1050.882420	0.146977
1051.048801	0.146303
1051.215165	0.146855
1051.381510	0.144029
1051.547837	0.145753
1051.714146	0.146147
1051.880437	0.147082
1052.046709	0.148501
1052.212964	0.145548
1052.379200	0.145110
1052.545417	0.145665
1052.711617	0.144381
1052.877798	0.144859
1053.043961	0.144004
1053.210106	0.145350
1053.376233	0.145464
1053.542341	0.143272
1053.708432	0.144932
1053.874504	0.146036
1054.040557	0.145096
1054.206593	0.145452
1054.372610	0.143851
1054.538609	0.143439
1054.704590	0.141397
1054.870553	0.142002
1055.036497	0.142276
1055.202424	0.140294
1055.368331	0.138652
1055.534221	0.140140
1055.700093	0.139098
1055.865946	0.142429
1056.031781	0.140173
1056.197598	0.141347
1056.363397	0.140030
1056.529177	0.140938
1056.694939	0.140874
1056.860683	0.141233
1057.026409	0.139931
1057.192116	0.140960
1057.357806	0.140092
1057.523477	0.142542
1057.689130	0.142813
1057.854764	0.143981
1058.020381	0.145099
1058.185979	0.145296
1058.351559	0.146348
1058.517120	0.146263
1058.682664	0.145592
1058.848189	0.144001
1059.013696	0.144221
1059.179185	0.143639
1059.344656	0.139884
1059.510108	0.140595
1059.675542	0.140950
1059.840958	0.141511
1060.006356	0.140585
1060.171735	0.139651
1060.337096	0.140842
1060.502439	0.138717
1060.667764	0.137921
1060.833071	0.139376
1060.998359	0.136432
1061.163629	0.136126
1061.328881	0.134252
1061.494115	0.133512
1061.659330	0.136045
1061.824527	0.134383
1061.989706	0.135300
1062.154867	0.134350
1062.320010	0.135693
1062.485134	0.135950
1062.650240	0.135118
1062.815328	0.134370
1062.980398	0.135169
1063.145449	0.133266
1063.310482	0.133814
1063.475497	0.133597
1063.640494	0.135590
1063.805473	0.134607
1063.970433	0.136505
1064.135375	0.136869
1064.300299	0.136631
1064.465204	0.135075
1064.630092	0.134256
1064.794961	0.134934
1064.959812	0.134967
1065.124645	0.133747
1065.289459	0.133312
1065.454256	0.131240
1065.619034	0.131633
1065.783793	0.130524
1065.948535	0.132132
1066.113258	0.133955
1066.277964	0.133722
1066.442651	0.134413
1066.607319	0.136589
1066.771970	0.136791
1066.936602	0.139909
1067.101216	0.139494
1067.265812	0.142725
1067.430389	0.143602
1067.594949	0.143275
1067.759490	0.143018
1067.924013	0.142224
1068.088518	0.142210
1068.253004	0.140769
1068.417472	0.138580
1068.581922	0.139234
1068.746354	0.137684
1068.910768	0.137505
1069.075163	0.136773
1069.239540	0.137056
1069.403899	0.138263
1069.568240	0.136164
1069.732562	0.137451
1069.896866	0.137503
1070.061152	0.136230
1070.225420	0.136743
1070.389670	0.135663
1070.553901	0.136978
1070.718114	0.135989
1070.882309	0.135505
1071.046486	0.135654
1071.210644	0.137912
1071.374784	0.138574
1071.538906	0.137647
1071.703010	0.134170
1071.867096	0.135676
1072.031163	0.134954
1072.195212	0.135468
1072.359243	0.135269
1072.523256	0.137271
1072.687250	0.134646
1072.851226	0.133911
1073.015184	0.135953
1073.179124	0.140755
1073.343045	0.139622
1073.506949	0.139110
1073.670834	0.138505
1073.834701	0.138477
1073.998549	0.136559
1074.162380	0.139022
1074.326192	0.139775
1074.489986	0.140082
1074.653761	0.139591
1074.817519	0.137372
1074.981258	0.138344
1075.144979	0.140620
1075.308682	0.140568
1075.472367	0.141356
1075.636033	0.139943
1075.799681	0.137970
1075.963311	0.136848
1076.126923	0.136827
1076.290516	0.140291
1076.454092	0.140262
1076.617649	0.138153
1076.781187	0.135722
1076.944708	0.136166
1077.108210	0.135122
1077.271695	0.137599
1077.435160	0.138486
1077.598608	0.138475
1077.762038	0.138021
1077.925449	0.138187
1078.088842	0.137923
1078.252217	0.141432
1078.415573	0.140647
1078.578912	0.140622
1078.742232	0.138782
1078.905534	0.138962
1079.068817	0.135931
1079.232083	0.135445
1079.395330	0.134706
1079.558559	0.139080
1079.721770	0.137281
1079.884962	0.136966
1080.048136	0.138807
1080.211293	0.137501
1080.374430	0.136416
1080.537550	0.137674
1080.700651	0.137322
1080.863735	0.134843
1081.026800	0.132191
1081.189846	0.135139
1081.352875	0.135216
1081.515885	0.134352
1081.678877	0.138039
1081.841851	0.139558
1082.004807	0.140332
1082.167744	0.140207
1082.330663	0.142350
1082.493564	0.141814
1082.656447	0.139748
1082.819312	0.141415
1082.982158	0.140622
1083.144986	0.137487
1083.307796	0.135214
1083.470587	0.135622
1083.633361	0.136725
1083.796116	0.136867
1083.958853	0.138584
1084.121571	0.135808
1084.284272	0.135964
1084.446954	0.135971
1084.609618	0.135322
1084.772264	0.137068
1084.934892	0.136574
1085.097501	0.135452
1085.260092	0.136637
1085.422665	0.134034
1085.585220	0.135023
1085.747756	0.134781
1085.910274	0.135320
1086.072774	0.136781
1086.235256	0.134639
1086.397720	0.134109
1086.560165	0.134892
1086.722592	0.134736
1086.885001	0.135322
1087.047392	0.138504
1087.209764	0.138468
1087.372119	0.137243
1087.534455	0.137128
1087.696772	0.140237
1087.859072	0.141112
1088.021353	0.142854
1088.183616	0.142403
1088.345861	0.141493
1088.508088	0.140737
1088.670296	0.139475
1088.832486	0.139062
1088.994658	0.138396
1089.156812	0.138285
1089.318948	0.139988
1089.481065	0.139278
1089.643164	0.135851
1089.805245	0.135940
1089.967308	0.135369
1090.129352	0.135445
1090.291378	0.135590
1090.453386	0.134781
1090.615376	0.133567
1090.777347	0.131375
1090.939301	0.129265
1091.101236	0.130741
1091.263153	0.132178
1091.425051	0.130443
1091.586932	0.130536
1091.748794	0.131617
1091.910638	0.134930
1092.072463	0.133886
1092.234271	0.134938
1092.396060	0.135181
1092.557831	0.134196
1092.719584	0.136472
1092.881319	0.137618
1093.043035	0.138473
1093.204733	0.139803
1093.366413	0.136732
1093.528075	0.135394
1093.689718	0.133993
1093.851343	0.133547
1094.012950	0.136876
1094.174539	0.133103
1094.336110	0.134226
1094.497662	0.134364
1094.659196	0.135442
1094.820712	0.135726
1094.982210	0.138835
1095.143689	0.139626
1095.305151	0.144139
1095.466594	0.144350
1095.628018	0.145159
1095.789425	0.142539
1095.950813	0.140199
1096.112183	0.138603
1096.273535	0.137716
1096.434869	0.139020
1096.596184	0.137704
1096.757482	0.132147
1096.918761	0.133379
1097.080021	0.133015
1097.241264	0.136244
1097.402488	0.137676
1097.563694	0.137137
1097.724882	0.139944
1097.886052	0.140225
1098.047203	0.139213
1098.208336	0.142271
1098.369451	0.139154
1098.530548	0.142582
1098.691627	0.137275
1098.852687	0.137818
1099.013729	0.138393
1099.174753	0.138267
1099.335758	0.134404
1099.496746	0.136768
1099.657715	0.133317
1099.818666	0.134525
1099.979599	0.129857
1100.140513	0.135726
1100.301409	0.136061
1100.462287	0.137375
1100.623147	0.137094
1100.783989	0.136870
1100.944812	0.137174
1101.105617	0.137004
1101.266404	0.138253
1101.427173	0.140031
1101.587923	0.136998
1101.748656	0.137277
1101.909370	0.136941
1102.070066	0.136688
1102.230743	0.136936
1102.391403	0.135670
1102.552044	0.135272
1102.712667	0.133692
1102.873271	0.134893
1103.033858	0.136963
1103.194426	0.138791
1103.354976	0.140328
1103.515508	0.144136
1103.676021	0.146623
1103.836517	0.150010
1103.996994	0.151357
1104.157453	0.151624
1104.317893	0.150869
1104.478316	0.149386
1104.638720	0.150055
1104.799106	0.147815
1104.959474	0.144974
1105.119823	0.144960
1105.280155	0.141741
1105.440468	0.144242
1105.600763	0.147077
1105.761039	0.146851
1105.921298	0.151739
1106.081538	0.148168
1106.241760	0.149124
1106.401964	0.150874
1106.562149	0.149479
1106.722316	0.155250
1106.882465	0.152202
1107.042596	0.148851
1107.202709	0.144490
1107.362803	0.140751
1107.522879	0.140794
1107.682937	0.143708
1107.842977	0.137619
1108.002999	0.135439
1108.163002	0.131525
1108.322987	0.135175
1108.482954	0.134084
1108.642902	0.139139
1108.802833	0.136289
1108.962745	0.136640
1109.122639	0.136023
1109.282515	0.142106
1109.442372	0.143789
1109.602211	0.142899
1109.762032	0.140037
1109.921835	0.143303
1110.081620	0.147005
1110.241386	0.149020
1110.401134	0.146355
1110.560864	0.143947
1110.720576	0.142356
1110.880269	0.144977
1111.039945	0.146892
1111.199602	0.151548
1111.359240	0.150146
1111.518861	0.143516
1111.678463	0.144197
1111.838047	0.146123
1111.997613	0.145160
1112.157161	0.145598
1112.316690	0.144551
1112.476202	0.143538
1112.635695	0.138470
1112.795169	0.138541
1112.954626	0.140639
1113.114064	0.142034
1113.273484	0.141708
1113.432886	0.145065
1113.592270	0.146558
1113.751635	0.147278
1113.910983	0.147375
1114.070312	0.149718
1114.229622	0.152070
1114.388915	0.149027
1114.548189	0.149181
1114.707445	0.148478
1114.866683	0.139645
1115.025903	0.136962
1115.185104	0.135547
1115.344287	0.135515
1115.503452	0.135937
1115.662599	0.135238
1115.821727	0.138575
1115.980838	0.138445
1116.139930	0.142402
1116.299004	0.145527
1116.458059	0.146235
1116.617097	0.146692
1116.776116	0.146859
1116.935117	0.148515
1117.094099	0.145934
1117.253064	0.148587
1117.412010	0.152287
1117.570938	0.151648
1117.729848	0.152947
1117.888740	0.155089
1118.047613	0.154101
1118.206468	0.156752
1118.365305	0.154392
1118.524124	0.154729
1118.682924	0.152473
1118.841707	0.146851
1119.000471	0.144417
1119.159216	0.147885
1119.317944	0.143609
1119.476653	0.144585
1119.635344	0.140449
1119.794017	0.139017
1119.952672	0.140570
1120.111308	0.142202
1120.269927	0.139172
1120.428527	0.137838
1120.587108	0.133463
1120.745672	0.132955
1120.904217	0.133284
1121.062744	0.129358
1121.221253	0.130149
1121.379744	0.131011
1121.538216	0.129180
1121.696671	0.132584
1121.855107	0.135755
1122.013524	0.142939
1122.171924	0.147859
1122.330305	0.148021
1122.488668	0.154139
1122.647013	0.157440
1122.805340	0.157610
1122.963648	0.159809
1123.121938	0.156064
1123.280210	0.158233
1123.438464	0.150156
1123.596700	0.149217
1123.754917	0.148813
1123.913116	0.146971
1124.071297	0.144011
1124.229459	0.145285
1124.387604	0.145278
1124.545730	0.151119
1124.703838	0.144889
1124.861928	0.149151
1125.019999	0.147973
1125.178052	0.145980
1125.336088	0.146038
1125.494104	0.148718
1125.652103	0.144179
1125.810083	0.143183
1125.968045	0.135034
1126.125989	0.140178
1126.283915	0.141779
1126.441823	0.140113
1126.599712	0.143534
1126.757583	0.146031
1126.915436	0.143582
1127.073270	0.147580
1127.231087	0.144778
1127.388885	0.153553
1127.546665	0.158844
1127.704426	0.152347
1127.862170	0.155063
1128.019895	0.156985
1128.177602	0.154499
1128.335291	0.155656
1128.492961	0.146714
1128.650614	0.153266
1128.808248	0.151106
1128.965864	0.142179
1129.123461	0.148025
1129.281041	0.144962
1129.438602	0.141585
1129.596145	0.143010
1129.753670	0.140843
1129.911176	0.151348
1130.068665	0.148021
1130.226135	0.149293
1130.383587	0.147047
1130.541020	0.150525
1130.698436	0.157351
1130.855833	0.152683
1131.013212	0.150029
1131.170573	0.145997
1131.327915	0.140542
1131.485239	0.135686
1131.642545	0.133472
1131.799833	0.134572
1131.957103	0.130763
1132.114354	0.125221
1132.271588	0.132730
1132.428803	0.134372
1132.585999	0.136461
1132.743178	0.134336
1132.900338	0.140576
1133.057480	0.142509
1133.214604	0.149363
1133.371710	0.145618
1133.528797	0.147690
1133.685866	0.146692
1133.842917	0.147676
1133.999950	0.153605
1134.156964	0.154784
1134.313960	0.150148
1134.470938	0.150116
1134.627898	0.144509
1134.784840	0.149031
1134.941763	0.145799
1135.098668	0.145140
1135.255555	0.142494
1135.412424	0.141489
1135.569274	0.141314
1135.726107	0.141621
1135.882921	0.141177
1136.039716	0.141168
1136.196494	0.136843
1136.353253	0.137457
1136.509995	0.139226
1136.666717	0.134667
1136.823422	0.128577
1136.980109	0.130776
1137.136777	0.135481
1137.293427	0.129637
1137.450059	0.127905
1137.606672	0.128329
1137.763267	0.130519
1137.919844	0.125827
1138.076403	0.133129
1138.232944	0.134816
1138.389466	0.131861
1138.545971	0.125718
1138.702457	0.133925
1138.858924	0.133012
1139.015374	0.133657
1139.171805	0.131117
1139.328218	0.136353
1139.484613	0.137170
1139.640990	0.136691
1139.797348	0.142675
1139.953688	0.153264
1140.110010	0.147537
1140.266314	0.149530
1140.422600	0.149859
1140.578867	0.154738
1140.735116	0.147271
1140.891347	0.143000
1141.047559	0.143665
1141.203754	0.144372
1141.359930	0.136147
1141.516088	0.138875
1141.672228	0.136531
1141.828349	0.140901
1141.984452	0.138648
1142.140537	0.145329
1142.296604	0.145552
1142.452653	0.147612
1142.608683	0.148184
1142.764695	0.144948
1142.920689	0.140344
1143.076665	0.146762
1143.232622	0.144007
1143.388562	0.139985
1143.544483	0.131113
1143.700385	0.137846
1143.856270	0.134902
1144.012136	0.131750
1144.167985	0.133129
1144.323814	0.142248
1144.479626	0.147367
1144.635420	0.148701
1144.791195	0.151698
1144.946952	0.160751
1145.102691	0.152957
1145.258411	0.152417
1145.414113	0.146040
1145.569798	0.144729
1145.725463	0.138878
1145.881111	0.131028
1146.036741	0.128937
1146.192352	0.129896
1146.347945	0.129500
1146.503519	0.129626
1146.659076	0.132299
1146.814614	0.141945
1146.970134	0.138629
1147.125636	0.144374
1147.281120	0.144623
1147.436585	0.138765
1147.592032	0.138128
1147.747461	0.144982
1147.902872	0.144200
1148.058265	0.147254
1148.213639	0.141102
1148.368995	0.147526
1148.524333	0.147615
1148.679653	0.146453
1148.834954	0.148313
1148.990237	0.148391
1149.145502	0.144219
1149.300749	0.148127
1149.455977	0.144860
1149.611188	0.147390
1149.766380	0.154995
1149.921553	0.147909
1150.076709	0.155741
1150.231846	0.161673
1150.386966	0.155976
1150.542066	0.154126
1150.697149	0.155002
1150.852214	0.160841
1151.007260	0.161222
1151.162288	0.154804
1151.317298	0.151429
1151.472289	0.141346
1151.627263	0.132855
1151.782218	0.131774
1151.937155	0.126774
1152.092073	0.129576
1152.246974	0.125650
1152.401856	0.131102
1152.556720	0.125894
1152.711566	0.131389
1152.866393	0.131700
1153.021203	0.145000
1153.175994	0.153452
1153.330767	0.152797
1153.485521	0.143450
1153.640258	0.137800
1153.794976	0.128766
1153.949676	0.135030
1154.104358	0.131584
1154.259021	0.135485
1154.413667	0.129970
1154.568294	0.130091
1154.722903	0.144541
1154.877493	0.155457
1155.032066	0.167147
1155.186620	0.167731
1155.341156	0.166350
1155.495674	0.175626
1155.650173	0.171419
1155.804654	0.174392
1155.959118	0.178379
1156.113562	0.174005
1156.267989	0.179463
1156.422397	0.173964
1156.576788	0.177791
1156.731160	0.179251
1156.885513	0.172489
1157.039849	0.174410
1157.194166	0.165998
1157.348465	0.155187
1157.502746	0.142316
1157.657009	0.130215
1157.811253	0.134428
1157.965479	0.124178
1158.119687	0.123435
1158.273877	0.118492
1158.428048	0.117713
1158.582201	0.117207
1158.736337	0.125474
1158.890453	0.129679
1159.044552	0.131003
1159.198632	0.123317
1159.352694	0.136639
1159.506738	0.137137
1159.660764	0.148633
1159.814771	0.153074
1159.968761	0.160060
1160.122732	0.152486
1160.276685	0.146263
1160.430619	0.151808
1160.584535	0.157106
1160.738434	0.153278
1160.892313	0.160391
1161.046175	0.159443
1161.200019	0.161009
1161.353844	0.156661
1161.507651	0.157072
1161.661440	0.167571
1161.815210	0.159218
1161.968962	0.165768
1162.122697	0.162669
1162.276412	0.146564
1162.430110	0.132332
1162.583789	0.125196
1162.737451	0.125430
1162.891094	0.129856
1163.044718	0.127632
1163.198325	0.122483
1163.351913	0.123116
1163.505483	0.122936
1163.659035	0.129575
1163.812569	0.132718
1163.966084	0.130994
1164.119581	0.143323
1164.273060	0.141201
1164.426521	0.129864
1164.579964	0.142450
1164.733388	0.131902
1164.886794	0.136975
1165.040182	0.136114
1165.193551	0.144056
1165.346903	0.149851
1165.500236	0.139638
1165.653551	0.141694
1165.806848	0.160582
1165.960126	0.155396
1166.113386	0.167963
1166.266628	0.160995
1166.419852	0.164241
1166.573058	0.153896
1166.726245	0.146691
1166.879414	0.144133
1167.032565	0.153097
1167.185698	0.146120
1167.338812	0.147735
1167.491909	0.141593
1167.644987	0.143749
1167.798046	0.139793
1167.951088	0.150086
1168.104111	0.152936
1168.257117	0.160533
1168.410103	0.147727
1168.563072	0.137414
1168.716023	0.133563
1168.868955	0.128104
1169.021869	0.128170
1169.174765	0.131650
1169.327642	0.131922
1169.480501	0.138008
1169.633343	0.133011
1169.786165	0.124526
1169.938970	0.138868
1170.091757	0.144559
1170.244525	0.134204
1170.397275	0.138836
1170.550007	0.131270
1170.702720	0.119669
1170.855415	0.108050
1171.008092	0.111065
1171.160751	0.124793
1171.313392	0.122685
1171.466014	0.045626
1171.618619	0.182680
1171.771205	0.182680
1171.923772	0.182680
