sample name	sample
index	1131
start time	 04-22-2021  02:18:32 PM
880	0.049155
Peak Time (s)	102.037
Peak Height 	0.04915
calc peak height	100,103
Baseline Time (s)	10.037
Baseline Value 	-0.003387
subtract baseline	10,4
Abs	0.032135
Peak Time (s)	100.037
Peak Height 	0.03213
calc peak height	100,103
Baseline Time (s)	9.036
Baseline Value 	0.002353
subtract baseline	10,3
PK_550	0.019339
Peak Time (s)	102.037
Peak Height 	0.01934
calc peak height	100,103
Baseline Time (s)	10.037
Baseline Value 	7.0214E-4
subtract baseline	10,2
PK_880	0.027659
Peak Time (s)	102.037
Peak Height 	0.02766
calc peak height	100,103
Baseline Time (s)	9.536
Baseline Value 	0.001473
subtract baseline	10,1


Time (s)	A880-A510	A880-A775	A880-A975	A880	I510	I775	I975	I880	
0.036500	-0.006300	-0.000861	-0.005302	0.007333	6197.141412	42629.587066	3897.227234	22457.771484
0.536000	-0.002598	-0.001071	-0.006591	0.003607	6253.016689	42951.517834	3902.706876	22625.768723
1.037500	-0.001191	-0.000313	-0.001370	0.004399	6257.677339	42948.308832	3912.741505	22589.917305
1.537500	-0.002228	-0.000984	0.001181	0.000884	6276.553739	43210.515953	3926.656962	22749.412347
2.037500	-0.001053	-0.000117	-0.003073	0.003580	6264.953672	43041.671575	3910.732314	22626.967526
2.535000	-0.003194	-0.000449	-0.000916	0.000737	6270.303471	43273.632586	3922.161930	22756.100201
3.035500	0.001377	0.000553	0.007808	-0.001135	6319.807331	43540.907389	3946.826301	22841.617018
3.535500	-0.001344	0.000017	-0.000824	0.000415	6286.908268	43346.735773	3923.115056	22770.793623
4.036000	0.000655	0.000304	-0.000444	0.001293	6295.511515	43291.964432	3921.967862	22730.776403
4.536500	-0.001296	-0.000692	0.000033	-0.000022	6290.628824	43321.527828	3926.097377	22790.725589
5.036500	-0.000674	-0.000569	-0.002424	-0.000065	6295.736472	43336.989401	3920.540720	22792.706852
5.536000	-0.000812	-0.000273	0.000012	0.000081	6293.558300	43350.922400	3925.812782	22786.050671
6.037500	0.000217	-0.000072	0.002527	0.000531	6298.007482	43327.762266	3930.589103	22765.528820
6.535000	-0.000249	0.000314	0.000436	0.000265	6296.464703	43388.291784	3926.364999	22777.640607
7.035000	0.001091	-0.000441	0.004168	-0.000597	6313.434975	43398.291484	3937.030513	22817.020390
7.535000	-0.000907	-0.000125	0.000460	-0.000205	6295.023162	43391.182271	3927.507167	22799.113153
8.038500	0.000334	-0.000332	0.006959	-0.000078	6303.586141	43360.098357	3942.344490	22793.286777
8.535500	-0.000720	-0.001274	-0.001223	-0.000694	6300.220239	43329.925123	3924.750399	22821.454097
9.036000	0.000344	0.000712	0.000000	0.000609	6298.380170	43393.315996	3924.565420	22761.942822
9.536000	0.000000	-0.000439	0.000761	-0.000200	6301.960059	43361.605380	3928.192516	22798.882886
10.036500	0.000590	0.000000	-0.002950	0.000000	6304.964241	43383.757474	3919.185480	22789.739304
10.536500	0.000256	-0.000356	0.000415	-0.000112	6303.246063	43361.070067	3927.186044	22794.837614
11.037000	-0.000050	0.000265	-0.001372	0.000341	6297.414037	43376.723025	3922.024357	22774.177063
11.535000	-0.001190	0.000522	0.001396	0.000629	6286.448127	43373.743090	3927.740603	22761.024488
12.034500	-0.001295	-0.000225	-0.001382	0.000102	6289.689223	43353.461248	3922.553371	22785.104215
12.535500	0.000076	0.000154	0.000461	-0.000085	6301.661286	43406.017601	3927.231953	22793.623108
13.038500	-0.001146	0.000550	0.005124	-0.000606	6296.271368	43491.338533	3939.285086	22817.437428
13.536000	0.001745	0.000055	0.004891	-0.000359	6316.651465	43422.260180	3938.162990	22806.156172
14.036500	-0.000020	-0.000253	-0.000947	0.001986	6285.020371	43176.261178	3919.222748	22699.281054
14.536500	-0.001224	0.000615	0.006028	0.002185	6274.290338	43238.132686	3934.880978	22690.234935
15.036500	-0.000260	0.000634	0.000133	-0.000180	6299.804270	43459.511479	3926.695280	22797.978842
15.537500	-0.000291	-0.000976	-0.002993	-0.001048	6306.248713	43390.398007	3921.489870	22837.628990
16.037000	0.001378	0.000790	0.004248	0.000558	6306.739042	43405.279260	3934.523500	22764.285047
16.535000	0.000670	-0.000634	-0.002729	-0.000760	6311.439960	43395.391402	3921.436146	22824.446605
17.034500	0.002354	0.000144	0.002544	-0.003479	6345.603632	43721.728725	3939.968129	22949.181792
17.538500	-0.002156	-0.000241	-0.004786	0.000557	6279.603920	43309.611513	3913.713877	22764.310648
18.041000	-0.000684	0.000325	0.005649	0.000854	6288.611526	43334.661876	3937.100315	22750.811064
18.536000	-0.001842	-0.000439	-0.003088	0.000355	6283.554966	43310.113171	3918.055482	22773.547959
19.037000	-0.001330	-0.000427	-0.004325	0.000468	6286.610879	43300.727776	3914.967986	22768.390724
19.536000	-0.001383	0.000377	0.002462	0.001141	6281.057319	43312.869953	3929.025662	22737.730322
20.038000	-0.002882	-0.000084	0.001490	0.000603	6273.703563	43319.973325	3928.019191	22762.216165
20.534500	-0.000957	-0.000504	0.000366	0.000260	6291.070189	43312.844263	3926.215033	22777.885072
21.035000	-0.002140	-0.000168	-0.002541	0.000024	6283.808827	43365.944590	3920.069872	22788.661848
21.535500	0.000057	0.000488	-0.001545	0.001201	6291.626677	43317.564463	3919.652576	22734.994911
22.038500	-0.001947	-0.000475	0.001492	0.000422	6282.240652	43300.474686	3928.442632	22770.483344
22.536000	-0.000710	0.000365	-0.000317	0.001007	6287.226755	43324.082479	3922.919043	22743.801705
23.035500	-0.000336	-0.000497	-0.003905	0.000382	6294.898109	43302.112430	3916.122858	22772.298015
23.536000	-0.000585	0.000053	0.001374	0.000891	6289.082141	43305.976789	3927.085808	22749.108140
24.036500	-0.001600	-0.000117	-0.002974	0.000822	6281.831896	43296.573376	3917.246383	22752.243174
24.536000	-0.000722	0.000256	0.002849	0.001311	6284.812164	43285.812319	3929.526273	22729.978423
25.037000	-0.000832	0.000185	-0.001583	0.000876	6287.298348	43319.544763	3920.310658	22749.776562
25.537000	0.000168	-0.001014	-0.000091	-0.000059	6302.164413	43295.057783	3925.896767	22792.418409
26.034500	-0.000279	0.000057	0.006111	0.000707	6292.841087	43323.422434	3938.520915	22757.484721
26.535000	0.001126	-0.000112	0.000077	0.000724	6303.511435	43306.149183	3924.479316	22756.712854
27.035500	0.000028	0.000131	0.000844	-0.001909	6315.353505	43573.709523	3932.345699	22877.075251
27.541500	-0.001245	-0.000334	0.002883	-0.002105	6307.039001	43548.623820	3937.550283	22886.057657
28.036500	0.000835	-0.000380	-0.000204	-0.001719	6320.125818	43508.362025	3929.474133	22868.359148
28.542000	-0.000193	-0.000045	0.002645	-0.001855	6313.230671	43552.241222	3936.410146	22874.585329
29.037000	0.001774	-0.000178	0.005293	-0.001502	6325.720386	43507.006816	3941.777176	22858.433594
29.542500	-0.000123	-0.000016	-0.001417	0.002122	6283.188158	43185.609036	3917.835198	22693.083811
30.037000	-0.001775	0.000445	0.002140	-0.001062	6294.939316	43524.025694	3933.388768	22838.276776
30.535000	-0.002044	-0.000319	0.001364	0.001598	6272.506495	43206.043240	3925.430498	22716.906135
31.039000	-0.000415	0.000478	0.001150	0.001755	6283.761592	43265.256294	3924.574440	22709.764544
31.538500	-0.001746	0.000089	0.005551	0.001576	6274.951373	43245.807277	3935.186540	22717.899638
32.035500	-0.000528	-0.000601	0.005811	-0.001385	6307.027192	43456.698593	3942.720611	22853.090192
32.536000	0.000818	0.000270	0.001042	-0.001208	6316.041073	43521.308408	3931.177315	22844.955427
33.036500	-0.000132	-0.000111	0.000294	-0.001211	6308.727831	43486.123249	3929.450240	22845.096868
33.536500	-0.002826	-0.000353	-0.002983	0.002139	6262.432112	43152.915539	3914.218240	22692.320185
34.036500	-0.001799	-0.000703	-0.002615	0.000807	6280.427115	43243.707591	3918.103267	22752.952924
34.540000	-0.001492	-0.000407	0.003725	0.000751	6283.208811	43276.392720	3932.860133	22755.502648
35.037500	-0.001453	0.000048	0.002076	0.000716	6283.772314	43321.794688	3929.115897	22757.086663
35.535000	-0.000344	-0.000435	-0.001669	0.001179	6288.714493	43234.000973	3919.417108	22735.970244
36.035000	0.001693	0.000257	0.000316	0.001110	6304.902036	43304.540352	3924.139947	22739.111564
36.535500	-0.001175	-0.000945	-0.000590	-0.000012	6291.483787	43297.151444	3924.637924	22790.284699
37.035500	-0.000359	-0.000509	-0.001180	0.000292	6295.416503	43309.387592	3922.580414	22776.423068
37.536000	-0.001606	-0.000478	0.000923	0.001873	6273.755146	43165.992037	3923.781866	22704.433805
38.036000	-0.000309	-0.000364	0.000019	0.000608	6293.373858	43293.590512	3924.613429	22762.010652
38.536000	-0.000623	0.000018	-0.002826	0.000822	6289.315547	43309.079790	3917.586579	22752.243503
39.037000	-0.001515	-0.000601	0.000014	0.000203	6287.224433	43309.112181	3925.535760	22780.487046
39.537500	-0.001284	0.000224	-0.001795	0.002531	6271.189365	43170.010809	3916.035773	22674.522952
40.037000	-0.000571	-0.000388	0.000459	0.000488	6292.279016	43302.433031	3925.903601	22767.473147
40.540500	-0.002501	-0.000342	-0.000200	0.000429	6277.945279	43312.223477	3924.520716	22770.169452
41.038000	-0.001621	0.000312	0.002125	0.000880	6281.230150	43330.974453	3928.849324	22749.598904
41.535500	-0.001672	-0.000574	-0.000494	0.000723	6282.040696	43263.467560	3923.165320	22756.759718
42.036000	-0.001107	-0.000473	-0.004016	0.000767	6286.026673	43268.675080	3914.989934	22754.733157
42.536000	0.000648	0.000686	-0.000115	0.001524	6293.682760	43305.979627	3922.194464	22720.273841
43.036500	-0.003779	0.000559	-0.002328	0.001353	6261.162216	43310.057799	3917.510546	22728.063760
43.536500	0.001292	0.000394	0.003932	-0.002934	6333.098847	43694.172674	3941.943891	22924.140303
44.034500	0.001031	-0.000408	0.004707	-0.001556	6320.384175	43490.585561	3940.532827	22860.911517
44.543000	-0.000313	-0.000093	0.002268	-0.001307	6308.079098	43496.735587	3934.257443	22849.498955
45.034500	-0.000841	-0.000162	0.004105	-0.001092	6302.345791	43470.227730	3938.038121	22839.643309
45.535000	-0.001255	-0.000615	0.000625	0.003625	6263.084106	42991.734950	3919.071869	22624.958829
46.035500	-0.002248	-0.000714	0.000689	-0.001090	6291.516990	43418.655265	3930.085411	22839.556285
46.535500	0.000176	-0.000208	0.000675	-0.001554	6313.754598	43509.016797	3931.128703	22860.801542
47.036000	-0.001425	0.000489	-0.002455	0.001646	6276.871683	43276.431026	3916.551412	22714.757416
47.536000	-0.002613	-0.000402	0.002503	0.002920	6258.118853	43076.310307	3925.008933	22656.901117
48.036500	0.001040	0.000099	0.003882	-0.000880	6315.225240	43474.789891	3937.022095	22829.942187
48.534000	0.000940	-0.000512	0.003491	-0.001157	6316.597610	43443.754188	3936.757709	22842.646982
49.037000	0.000032	-0.000413	0.001159	-0.001627	6313.209178	43496.694955	3932.422783	22864.163865
49.535000	-0.000741	-0.000482	0.003287	0.003218	6270.092250	43041.514140	3926.131495	22643.386976
50.035000	0.000594	-0.000958	0.006989	0.010261	6226.854074	42354.742721	3918.447681	22326.805602
50.538000	0.018727	-0.011088	0.018269	0.075022	5894.122587	36126.447562	3803.174467	19644.281362
51.035500	0.017079	-0.009927	-0.010271	0.221147	5047.440825	26734.715498	3511.896363	14878.317487
51.536000	0.001704	-0.025459	-0.024175	-0.085588	7044.404711	49375.631361	4078.232277	27108.658181
52.036000	-0.000251	-0.095012	-0.013374	-0.284661	9391.393092	65478.231257	4795.676789	41149.561016
52.536000	0.000117	-0.087085	-0.008412	-0.274473	9247.575760	65154.055271	4773.287045	40264.246537
53.036500	0.000217	-0.060607	-0.004833	-0.238733	8752.071044	63843.308758	4641.256193	37317.491109
53.537000	-0.001300	-0.044311	-0.008308	-0.210293	8365.911777	62166.314179	4519.555702	35139.826472
54.037000	-0.005038	-0.028811	-0.011247	-0.176696	7920.475609	59753.013327	4390.782073	32744.508396
54.535000	-0.012591	-0.033507	-0.012042	-0.194389	8037.693999	61476.111485	4448.996822	33982.857003
55.037500	-0.009413	-0.046385	-0.011860	-0.220131	8387.434642	63232.886569	4542.823434	35877.019215
55.535500	-0.007684	-0.029498	-0.013355	-0.183777	7971.402778	60594.154239	4407.677732	33234.044681
56.035500	-0.003250	-0.018423	-0.003114	-0.132673	7460.646907	55525.929676	4274.404114	29873.616521
56.536500	-0.005500	-0.014785	-0.006749	-0.122461	7333.294053	54737.349255	4232.013193	29248.250801
57.036500	-0.004020	-0.010450	-0.005049	-0.100632	7133.028355	52696.009951	4172.751313	27959.687185
57.536500	-0.008861	-0.007443	-0.010272	-0.067768	6785.891735	49396.447654	4067.865181	26137.943328
58.037000	0.000169	-0.005780	-0.002965	-0.061325	6808.760438	48889.003164	4070.145678	25796.699993
58.537500	0.001275	-0.002068	-0.006243	-0.039232	6627.128051	46988.767192	4005.082380	24664.178255
59.037500	0.003688	-0.002201	-0.004159	-0.030459	6573.783919	46096.517807	3988.548623	24230.169182
59.535000	0.001510	-0.000268	-0.002301	-0.021316	6480.772212	45387.507428	3970.837392	23787.166782
60.035000	0.002482	0.000942	-0.004047	-0.003449	6346.370797	43793.816511	3924.590518	22947.816825
60.535500	0.003190	0.001657	-0.002212	-0.000850	6331.647622	43617.341177	3922.832114	22828.567200
61.036000	0.003978	0.002773	-0.000968	0.003272	6305.857151	43337.441913	3916.232544	22640.948189
61.536000	0.003597	0.004112	-0.000072	0.001676	6315.233195	43610.700920	3921.945777	22713.382581
62.036000	0.005275	0.002288	-0.000832	-0.006559	6392.728623	44214.174701	3939.275481	23091.430947
62.536500	0.005033	0.001067	0.000066	-0.004553	6375.006750	43909.252576	3936.688441	22998.684279
63.045500	0.003744	0.002247	0.003609	-0.005802	6374.690585	44138.546344	3947.929102	23056.401306
63.538500	0.007520	0.002883	0.002041	-0.004833	6396.839209	44107.005871	3941.962292	23011.595909
64.034500	0.004287	0.002095	0.003262	-0.003489	6360.796780	43905.956490	3941.675287	22949.682125
64.538000	0.005107	0.004027	0.004566	-0.000271	6342.064257	43785.041870	3937.198433	22802.121815
65.035000	0.003003	0.003026	0.003207	0.006197	6275.937863	43090.250245	3919.094264	22508.861476
65.535500	0.000194	0.002940	-0.000261	0.015196	6186.948053	42260.969910	3890.922261	22108.010006
66.036000	0.006171	0.003416	0.003598	0.008761	6280.548906	42890.227159	3914.125148	22393.792484
66.536500	0.006873	0.005918	0.007875	0.010848	6269.968828	42928.217935	3919.130327	22300.614520
67.036500	0.005077	0.004758	0.006134	0.009154	6269.190348	42977.351893	3919.025443	22376.210869
67.536500	0.002929	0.005220	0.005653	0.008386	6258.685419	43090.607944	3919.681649	22410.556537
68.036500	0.005888	0.005186	0.004657	0.005425	6303.983681	43361.579709	3924.198853	22543.611670
68.537500	0.007647	0.005265	0.007462	0.003996	6328.632471	43501.837455	3934.003575	22608.154106
69.034500	0.007727	0.005944	0.004535	0.004259	6327.207877	43540.620863	3926.606921	22596.249459
69.535000	0.004227	0.005407	0.004071	0.012025	6240.947538	42773.512496	3907.777949	22248.289691
70.035500	0.009811	0.006594	0.012637	0.009930	6299.502582	43075.066573	3932.238940	22341.569687
70.536000	0.008225	0.006215	0.010994	0.010660	6281.733227	42972.859058	3926.739984	22308.990863
71.036000	0.008545	0.006731	0.008490	0.012289	6271.735130	42870.727385	3917.241047	22236.600326
71.536500	0.005289	0.006885	0.000876	0.017511	6207.677270	42408.425712	3888.300276	22006.203985
72.036500	0.008140	0.008052	0.010905	0.012450	6267.418857	42977.210736	3922.411599	22229.450853
72.537000	0.009337	0.007651	0.009106	0.010399	6292.255300	43129.283191	3922.991169	22320.645210
73.037500	0.013120	0.008111	0.008277	0.010212	6322.867690	43188.979409	3921.514365	22328.960430
73.534500	0.007270	0.007865	0.009837	0.015165	6240.217182	42711.206989	3913.748890	22109.363723
74.037500	0.014214	0.008748	0.009993	0.010214	6331.338473	43247.763169	3925.461224	22328.878822
74.535000	0.012604	0.009295	0.015747	0.010259	6318.515745	43294.337404	3938.719201	22326.894794
75.036000	0.013786	0.008982	0.014197	0.010134	6328.641315	43276.869603	3935.393535	22332.451676
75.536000	0.012245	0.010005	0.008185	0.016428	6268.384200	42791.431381	3907.125272	22053.778603
76.036500	0.014749	0.009763	0.017098	0.011355	6326.633108	43236.095806	3939.314178	22278.060126
76.536500	0.013458	0.011996	0.016186	0.012721	6306.094410	43316.454965	3934.001991	22217.434788
77.036500	0.014948	0.010778	0.014034	0.012546	6318.960322	43219.833873	3929.411922	22225.197815
77.537000	0.011616	0.010931	0.009965	0.017702	6253.911871	42759.566021	3908.271348	21997.856885
78.037000	0.013494	0.011805	0.014069	0.013452	6300.740906	43231.010820	3927.396121	22185.029889
78.535500	0.012755	0.012188	0.016083	0.014047	6290.493939	43211.446959	3930.680233	22158.718666
79.035000	0.013566	0.012540	0.016178	0.014276	6294.961747	43222.841548	3930.371745	22148.620296
79.535000	0.010417	0.013507	0.015525	0.019064	6234.536347	42870.763732	3917.835129	21938.259128
80.035500	0.011935	0.014126	0.016552	0.015838	6270.515779	43225.000249	3927.619487	22079.701459
80.536000	0.013311	0.013505	0.025360	0.016087	6279.125054	43144.629170	3947.605655	22068.778370
81.036000	0.015368	0.014599	0.015101	0.017752	6282.125036	43091.918952	3919.872344	21995.676608
81.537000	0.011419	0.014023	0.013585	0.021031	6227.264460	42737.876620	3908.931393	21852.490476
82.036000	0.016229	0.014026	0.015362	0.018102	6286.031762	43006.797680	3919.666174	21980.312388
82.537500	0.014461	0.014535	0.015197	0.018980	6265.826275	42972.928583	3917.277867	21941.925292
83.037500	0.014504	0.014515	0.016552	0.019086	6265.352102	42961.312069	3920.139140	21937.303043
83.537500	0.013197	0.013556	0.019565	0.023349	6223.205605	42484.084428	3917.275302	21751.941402
84.035000	0.018718	0.014147	0.016909	0.019887	6291.441296	42854.034931	3919.121841	21902.343157
84.535500	0.018339	0.014291	0.014002	0.020687	6282.404737	42793.889205	3910.658983	21867.481544
85.035000	0.019034	0.014433	0.020599	0.021598	6280.745750	42723.471664	3923.666087	21827.831939
85.536000	0.017626	0.014370	0.022959	0.024619	6247.035746	42442.646392	3922.145095	21697.073884
86.036500	0.021354	0.013727	0.018297	0.023234	6285.987888	42510.080904	3914.641010	21756.938064
86.537000	0.019979	0.014870	0.022605	0.024968	6262.244903	42456.359186	3920.530047	21682.030055
87.037000	0.020942	0.014101	0.020034	0.025810	6263.169434	42310.418501	3912.727235	21645.764577
87.536500	0.020626	0.014188	0.018246	0.027637	6246.902640	42153.374514	3904.527043	21567.352744
88.040500	0.020411	0.013972	0.019835	0.027389	6247.150671	42156.162297	3908.684048	21577.955595
88.535000	0.022575	0.014025	0.024556	0.028242	6257.087847	42084.232514	3917.497549	21541.429621
89.035000	0.018112	0.014158	0.023386	0.029551	6213.545215	41978.715343	3911.842172	21485.554462
89.535500	0.020694	0.014701	0.022216	0.030332	6227.067271	41957.304246	3907.410332	21452.245763
90.035500	0.019814	0.014758	0.020750	0.031597	6210.965946	41849.147737	3901.244497	21398.465690
90.536000	0.021325	0.014508	0.021800	0.032113	6218.429636	41780.787859	3902.447292	21376.598638
91.036500	0.021858	0.014026	0.021116	0.032398	6220.289667	41712.405990	3900.265068	21364.505204
91.537000	0.021385	0.015089	0.024768	0.035235	6195.522198	41554.681615	3902.098300	21244.682482
92.037500	0.022466	0.014954	0.019246	0.034775	6207.028339	41583.503813	3890.761019	21264.056901
92.534500	0.024015	0.015940	0.022186	0.035842	6210.639652	41576.351479	3894.942295	21219.167040
93.035000	0.023072	0.015560	0.023631	0.036498	6198.685031	41484.629939	3896.707843	21191.625067
93.535500	0.019985	0.015591	0.024314	0.040696	6144.784609	41117.323187	3888.862495	21016.245170
94.036000	0.022585	0.015843	0.018147	0.037872	6184.835742	41388.094926	3881.460971	21134.041812
94.536000	0.024508	0.015930	0.025216	0.038260	6196.253245	41361.465651	3896.311221	21117.798814
95.036500	0.024162	0.016489	0.023181	0.038872	6189.119949	41356.852496	3890.400236	21092.239005
95.536500	0.024575	0.016454	0.018512	0.042726	6163.620000	41015.131895	3871.611010	20932.059600
96.036500	0.023578	0.016552	0.024116	0.040131	6175.438255	41251.442186	3889.679943	21039.759018
96.537000	0.026156	0.016985	0.026037	0.041097	6187.402314	41204.550114	3891.804311	20999.582187
97.037000	0.025945	0.016486	0.028016	0.041144	6185.490355	41156.622993	3896.124813	20997.659222
97.537500	0.024484	0.017269	0.023462	0.045431	6143.052201	40850.219077	3876.523476	20820.486460
98.035000	0.022831	0.016601	0.027852	0.043067	6148.273439	40998.221269	3891.461189	20917.966435
98.535500	0.024453	0.017716	0.025515	0.043620	6156.129827	41047.374015	3885.039902	20895.099954
99.036000	0.023537	0.017562	0.025733	0.044262	6144.680555	40977.777104	3884.101493	20868.624759
99.536000	0.022918	0.017631	0.022643	0.047620	6115.641429	40691.522295	3869.947196	20730.713924
100.036500	0.026725	0.017869	0.032135	0.045265	6160.750852	40916.959962	3896.117066	20827.311425
100.536500	0.022921	0.016982	0.029477	0.045293	6132.626820	40837.308950	3890.123146	20826.187311
101.036500	0.026429	0.017736	0.029081	0.046827	6147.088229	40769.441629	3885.836831	20763.205877
101.537000	0.023852	0.017934	0.023472	0.048549	6115.675224	40637.177868	3869.727428	20692.733614
102.037000	0.027659	0.019339	0.031784	0.049155	6139.029908	40706.496237	3886.667275	20668.028602
102.537500	0.025716	0.018104	0.029372	0.048343	6130.760415	40669.771314	3883.126127	20701.154081
103.035500	0.026805	0.018403	0.034188	0.049855	6127.670460	40564.874986	3890.453650	20639.505850
103.535000	0.028009	0.018562	0.030994	0.050691	6130.363270	40506.406793	3881.522492	20605.531135
104.035500	0.025324	0.018632	0.032397	0.051065	6108.095869	40480.175336	3883.795553	20590.335394
104.536000	0.025319	0.018519	0.031953	0.051950	6101.646930	40394.254931	3880.862378	20554.456365
105.036500	0.028700	0.018586	0.032919	0.052614	6121.374242	40342.942752	3881.527605	20527.591269
105.536500	0.027079	0.018806	0.030614	0.054791	6093.838566	40175.137506	3871.692604	20439.762511
106.037000	0.028831	0.018554	0.028425	0.054288	6110.154275	40196.615950	3868.017791	20459.989626
