sample name	sample
index	34
start time	 02-11-2021  12:59:30 PM


Wavelength (nm)	Absorbance
494.344910	-0.214017
494.563924	-0.214017
494.782919	-0.214017
495.001897	0.279043
495.220856	-0.073090
495.439797	-0.081912
495.658719	-0.179737
495.877624	-0.166643
496.096510	-0.163592
496.315378	-0.078589
496.534227	-0.095825
496.753059	-0.113984
496.971872	-0.031024
497.190667	0.039501
497.409444	0.057967
497.628203	0.066896
497.846943	0.069959
498.065665	0.069282
498.284369	0.070158
498.503055	0.070469
498.721723	0.070532
498.940372	0.068883
499.159003	0.067449
499.377616	0.068054
499.596210	0.068058
499.814787	0.066020
500.033345	0.066181
500.251885	0.066841
500.470406	0.064022
500.688910	0.063881
500.907395	0.064406
501.125862	0.065887
501.344311	0.065197
501.562742	0.065712
501.781154	0.065897
501.999548	0.065395
502.217924	0.064908
502.436282	0.066971
502.654621	0.066494
502.872942	0.067583
503.091245	0.066381
503.309530	0.067155
503.527797	0.069603
503.746045	0.069146
503.964275	0.067757
504.182487	0.066849
504.400681	0.066125
504.618856	0.064941
504.837013	0.065182
505.055152	0.065836
505.273273	0.065684
505.491376	0.062452
505.709460	0.063349
505.927526	0.063123
506.145574	0.063190
506.363604	0.064103
506.581615	0.065881
506.799608	0.064784
507.017583	0.064990
507.235540	0.063954
507.453478	0.065667
507.671399	0.065991
507.889301	0.067209
508.107185	0.068455
508.325050	0.067255
508.542898	0.066791
508.760727	0.067808
508.978538	0.066680
509.196330	0.066867
509.414105	0.066426
509.631861	0.065647
509.849599	0.065592
510.067319	0.063097
510.285021	0.064375
510.502704	0.064364
510.720369	0.064107
510.938016	0.066102
511.155645	0.068370
511.373255	0.068939
511.590848	0.069197
511.808422	0.069363
512.025977	0.070240
512.243515	0.069282
512.461034	0.068287
512.678536	0.067444
512.896018	0.066912
513.113483	0.064321
513.330930	0.063886
513.548358	0.063343
513.765768	0.064350
513.983160	0.064341
514.200533	0.065563
514.417889	0.065455
514.635226	0.065660
514.852545	0.064279
515.069845	0.065659
515.287128	0.064325
515.504392	0.065167
515.721638	0.064205
515.938866	0.064432
516.156075	0.063612
516.373267	0.064695
516.590440	0.065039
516.807594	0.066142
517.024731	0.065336
517.241850	0.066563
517.458950	0.066305
517.676032	0.066869
517.893095	0.067674
518.110141	0.067941
518.327168	0.067812
518.544177	0.068063
518.761168	0.068305
518.978141	0.069440
519.195095	0.069292
519.412031	0.069979
519.628949	0.070269
519.845849	0.069704
520.062731	0.068795
520.279594	0.069666
520.496439	0.069105
520.713266	0.069353
520.930074	0.068058
521.146865	0.067319
521.363637	0.066461
521.580391	0.066627
521.797127	0.067340
522.013844	0.068704
522.230543	0.068043
522.447224	0.068940
522.663887	0.068335
522.880532	0.068983
523.097158	0.069745
523.313766	0.069949
523.530356	0.069192
523.746928	0.069081
523.963481	0.068756
524.180017	0.068399
524.396534	0.067251
524.613032	0.067660
524.829513	0.068631
525.045975	0.069467
525.262420	0.070136
525.478845	0.069858
525.695253	0.070292
525.911643	0.070321
526.128014	0.070295
526.344367	0.070231
526.560702	0.070554
526.777018	0.069574
526.993316	0.068593
527.209597	0.068760
527.425858	0.070112
527.642102	0.069740
527.858328	0.069679
528.074535	0.070121
528.290724	0.072049
528.506894	0.071740
528.723047	0.072460
528.939181	0.072190
529.155297	0.072176
529.371395	0.071631
529.587475	0.071038
529.803536	0.071509
530.019579	0.072537
530.235604	0.071925
530.451611	0.072628
530.667600	0.072166
530.883570	0.073015
531.099522	0.073153
531.315456	0.073288
531.531372	0.074377
531.747269	0.073228
531.963148	0.073013
532.179009	0.073064
532.394852	0.072250
532.610676	0.071885
532.826482	0.071134
533.042271	0.071118
533.258040	0.071664
533.473792	0.071535
533.689525	0.072968
533.905240	0.072204
534.120937	0.072116
534.336616	0.072288
534.552277	0.073289
534.767919	0.074707
534.983543	0.075553
535.199149	0.074282
535.414736	0.074127
535.630306	0.073761
535.845857	0.074758
536.061390	0.074682
536.276904	0.074950
536.492401	0.074871
536.707879	0.074756
536.923339	0.073921
537.138781	0.075277
537.354204	0.075662
537.569610	0.075663
537.784997	0.075635
538.000366	0.076340
538.215716	0.076477
538.431049	0.076574
538.646363	0.076840
538.861659	0.076590
539.076937	0.076738
539.292196	0.077880
539.507438	0.078009
539.722661	0.078526
539.937866	0.078933
540.153052	0.078803
540.368221	0.079703
540.583371	0.079485
540.798503	0.080295
541.013617	0.080129
541.228712	0.078706
541.443789	0.078582
541.658848	0.078851
541.873889	0.078359
542.088912	0.078581
542.303916	0.077826
542.518902	0.078069
542.733870	0.078338
542.948820	0.078386
543.163752	0.079021
543.378665	0.079696
543.593560	0.079601
543.808437	0.080233
544.023295	0.080982
544.238136	0.080602
544.452958	0.080831
544.667762	0.080674
544.882548	0.080616
545.097315	0.080901
545.312064	0.080320
545.526795	0.080245
545.741508	0.079764
545.956203	0.079552
546.170879	0.080143
546.385537	0.080072
546.600177	0.080284
546.814799	0.080310
547.029402	0.079422
547.243988	0.079910
547.458555	0.079423
547.673103	0.079386
547.887634	0.079919
548.102146	0.079907
548.316640	0.080688
548.531116	0.080972
548.745574	0.081270
548.960013	0.082834
549.174435	0.083800
549.388838	0.083490
549.603222	0.083518
549.817589	0.082950
550.031937	0.082706
550.246267	0.082412
550.460579	0.082063
550.674873	0.082072
550.889148	0.081268
551.103405	0.080863
551.317644	0.081583
551.531865	0.082322
551.746068	0.082593
551.960252	0.083018
552.174418	0.082572
552.388566	0.082504
552.602696	0.083025
552.816807	0.083500
553.030900	0.083641
553.244975	0.083929
553.459032	0.083568
553.673070	0.083176
553.887091	0.083100
554.101093	0.083256
554.315077	0.083766
554.529042	0.083712
554.742990	0.083654
554.956919	0.083518
555.170830	0.083680
555.384722	0.083929
555.598597	0.084892
555.812453	0.085259
556.026291	0.085739
556.240111	0.085181
556.453913	0.085034
556.667696	0.085234
556.881461	0.085415
557.095208	0.085335
557.308937	0.085220
557.522647	0.085494
557.736339	0.085722
557.950013	0.085667
558.163669	0.086147
558.377307	0.086573
558.590926	0.086493
558.804527	0.086606
559.018110	0.086499
559.231675	0.086618
559.445221	0.086336
559.658749	0.086051
559.872259	0.086118
560.085751	0.086428
560.299225	0.086761
560.512680	0.087054
560.726117	0.087261
560.939536	0.088007
561.152937	0.088479
561.366319	0.088137
561.579683	0.088421
561.793029	0.088515
562.006357	0.088583
562.219667	0.088206
562.432958	0.087772
562.646231	0.087751
562.859486	0.087287
563.072723	0.087127
563.285941	0.087067
563.499141	0.087719
563.712323	0.087618
563.925487	0.087673
564.138632	0.087956
564.351760	0.088857
564.564869	0.088899
564.777960	0.088844
564.991032	0.088777
565.204087	0.089507
565.417123	0.089166
565.630141	0.089662
565.843140	0.089564
566.056122	0.089619
566.269085	0.089495
566.482030	0.089418
566.694957	0.089815
566.907866	0.089708
567.120756	0.089212
567.333628	0.089157
567.546482	0.088707
567.759318	0.088808
567.972135	0.088936
568.184935	0.088944
568.397716	0.089663
568.610478	0.089679
568.823223	0.090256
569.035949	0.090570
569.248657	0.090948
569.461347	0.091525
569.674019	0.091707
569.886672	0.092001
570.099308	0.092378
570.311925	0.092182
570.524523	0.092233
570.737104	0.092328
570.949666	0.092497
571.162210	0.092601
571.374736	0.092353
571.587244	0.092211
571.799733	0.091947
572.012205	0.091636
572.224658	0.091917
572.437092	0.092091
572.649509	0.092191
572.861907	0.092643
573.074287	0.092636
573.286649	0.093198
573.498993	0.093466
573.711318	0.093258
573.923625	0.093065
574.135914	0.092922
574.348185	0.093280
574.560438	0.093085
574.772672	0.093073
574.984888	0.092857
575.197086	0.092250
575.409266	0.092457
575.621427	0.092718
575.833570	0.093415
576.045695	0.093463
576.257802	0.093171
576.469890	0.093613
576.681961	0.093478
576.894013	0.094016
577.106046	0.094063
577.318062	0.094156
577.530059	0.094312
577.742039	0.093852
577.954000	0.094059
578.165942	0.094174
578.377867	0.093742
578.589773	0.094027
578.801661	0.094056
579.013531	0.094635
579.225382	0.094076
579.437216	0.094393
579.649031	0.094789
579.860828	0.094676
580.072606	0.094707
580.284367	0.095110
580.496109	0.095571
580.707833	0.095400
580.919539	0.095000
581.131227	0.095962
581.342896	0.095599
581.554547	0.096118
581.766180	0.095916
581.977795	0.096041
582.189391	0.096191
582.400969	0.095761
582.612529	0.096519
582.824071	0.097341
583.035595	0.096488
583.247100	0.096282
583.458587	0.095565
583.670056	0.095778
583.881506	0.096100
584.092939	0.095717
584.304353	0.095221
584.515749	0.095111
584.727127	0.094570
584.938486	0.095254
585.149828	0.096274
585.361151	0.096610
585.572456	0.096986
585.783742	0.097224
585.995011	0.097914
586.206261	0.098559
586.417493	0.098188
586.628706	0.098773
586.839902	0.098911
587.051079	0.098386
587.262238	0.098461
587.473379	0.098005
587.684502	0.097708
587.895606	0.097711
588.106692	0.097739
588.317760	0.097342
588.528810	0.097575
588.739841	0.097733
588.950855	0.097973
589.161850	0.098512
589.372827	0.098529
589.583785	0.098727
589.794726	0.098854
590.005648	0.098772
590.216552	0.099516
590.427437	0.099093
590.638305	0.099401
590.849154	0.099403
591.059985	0.099734
591.270798	0.100517
591.481592	0.100205
591.692369	0.099719
591.903127	0.099621
592.113867	0.100353
592.324588	0.100755
592.535292	0.100636
592.745977	0.100954
592.956644	0.100595
593.167293	0.100640
593.377923	0.100783
593.588536	0.101503
593.799130	0.102418
594.009706	0.101270
594.220263	0.101731
594.430803	0.101804
594.641324	0.101793
594.851827	0.102062
595.062312	0.102007
595.272778	0.102222
595.483227	0.102320
595.693657	0.102001
595.904069	0.103116
596.114462	0.102944
596.324838	0.103386
596.535195	0.103652
596.745534	0.103371
596.955855	0.103602
597.166157	0.104288
597.376441	0.104362
597.586707	0.104711
597.796955	0.104627
598.007185	0.104767
598.217396	0.104477
598.427589	0.104625
598.637764	0.104571
598.847921	0.104185
599.058060	0.103557
599.268180	0.103531
599.478282	0.103052
599.688366	0.102839
599.898431	0.102604
600.108479	0.102683
600.318508	0.102425
600.528519	0.102476
600.738511	0.102346
600.948486	0.102754
601.158442	0.102572
601.368380	0.102430
601.578300	0.102618
601.788202	0.102720
601.998085	0.102749
602.207950	0.103094
602.417797	0.103177
602.627626	0.104017
602.837436	0.104050
603.047228	0.104141
603.257002	0.104536
603.466758	0.104430
603.676496	0.104658
603.886215	0.104809
604.095916	0.105180
604.305599	0.105255
604.515264	0.105013
604.724910	0.105346
604.934538	0.105683
605.144148	0.105983
605.353740	0.105964
605.563314	0.105963
605.772869	0.106061
605.982406	0.105569
606.191925	0.105846
606.401425	0.105727
606.610908	0.105800
606.820372	0.105866
607.029818	0.105714
607.239246	0.105670
607.448655	0.105776
607.658047	0.106038
607.867420	0.106303
608.076775	0.106620
608.286111	0.107032
608.495430	0.106802
608.704730	0.106986
608.914012	0.107570
609.123275	0.107966
609.332521	0.107713
609.541748	0.107323
609.750957	0.107250
609.960148	0.107120
610.169321	0.107560
610.378475	0.107899
610.587611	0.107915
610.796729	0.107853
611.005829	0.107927
611.214910	0.108148
611.423974	0.108557
611.633019	0.108700
611.842045	0.108518
612.051054	0.108427
612.260044	0.108734
612.469017	0.108740
612.677970	0.108355
612.886906	0.107922
613.095824	0.108067
613.304723	0.108322
613.513604	0.108534
613.722467	0.109293
613.931311	0.109175
614.140138	0.108863
614.348946	0.109124
614.557736	0.109070
614.766507	0.109579
614.975261	0.109678
615.183996	0.109629
615.392713	0.109715
615.601412	0.109042
615.810092	0.108950
616.018754	0.109057
616.227399	0.108834
616.436024	0.109110
616.644632	0.109160
616.853222	0.109188
617.061793	0.109238
617.270346	0.109378
617.478880	0.110045
617.687397	0.110047
617.895895	0.110036
618.104375	0.110143
618.312837	0.110576
618.521281	0.110890
618.729706	0.110957
618.938113	0.110792
619.146502	0.111011
619.354873	0.110712
619.563226	0.111060
619.771560	0.110967
619.979876	0.110973
620.188174	0.110808
620.396453	0.110912
620.604715	0.111323
620.812958	0.111564
621.021183	0.111518
621.229390	0.111956
621.437578	0.111888
621.645748	0.112221
621.853900	0.112569
622.062034	0.112789
622.270150	0.112921
622.478247	0.112795
622.686326	0.113044
622.894387	0.112781
623.102430	0.112853
623.310454	0.113021
623.518461	0.113287
623.726449	0.113289
623.934418	0.113519
624.142370	0.113610
624.350303	0.114339
624.558218	0.114421
624.766115	0.114700
624.973994	0.114434
625.181855	0.114704
625.389697	0.114539
625.597521	0.114777
625.805327	0.114548
626.013114	0.114401
626.220883	0.113809
626.428634	0.114032
626.636367	0.114283
626.844082	0.114258
627.051778	0.114233
627.259457	0.114632
627.467117	0.114727
627.674758	0.115100
627.882382	0.115082
628.089987	0.115024
628.297574	0.115269
628.505143	0.115213
628.712694	0.115562
628.920226	0.115651
629.127740	0.115672
629.335236	0.116010
629.542714	0.116199
629.750174	0.116689
629.957615	0.116734
630.165038	0.116511
630.372443	0.116476
630.579829	0.116500
630.787198	0.116894
630.994548	0.117168
631.201880	0.116957
631.409194	0.116918
631.616489	0.116878
631.823766	0.117044
632.031025	0.117198
632.238266	0.117651
632.445489	0.117652
632.652693	0.117476
632.859879	0.117078
633.067047	0.117176
633.274197	0.117304
633.481329	0.117726
633.688442	0.118113
633.895537	0.118410
634.102614	0.118367
634.309672	0.118654
634.516713	0.118666
634.723735	0.119015
634.930739	0.119209
635.137724	0.119329
635.344692	0.119034
635.551641	0.119320
635.758572	0.119187
635.965485	0.118978
636.172379	0.119040
636.379256	0.119239
636.586114	0.119370
636.792954	0.119517
636.999775	0.119564
637.206579	0.119590
637.413364	0.119396
637.620131	0.119329
637.826880	0.119400
638.033610	0.119196
638.240323	0.119283
638.447017	0.118947
638.653692	0.118814
638.860350	0.118902
639.066990	0.119227
639.273611	0.119350
639.480214	0.119251
639.686798	0.119475
639.893365	0.119887
640.099913	0.119807
640.306443	0.120338
640.512955	0.120394
640.719449	0.120096
640.925924	0.120213
641.132381	0.120070
641.338820	0.120357
641.545241	0.120506
641.751644	0.120474
641.958028	0.120681
642.164394	0.120536
642.370742	0.120473
642.577071	0.120718
642.783383	0.120770
642.989676	0.120664
643.195951	0.120657
643.402207	0.120864
643.608446	0.121145
643.814666	0.121311
644.020868	0.121680
644.227052	0.122207
644.433218	0.122649
644.639365	0.122350
644.845494	0.122908
645.051605	0.122980
645.257698	0.123103
645.463772	0.123536
645.669828	0.123740
645.875866	0.123805
646.081886	0.123911
646.287888	0.124088
646.493871	0.124735
646.699836	0.124831
646.905783	0.124962
647.111712	0.125089
647.317622	0.124765
647.523514	0.124778
647.729388	0.124632
647.935244	0.124195
648.141082	0.124246
648.346901	0.124276
648.552702	0.124365
648.758485	0.124761
648.964250	0.124808
649.169996	0.125129
649.375724	0.125228
649.581434	0.125446
649.787126	0.126022
649.992800	0.126024
650.198455	0.126005
650.404092	0.126072
650.609711	0.126750
650.815311	0.127152
651.020894	0.127254
651.226458	0.127570
651.432004	0.128120
651.637532	0.128173
651.843041	0.128425
652.048532	0.128404
652.254006	0.128818
652.459460	0.128473
652.664897	0.128698
652.870315	0.128889
653.075716	0.128979
653.281097	0.129139
653.486461	0.129622
653.691807	0.129887
653.897134	0.130278
654.102443	0.130148
654.307734	0.130512
654.513006	0.130578
654.718261	0.130682
654.923497	0.130820
655.128715	0.130617
655.333915	0.130625
655.539096	0.130458
655.744259	0.130508
655.949404	0.130844
656.154531	0.130314
656.359640	0.130400
656.564730	0.130534
656.769802	0.130545
656.974856	0.130319
657.179892	0.130269
657.384909	0.130355
657.589908	0.130269
657.794889	0.130031
657.999852	0.130339
658.204797	0.130270
658.409723	0.130340
658.614631	0.130303
658.819521	0.130850
659.024393	0.130868
659.229246	0.131106
659.434081	0.131164
659.638898	0.131375
659.843697	0.131376
660.048478	0.131510
660.253240	0.131798
660.457984	0.131927
660.662710	0.132022
660.867417	0.131922
661.072107	0.131930
661.276778	0.132303
661.481431	0.132657
661.686066	0.132982
661.890682	0.132806
662.095281	0.132833
662.299861	0.133062
662.504422	0.133280
662.708966	0.133640
662.913491	0.133952
663.117999	0.133979
663.322488	0.134185
663.526958	0.134477
663.731411	0.135040
663.935845	0.134923
664.140261	0.135018
664.344659	0.134909
664.549038	0.134978
664.753400	0.134762
664.957743	0.135049
665.162068	0.135219
665.366375	0.135196
665.570663	0.135078
665.774933	0.135602
665.979185	0.135981
666.183419	0.136228
666.387635	0.136474
666.591832	0.136816
666.796011	0.136865
667.000172	0.136891
667.204315	0.137248
667.408439	0.137567
667.612545	0.137164
667.816634	0.137230
668.020703	0.137160
668.224755	0.137227
668.428788	0.137285
668.632803	0.137227
668.836800	0.137452
669.040779	0.137258
669.244739	0.137405
669.448681	0.137818
669.652605	0.137665
669.856511	0.138053
670.060399	0.138015
670.264268	0.138123
670.468119	0.138549
670.671952	0.138207
670.875767	0.138404
671.079563	0.138130
671.283341	0.138089
671.487101	0.138255
671.690843	0.137997
671.894567	0.138064
672.098272	0.138443
672.301959	0.138312
672.505628	0.138482
672.709278	0.138156
672.912911	0.138693
673.116525	0.138827
673.320121	0.139027
673.523699	0.139301
673.727258	0.139858
673.930799	0.139674
674.134322	0.139735
674.337827	0.140116
674.541314	0.140827
674.744782	0.140707
674.948232	0.140994
675.151664	0.140904
675.355078	0.141297
675.558474	0.141621
675.761851	0.142074
675.965210	0.142132
676.168551	0.142209
676.371873	0.142214
676.575178	0.142357
676.778464	0.142469
676.981732	0.142537
677.184981	0.142731
677.388213	0.142327
677.591426	0.142058
677.794621	0.142334
677.997798	0.142413
678.200956	0.142567
678.404097	0.142896
678.607219	0.142786
678.810323	0.143120
679.013408	0.143141
679.216476	0.143627
679.419525	0.144093
679.622556	0.144210
679.825569	0.144178
680.028563	0.144147
680.231540	0.144297
680.434498	0.144624
680.637438	0.144621
680.840359	0.144477
681.043263	0.144142
681.246148	0.144054
681.449015	0.143939
681.651864	0.144194
681.854694	0.144559
682.057506	0.144209
682.260301	0.144334
682.463076	0.144635
682.665834	0.144584
682.868573	0.145155
683.071295	0.145338
683.273998	0.145922
683.476682	0.146269
683.679349	0.146121
683.881997	0.146493
684.084627	0.146470
684.287239	0.146424
684.489833	0.146628
684.692408	0.146367
684.894965	0.146284
685.097504	0.146437
685.300025	0.146502
685.502527	0.146546
685.705012	0.146733
685.907478	0.146699
686.109925	0.146547
686.312355	0.146844
686.514766	0.147075
686.717159	0.147587
686.919534	0.147309
687.121891	0.147405
687.324230	0.147624
687.526550	0.147832
687.728852	0.148196
687.931136	0.148839
688.133401	0.149048
688.335649	0.149185
688.537878	0.149055
688.740089	0.149437
688.942281	0.149595
689.144456	0.149717
689.346612	0.149535
689.548750	0.149559
689.750870	0.149482
689.952971	0.149572
690.155055	0.149616
690.357120	0.149841
690.559167	0.149478
690.761195	0.149651
690.963206	0.149645
691.165198	0.149913
691.367172	0.149960
691.569128	0.150302
691.771065	0.150017
691.972984	0.150005
692.174885	0.149895
692.376768	0.150232
692.578633	0.149968
692.780479	0.150095
692.982308	0.150169
693.184118	0.150299
693.385909	0.150158
693.587683	0.150437
693.789438	0.150719
693.991175	0.151150
694.192894	0.151161
694.394595	0.151211
694.596277	0.151398
694.797941	0.151295
694.999587	0.151449
695.201215	0.151973
695.402824	0.152363
695.604416	0.152586
695.805989	0.152524
696.007543	0.152926
696.209080	0.153459
696.410598	0.153764
696.612099	0.153794
696.813580	0.154032
697.015044	0.153675
697.216490	0.153633
697.417917	0.153954
697.619326	0.154207
697.820717	0.154197
698.022089	0.154354
698.223444	0.154377
698.424780	0.154725
698.626098	0.154779
698.827397	0.155069
699.028679	0.155199
699.229942	0.155081
699.431187	0.154900
699.632414	0.155309
699.833622	0.154954
700.034813	0.155007
700.235985	0.155241
700.437139	0.155400
700.638274	0.155250
700.839392	0.155187
701.040491	0.155384
701.241572	0.155333
701.442635	0.154961
701.643679	0.155201
701.844706	0.155510
702.045714	0.155560
702.246704	0.155270
702.447675	0.155520
702.648629	0.155519
702.849564	0.155297
703.050481	0.155465
703.251380	0.155508
703.452260	0.155349
703.653122	0.155100
703.853966	0.154782
704.054792	0.154881
704.255600	0.154597
704.456389	0.154697
704.657160	0.154538
704.857913	0.154660
705.058648	0.155074
705.259365	0.155419
705.460063	0.155430
705.660743	0.155460
705.861405	0.155805
706.062048	0.156184
706.262674	0.156508
706.463281	0.156615
706.663870	0.156681
706.864441	0.156971
707.064993	0.156855
707.265527	0.156848
707.466043	0.156983
707.666541	0.156737
707.867021	0.156854
708.067482	0.156752
708.267925	0.156880
708.468350	0.156914
708.668757	0.156382
708.869145	0.156414
709.069516	0.156465
709.269868	0.156855
709.470201	0.156597
709.670517	0.156472
709.870814	0.156253
710.071093	0.156403
710.271354	0.156409
710.471597	0.156342
710.671821	0.156138
710.872028	0.156025
711.072216	0.155818
711.272385	0.156487
711.472537	0.156379
711.672670	0.156771
711.872785	0.156430
712.072882	0.156755
712.272961	0.156671
712.473021	0.157064
712.673063	0.157128
712.873087	0.157187
713.073093	0.156939
713.273081	0.157133
713.473050	0.157166
713.673001	0.157291
713.872934	0.157212
714.072849	0.157445
714.272745	0.157432
714.472623	0.157376
714.672483	0.157537
714.872325	0.157504
715.072148	0.157597
715.271954	0.157262
715.471741	0.157534
715.671509	0.157593
715.871260	0.157293
716.070992	0.157082
716.270707	0.157283
716.470403	0.157050
716.670080	0.157241
716.869740	0.157115
717.069381	0.157142
717.269004	0.157046
717.468609	0.156647
717.668195	0.157222
717.867764	0.157483
718.067314	0.157532
718.266846	0.157491
718.466360	0.157435
718.665855	0.157129
718.865332	0.157091
719.064791	0.157033
719.264232	0.156825
719.463655	0.156474
719.663059	0.156224
719.862445	0.156171
720.061813	0.156043
720.261163	0.156001
720.460494	0.155846
720.659807	0.155902
720.859102	0.155996
721.058379	0.155961
721.257638	0.156089
721.456878	0.156062
721.656100	0.155915
721.855304	0.155967
722.054490	0.155978
722.253657	0.156162
722.452806	0.156161
722.651937	0.155861
722.851050	0.155983
723.050145	0.156004
723.249221	0.155678
723.448279	0.155339
723.647319	0.155602
723.846340	0.155067
724.045344	0.155092
724.244329	0.154581
724.443296	0.154494
724.642245	0.154373
724.841175	0.153972
725.040088	0.154319
725.238982	0.154415
725.437857	0.153779
725.636715	0.153994
725.835554	0.153949
726.034376	0.154291
726.233179	0.154239
726.431963	0.154331
726.630730	0.154397
726.829478	0.153959
727.028208	0.153992
727.226920	0.154073
727.425614	0.153790
727.624289	0.153759
727.822946	0.153100
728.021585	0.153118
728.220206	0.152873
728.418808	0.152598
728.617392	0.152706
728.815958	0.152542
729.014506	0.152564
729.213036	0.152913
729.411547	0.152813
729.610040	0.153263
729.808515	0.153384
730.006972	0.153548
730.205410	0.153558
730.403831	0.153638
730.602233	0.153603
730.800616	0.153817
730.998982	0.153890
731.197329	0.153971
731.395658	0.154198
731.593969	0.153781
731.792262	0.153687
731.990536	0.153495
732.188793	0.153032
732.387031	0.153049
732.585250	0.152613
732.783452	0.152240
732.981635	0.152001
733.179800	0.151698
733.377947	0.151726
733.576076	0.151502
733.774186	0.151468
733.972278	0.151582
734.170352	0.151538
734.368408	0.151388
734.566446	0.150919
734.764465	0.150620
734.962466	0.150761
735.160449	0.150954
735.358413	0.150600
735.556360	0.150821
735.754288	0.150586
735.952198	0.150270
736.150090	0.150469
736.347963	0.150372
736.545818	0.150573
736.743655	0.150496
736.941474	0.150021
737.139275	0.150214
737.337057	0.149836
737.534821	0.149875
737.732567	0.149716
737.930295	0.149523
738.128005	0.149622
738.325696	0.149361
738.523369	0.149001
738.721024	0.148839
738.918660	0.148868
739.116279	0.148746
739.313879	0.148866
739.511461	0.148743
739.709024	0.148336
739.906570	0.148542
740.104097	0.148401
740.301606	0.148209
740.499097	0.148130
740.696569	0.147992
740.894024	0.147587
741.091460	0.147154
741.288878	0.147324
741.486277	0.147720
741.683659	0.147326
741.881022	0.147356
742.078367	0.147560
742.275694	0.147287
742.473002	0.147279
742.670293	0.147863
742.867565	0.147961
743.064819	0.147817
743.262054	0.147496
743.459272	0.147397
743.656471	0.147249
743.853652	0.146922
744.050815	0.147347
744.247959	0.147089
744.445085	0.146899
744.642194	0.146940
744.839283	0.146941
745.036355	0.146672
745.233408	0.146386
745.430444	0.146266
745.627461	0.145885
745.824459	0.145392
746.021440	0.145431
746.218402	0.144661
746.415346	0.144277
746.612272	0.144405
746.809180	0.144623
747.006069	0.144956
747.202940	0.144820
747.399793	0.144839
747.596628	0.145135
747.793444	0.144922
747.990243	0.145478
748.187023	0.145647
748.383784	0.145568
748.580528	0.145181
748.777253	0.144974
748.973960	0.144957
749.170649	0.145213
749.367320	0.144863
749.563973	0.144694
749.760607	0.144400
749.957223	0.143936
750.153821	0.143666
750.350400	0.143839
750.546962	0.143680
750.743505	0.143637
750.940030	0.143282
751.136536	0.143317
751.333025	0.143278
751.529495	0.143550
751.725947	0.143499
751.922381	0.143336
752.118796	0.143451
752.315194	0.143914
752.511573	0.143607
752.707934	0.143770
752.904276	0.143586
753.100601	0.143305
753.296907	0.143278
753.493195	0.143287
753.689465	0.143440
753.885716	0.143024
754.081949	0.142379
754.278164	0.142467
754.474361	0.142233
754.670540	0.142187
754.866700	0.142312
755.062843	0.142006
755.258967	0.142291
755.455072	0.141917
755.651160	0.142205
755.847229	0.142218
756.043280	0.142093
756.239313	0.142001
756.435328	0.142104
756.631324	0.141792
756.827302	0.141673
757.023262	0.141188
757.219204	0.140862
757.415127	0.140363
757.611033	0.140147
757.806920	0.139965
758.002788	0.139866
758.198639	0.139544
758.394471	0.139836
758.590286	0.139498
758.786081	0.139721
758.981859	0.139796
759.177619	0.139616
759.373360	0.139664
759.569083	0.139468
759.764788	0.139506
759.960474	0.139466
760.156143	0.139316
760.351793	0.139516
760.547425	0.139229
760.743038	0.139341
760.938634	0.139450
761.134211	0.139620
761.329770	0.139969
761.525311	0.139758
761.720833	0.139628
761.916338	0.139646
762.111824	0.139797
762.307292	0.140187
762.502741	0.140427
762.698173	0.140503
762.893586	0.140234
763.088981	0.140454
763.284358	0.140599
763.479716	0.140895
763.675057	0.140816
763.870379	0.140941
764.065683	0.141104
764.260968	0.140544
764.456236	0.140980
764.651485	0.140880
764.846716	0.140830
765.041929	0.140721
765.237123	0.140418
765.432299	0.140043
765.627457	0.139752
765.822597	0.139175
766.017719	0.139516
766.212822	0.138772
766.407907	0.138807
766.602974	0.138850
766.798023	0.138830
766.993054	0.139038
767.188066	0.139779
767.383060	0.139740
767.578036	0.140142
767.772993	0.139932
767.967933	0.139838
768.162854	0.139760
768.357757	0.139423
768.552642	0.139617
768.747508	0.139534
768.942356	0.139091
769.137186	0.139032
769.331998	0.138460
769.526792	0.138286
769.721567	0.138278
769.916324	0.138076
770.111063	0.138105
770.305784	0.137788
770.500486	0.137568
770.695171	0.137160
770.889837	0.137420
771.084484	0.137278
771.279114	0.137192
771.473725	0.137331
771.668318	0.137238
771.862893	0.136720
772.057450	0.136619
772.251988	0.136554
772.446509	0.136731
772.641011	0.136035
772.835494	0.136428
773.029960	0.136672
773.224407	0.136908
773.418836	0.136844
773.613247	0.136986
773.807640	0.136863
774.002014	0.136848
774.196370	0.136924
774.390708	0.137178
774.585028	0.136915
774.779330	0.136978
774.973613	0.136950
775.167878	0.136958
775.362125	0.137071
775.556354	0.137140
775.750564	0.136794
775.944756	0.136666
776.138930	0.136877
776.333086	0.136992
776.527223	0.136847
776.721343	0.136432
776.915444	0.136544
777.109526	0.136697
777.303591	0.136564
777.497637	0.136904
777.691666	0.136898
777.885676	0.136279
778.079667	0.136111
778.273641	0.135789
778.467596	0.135661
778.661533	0.135241
778.855452	0.134712
779.049352	0.134582
779.243235	0.134553
779.437099	0.134500
779.630945	0.134819
779.824773	0.135216
780.018582	0.134964
780.212373	0.135021
780.406146	0.135656
780.599901	0.135791
780.793638	0.135882
780.987356	0.135811
781.181056	0.135781
781.374738	0.135876
781.568402	0.135443
781.762047	0.135919
781.955674	0.135868
782.149283	0.135502
782.342874	0.135421
782.536447	0.135547
782.730001	0.135751
782.923537	0.135989
783.117055	0.135944
783.310555	0.135969
783.504036	0.135789
783.697499	0.135817
783.890944	0.135579
784.084371	0.135836
784.277780	0.135649
784.471170	0.135759
784.664542	0.135550
784.857896	0.135731
785.051231	0.135696
785.244549	0.135947
785.437848	0.136320
785.631129	0.136773
785.824392	0.136750
786.017636	0.136925
786.210863	0.136774
786.404071	0.136802
786.597260	0.136290
786.790432	0.136366
786.983585	0.136258
787.176721	0.136223
787.369838	0.136090
787.562936	0.135843
787.756017	0.135761
787.949079	0.135923
788.142123	0.136249
788.335149	0.136860
788.528156	0.137008
788.721146	0.136964
788.914117	0.136613
789.107070	0.136783
789.300005	0.137237
789.492921	0.137690
789.685819	0.137737
789.878699	0.137268
790.071561	0.137166
790.264405	0.136984
790.457230	0.137008
790.650037	0.137126
790.842826	0.137127
791.035597	0.136754
791.228349	0.136425
791.421084	0.136249
791.613800	0.136582
791.806497	0.136697
791.999177	0.136889
792.191838	0.136929
792.384481	0.136994
792.577106	0.136849
792.769713	0.136967
792.962301	0.137070
793.154871	0.136660
793.347423	0.136367
793.539957	0.135928
793.732473	0.135607
793.924970	0.135670
794.117449	0.135549
794.309910	0.135600
794.502353	0.135710
794.694777	0.135832
794.887183	0.136125
795.079571	0.136327
795.271941	0.136014
795.464293	0.136306
795.656626	0.135884
795.848941	0.136124
796.041238	0.136358
796.233516	0.136172
796.425777	0.136379
796.618019	0.136378
796.810243	0.136054
797.002449	0.136717
797.194636	0.136600
797.386805	0.137364
797.578956	0.137514
797.771089	0.137621
797.963204	0.137639
798.155300	0.137356
798.347378	0.137877
798.539438	0.138507
798.731480	0.138312
798.923503	0.138397
799.115509	0.137943
799.307496	0.137782
799.499465	0.137608
799.691415	0.138134
799.883348	0.138463
800.075262	0.138087
800.267158	0.137955
800.459035	0.138394
800.650895	0.138819
800.842736	0.139230
801.034559	0.139598
801.226364	0.139993
801.418150	0.139853
801.609919	0.139767
801.801669	0.139726
801.993401	0.139994
802.185114	0.139753
802.376810	0.139603
802.568487	0.139601
802.760146	0.139444
802.951787	0.139140
803.143409	0.139270
803.335014	0.139086
803.526600	0.139097
803.718168	0.138728
803.909717	0.138988
804.101249	0.138791
804.292762	0.138671
804.484257	0.138875
804.675734	0.139027
804.867192	0.139254
805.058632	0.139157
805.250054	0.139610
805.441458	0.139755
805.632844	0.139910
805.824211	0.140571
806.015561	0.140683
806.206891	0.140992
806.398204	0.141289
806.589499	0.141016
806.780775	0.141418
806.972033	0.141512
807.163273	0.141737
807.354495	0.141731
807.545698	0.141490
807.736883	0.141846
807.928050	0.141749
808.119199	0.141867
808.310329	0.142270
808.501441	0.142369
808.692535	0.142298
808.883611	0.142448
809.074669	0.142404
809.265708	0.142203
809.456729	0.142084
809.647732	0.142202
809.838717	0.142123
810.029683	0.141754
810.220632	0.141833
810.411562	0.141561
810.602474	0.141580
810.793367	0.141756
810.984242	0.141904
811.175100	0.141871
811.365938	0.141954
811.556759	0.141938
811.747562	0.142300
811.938346	0.142527
812.129112	0.143225
812.319860	0.143006
812.510589	0.142752
812.701300	0.142765
812.891994	0.142893
813.082668	0.142411
813.273325	0.142559
813.463964	0.142618
813.654584	0.142700
813.845186	0.142710
814.035769	0.142971
814.226335	0.143654
814.416882	0.143978
814.607411	0.144503
814.797922	0.145125
814.988415	0.145339
815.178889	0.145499
815.369345	0.145668
815.559783	0.145472
815.750203	0.146082
815.940605	0.145785
816.130988	0.145875
816.321353	0.145769
816.511700	0.145878
816.702028	0.146004
816.892339	0.146127
817.082631	0.146070
817.272905	0.146115
817.463161	0.146341
817.653398	0.146570
817.843617	0.146920
818.033819	0.146849
818.224001	0.146751
818.414166	0.146619
818.604312	0.146296
818.794440	0.146171
818.984550	0.146420
819.174642	0.146153
819.364716	0.146709
819.554771	0.146834
819.744808	0.146966
819.934827	0.147052
820.124827	0.147570
820.314810	0.147770
820.504774	0.148201
820.694720	0.148572
820.884647	0.148436
821.074557	0.147938
821.264448	0.147899
821.454321	0.148042
821.644176	0.148030
821.834012	0.147908
822.023831	0.148443
822.213631	0.148385
822.403413	0.148675
822.593176	0.148895
822.782922	0.149511
822.972649	0.149613
823.162358	0.150176
823.352049	0.150173
823.541721	0.150201
823.731376	0.150069
823.921012	0.150266
824.110629	0.150405
824.300229	0.150347
824.489811	0.150023
824.679374	0.150105
824.868919	0.149558
825.058445	0.150062
825.247954	0.150134
825.437444	0.150771
825.626916	0.151026
825.816370	0.150757
826.005806	0.151380
826.195223	0.151836
826.384622	0.151871
826.574003	0.152228
826.763366	0.151932
826.952711	0.152070
827.142037	0.151791
827.331345	0.151709
827.520635	0.151812
827.709906	0.151672
827.899160	0.151395
828.088395	0.151155
828.277612	0.150973
828.466810	0.151484
828.655991	0.151390
828.845153	0.151249
829.034297	0.151699
829.223423	0.151706
829.412531	0.151784
829.601620	0.151707
829.790691	0.151903
829.979744	0.152662
830.168779	0.152702
830.357795	0.153570
830.546793	0.153992
830.735773	0.153891
830.924735	0.154209
831.113679	0.154226
831.302604	0.154632
831.491511	0.154765
831.680400	0.154703
831.869271	0.155187
832.058123	0.154680
832.246957	0.154963
832.435773	0.154861
832.624571	0.154722
832.813351	0.155202
833.002112	0.155463
833.190855	0.156051
833.379580	0.156181
833.568287	0.156276
833.756975	0.156789
833.945645	0.156701
834.134297	0.156880
834.322931	0.157305
834.511547	0.157285
834.700144	0.157228
834.888723	0.157352
835.077284	0.157280
835.265826	0.156867
835.454351	0.157079
835.642857	0.157322
835.831345	0.157729
836.019815	0.157783
836.208266	0.158237
836.396699	0.158250
836.585114	0.158320
836.773511	0.158580
836.961890	0.158929
837.150250	0.158519
837.338592	0.158764
837.526916	0.158678
837.715222	0.158735
837.903510	0.158686
838.091779	0.159174
838.280030	0.159726
838.468263	0.159831
838.656477	0.160136
838.844674	0.160463
839.032852	0.160033
839.221012	0.160627
839.409153	0.160603
839.597277	0.160412
839.785382	0.160594
839.973469	0.160485
840.161538	0.160629
840.349589	0.161007
840.537621	0.161096
840.725635	0.161856
840.913631	0.161925
841.101609	0.162581
841.289568	0.162963
841.477509	0.162716
841.665432	0.162863
841.853337	0.162993
842.041224	0.163153
842.229092	0.163698
842.416942	0.163389
842.604774	0.163786
842.792588	0.164191
842.980383	0.164404
843.168160	0.164854
843.355919	0.164698
843.543660	0.164950
843.731382	0.164948
843.919087	0.165089
844.106773	0.165422
844.294441	0.164858
844.482090	0.164795
844.669722	0.165047
844.857335	0.165359
845.044930	0.166225
845.232507	0.167079
845.420065	0.167015
845.607605	0.167422
845.795127	0.167975
845.982631	0.168665
846.170117	0.168771
846.357584	0.168942
846.545033	0.169125
846.732464	0.168515
846.919877	0.168040
847.107272	0.168599
847.294648	0.168343
847.482006	0.168712
847.669346	0.168879
847.856667	0.169252
848.043971	0.169445
848.231256	0.169798
848.418523	0.170275
848.605771	0.170146
848.793002	0.169795
848.980214	0.170244
849.167408	0.170155
849.354584	0.170048
849.541742	0.170126
849.728881	0.170256
849.916002	0.169773
850.103105	0.170135
850.290190	0.170257
850.477256	0.170805
850.664304	0.170661
850.851334	0.170764
851.038346	0.171189
851.225340	0.171398
851.412315	0.171594
851.599272	0.172092
851.786211	0.172080
851.973132	0.172370
852.160034	0.172598
852.346918	0.172865
852.533784	0.172687
852.720632	0.172481
852.907462	0.172600
853.094273	0.172913
853.281066	0.173184
853.467841	0.173231
853.654598	0.173132
853.841336	0.172968
854.028056	0.173076
854.214758	0.173810
854.401442	0.173826
854.588107	0.173937
854.774755	0.173169
854.961384	0.173366
855.147995	0.173498
855.334587	0.174189
855.521162	0.174396
855.707718	0.175179
855.894256	0.175088
856.080775	0.175595
856.267277	0.175820
856.453760	0.176910
856.640225	0.176843
856.826672	0.177405
857.013101	0.177121
857.199511	0.177115
857.385903	0.176528
857.572277	0.176427
857.758633	0.176564
857.944970	0.176654
858.131290	0.176141
858.317591	0.176786
858.503873	0.177195
858.690138	0.177538
858.876384	0.177991
859.062612	0.178180
859.248822	0.178396
859.435014	0.178392
859.621188	0.178393
859.807343	0.178413
859.993480	0.177951
860.179599	0.177373
860.365699	0.177700
860.551781	0.178044
860.737846	0.178545
860.923891	0.178820
861.109919	0.178929
861.295929	0.178599
861.481920	0.178852
861.667893	0.179617
861.853848	0.180037
862.039784	0.180084
862.225702	0.179928
862.411603	0.179507
862.597484	0.179555
862.783348	0.178897
862.969193	0.178984
863.155021	0.179245
863.340830	0.178978
863.526620	0.178805
863.712393	0.178784
863.898147	0.179006
864.083883	0.179676
864.269601	0.179856
864.455301	0.180937
864.640982	0.181535
864.826645	0.181927
865.012290	0.181828
865.197917	0.182026
865.383526	0.182221
865.569116	0.181683
865.754688	0.182266
865.940242	0.182411
866.125777	0.182865
866.311295	0.183118
866.496794	0.183492
866.682275	0.184119
866.867737	0.184122
867.053182	0.184729
867.238608	0.185765
867.424016	0.185259
867.609406	0.185407
867.794778	0.185048
867.980131	0.185100
868.165466	0.184658
868.350783	0.184762
868.536082	0.184886
868.721362	0.184228
868.906625	0.184101
869.091869	0.184297
869.277094	0.184109
869.462302	0.183459
869.647491	0.183766
869.832662	0.184172
870.017815	0.183730
870.202950	0.183741
870.388066	0.184119
870.573165	0.183963
870.758245	0.184095
870.943306	0.184230
871.128350	0.184667
871.313375	0.184260
871.498382	0.184343
871.683371	0.184335
871.868342	0.184505
872.053294	0.184450
872.238229	0.184444
872.423144	0.184225
872.608042	0.184770
872.792922	0.185059
872.977783	0.185405
873.162626	0.185823
873.347451	0.185901
873.532258	0.186383
873.717046	0.186815
873.901816	0.187102
874.086568	0.187188
874.271302	0.186682
874.456017	0.187014
874.640715	0.186975
874.825394	0.186677
875.010055	0.187471
875.194697	0.187114
875.379322	0.186783
875.563928	0.186602
875.748516	0.186510
875.933085	0.186924
876.117637	0.186686
876.302170	0.186137
876.486685	0.185746
876.671182	0.185617
876.855661	0.185885
877.040121	0.186737
877.224563	0.186345
877.408987	0.186430
877.593393	0.186358
877.777780	0.186567
877.962150	0.186796
878.146501	0.186745
878.330833	0.186543
878.515148	0.186297
878.699444	0.185736
878.883722	0.186806
879.067982	0.186450
879.252224	0.187025
879.436447	0.187144
879.620653	0.187964
879.804840	0.188955
879.989008	0.189266
880.173159	0.189713
880.357291	0.189655
880.541405	0.189423
880.725501	0.189780
880.909579	0.188781
881.093638	0.188700
881.277680	0.188277
881.461703	0.187663
881.645707	0.187645
881.829694	0.187461
882.013662	0.187277
882.197612	0.187894
882.381544	0.188190
882.565458	0.188911
882.749353	0.189303
882.933230	0.188823
883.117089	0.188335
883.300930	0.187726
883.484753	0.187662
883.668557	0.188480
883.852343	0.187950
884.036111	0.188141
884.219861	0.188058
884.403592	0.188007
884.587305	0.188621
884.771000	0.189123
884.954677	0.189471
885.138335	0.189791
885.321976	0.188539
885.505598	0.188479
885.689201	0.188107
885.872787	0.188163
886.056354	0.188064
886.239904	0.188496
886.423434	0.187996
886.606947	0.187769
886.790442	0.187227
886.973918	0.187984
887.157376	0.188024
887.340816	0.188010
887.524237	0.187526
887.707641	0.187218
887.891026	0.186694
888.074393	0.186683
888.257741	0.186746
888.441072	0.186420
888.624384	0.186727
888.807678	0.186872
888.990954	0.186500
889.174211	0.187059
889.357451	0.187122
889.540672	0.186639
889.723875	0.187098
889.907059	0.187636
890.090226	0.188560
890.273374	0.187980
890.456504	0.187655
890.639616	0.188337
890.822709	0.187725
891.005785	0.187719
891.188842	0.187791
891.371881	0.187796
891.554901	0.187291
891.737904	0.187013
891.920888	0.187346
892.103854	0.187119
892.286802	0.186211
892.469731	0.186526
892.652643	0.186554
892.835536	0.186878
893.018410	0.186653
893.201267	0.186116
893.384106	0.185710
893.566926	0.185280
893.749728	0.185924
893.932511	0.185797
894.115277	0.186149
894.298024	0.186119
894.480753	0.185258
894.663464	0.185234
894.846157	0.185747
895.028831	0.185605
895.211487	0.185802
895.394125	0.185644
895.576745	0.186180
895.759346	0.184765
895.941930	0.184633
896.124495	0.185458
896.307041	0.185617
896.489570	0.185375
896.672080	0.184905
896.854573	0.185033
897.037046	0.184294
897.219502	0.183730
897.401940	0.183649
897.584359	0.183436
897.766760	0.182805
897.949143	0.181795
898.131507	0.181873
898.313854	0.181834
898.496182	0.181096
898.678492	0.180706
898.860783	0.181425
899.043057	0.181299
899.225312	0.180955
899.407549	0.181476
899.589768	0.181935
899.771968	0.181892
899.954151	0.182537
900.136315	0.182785
900.318461	0.182544
900.500588	0.181786
900.682698	0.182812
900.864789	0.183333
901.046862	0.183199
901.228917	0.183002
901.410953	0.182587
901.592971	0.182017
901.774972	0.181109
901.956953	0.181467
902.138917	0.180772
902.320862	0.179764
902.502790	0.179884
902.684699	0.179368
902.866589	0.179419
903.048462	0.179376
903.230316	0.179728
903.412152	0.180473
903.593970	0.180474
903.775770	0.180752
903.957551	0.181257
904.139314	0.180741
904.321059	0.180995
904.502786	0.180595
904.684494	0.180657
904.866185	0.180214
905.047857	0.180327
905.229510	0.180984
905.411146	0.180862
905.592763	0.180743
905.774363	0.180280
905.955943	0.179822
906.137506	0.180788
906.319051	0.179894
906.500577	0.179620
906.682085	0.179239
906.863575	0.178327
907.045046	0.178372
907.226500	0.178056
907.407935	0.178018
907.589352	0.177525
907.770750	0.175772
907.952131	0.175937
908.133493	0.175842
908.314837	0.176187
908.496163	0.175757
908.677470	0.175240
908.858760	0.175023
909.040031	0.174652
909.221284	0.174280
909.402518	0.175666
909.583735	0.175828
909.764933	0.175266
909.946113	0.174542
910.127275	0.174000
910.308418	0.173704
910.489544	0.173821
910.670651	0.173572
910.851740	0.172765
911.032810	0.171437
911.213863	0.170663
911.394897	0.170646
911.575913	0.169171
911.756911	0.169049
911.937890	0.169289
912.118851	0.168501
912.299794	0.167778
912.480719	0.168953
912.661626	0.169117
912.842514	0.168918
913.023384	0.169181
913.204236	0.169812
913.385070	0.169285
913.565886	0.168784
913.746683	0.168392
913.927462	0.168730
914.108223	0.167890
914.288965	0.167911
914.469690	0.167985
914.650396	0.166707
914.831084	0.166316
915.011754	0.166219
915.192405	0.166873
915.373038	0.166967
915.553653	0.166113
915.734250	0.166395
915.914829	0.165055
916.095389	0.165417
916.275931	0.164995
916.456455	0.164202
916.636961	0.163746
916.817448	0.163161
916.997917	0.162656
917.178368	0.163500
917.358801	0.161927
917.539216	0.161878
917.719612	0.159701
917.899990	0.159699
918.080350	0.160487
918.260692	0.160178
918.441015	0.159418
918.621320	0.158486
918.801607	0.158006
918.981876	0.159609
919.162127	0.159972
919.342359	0.160567
919.522573	0.160450
919.702769	0.160479
919.882947	0.160734
920.063106	0.160558
920.243247	0.160203
920.423370	0.158852
920.603475	0.158003
920.783562	0.158108
920.963630	0.158532
921.143680	0.157767
921.323712	0.156997
921.503725	0.157137
921.683721	0.156361
921.863698	0.156010
922.043657	0.156089
922.223598	0.155101
922.403520	0.154309
922.583424	0.153448
922.763311	0.153340
922.943178	0.152740
923.123028	0.151506
923.302859	0.151690
923.482673	0.152072
923.662467	0.151519
923.842244	0.151469
924.022003	0.151232
924.201743	0.150679
924.381465	0.150376
924.561169	0.149185
924.740854	0.148892
924.920522	0.148417
925.100171	0.147821
925.279802	0.147308
925.459414	0.146143
925.639009	0.146229
925.818585	0.145429
925.998143	0.144756
926.177683	0.144839
926.357205	0.145078
926.536708	0.145007
926.716193	0.145083
926.895660	0.144584
927.075109	0.145093
927.254539	0.143287
927.433951	0.143622
927.613345	0.145348
927.792721	0.145531
927.972079	0.144698
928.151418	0.143496
928.330739	0.144129
928.510042	0.144533
928.689327	0.143332
928.868593	0.142801
929.047841	0.142529
929.227071	0.139669
929.406283	0.138899
929.585476	0.137473
929.764652	0.136117
929.943809	0.133984
930.122948	0.132078
930.302068	0.132608
930.481171	0.132707
930.660255	0.132698
930.839321	0.133045
931.018369	0.131915
931.197398	0.131838
931.376409	0.133014
931.555402	0.132202
931.734377	0.133497
931.913334	0.132459
932.092272	0.132261
932.271192	0.130587
932.450094	0.129978
932.628978	0.129830
932.807844	0.131100
932.986691	0.130141
933.165520	0.130024
933.344331	0.130209
933.523123	0.130649
933.701898	0.129271
933.880654	0.128340
934.059392	0.127414
934.238111	0.126210
934.416813	0.125278
934.595496	0.124311
934.774161	0.123876
934.952808	0.121886
935.131437	0.121639
935.310047	0.120754
935.488639	0.121425
935.667213	0.123242
935.845769	0.122935
936.024306	0.121079
936.202825	0.120334
936.381326	0.118564
936.559809	0.117775
936.738274	0.115538
936.916720	0.115834
937.095148	0.114470
937.273558	0.111561
937.451950	0.112893
937.630323	0.111892
937.808678	0.113003
937.987015	0.113532
938.165334	0.112405
938.343635	0.112593
938.521917	0.112475
938.700181	0.112878
938.878427	0.112390
939.056655	0.110416
939.234864	0.110521
939.413055	0.110066
939.591228	0.109534
939.769383	0.111430
939.947519	0.110385
940.125638	0.108448
940.303738	0.106575
940.481820	0.105674
940.659883	0.106138
940.837929	0.107086
941.015956	0.105379
941.193965	0.106276
941.371955	0.104501
941.549928	0.103598
941.727882	0.105086
941.905818	0.106064
942.083736	0.107214
942.261636	0.106386
942.439517	0.104782
942.617380	0.104551
942.795225	0.102567
942.973052	0.102944
943.150860	0.102613
943.328651	0.101374
943.506423	0.098070
943.684176	0.096023
943.861912	0.096085
944.039629	0.095381
944.217328	0.094444
944.395009	0.094783
944.572672	0.090333
944.750317	0.089923
944.927943	0.089585
945.105551	0.092786
945.283141	0.093858
945.460712	0.091230
945.638265	0.091006
945.815801	0.088831
945.993317	0.089137
946.170816	0.091408
946.348297	0.091306
946.525759	0.091720
946.703203	0.088315
946.880629	0.088937
947.058036	0.089691
947.235425	0.088518
947.412797	0.089166
947.590149	0.086404
947.767484	0.086292
947.944800	0.085085
948.122099	0.081337
948.299379	0.081862
948.476640	0.080523
948.653884	0.079699
948.831109	0.080770
949.008316	0.083197
949.185505	0.085278
949.362676	0.084758
949.539828	0.086372
949.716962	0.088192
949.894078	0.085998
950.071176	0.083218
950.248256	0.084343
950.425317	0.085218
950.602360	0.083104
950.779385	0.079626
950.956391	0.078985
951.133380	0.076770
951.310350	0.073560
951.487302	0.077521
951.664235	0.077798
951.841151	0.078243
952.018048	0.079593
952.194927	0.079983
952.371788	0.081628
952.548631	0.082938
952.725455	0.082249
952.902261	0.083592
953.079049	0.082163
953.255819	0.084739
953.432570	0.081247
953.609303	0.076919
953.786018	0.074967
953.962715	0.073246
954.139394	0.072563
954.316054	0.073806
954.492696	0.075150
954.669320	0.069160
954.845926	0.066156
955.022513	0.066237
955.199083	0.066381
955.375634	0.065730
955.552166	0.067420
955.728681	0.068531
955.905177	0.065150
956.081655	0.068126
956.258115	0.070030
956.434557	0.068381
956.610980	0.068913
956.787385	0.069295
956.963772	0.070142
957.140141	0.068590
957.316492	0.067775
957.492824	0.074723
957.669138	0.073237
957.845434	0.071290
958.021712	0.074419
958.197971	0.073696
958.374212	0.072494
958.550435	0.074413
958.726640	0.079916
958.902826	0.076994
959.078995	0.073902
959.255145	0.071224
959.431277	0.071335
959.607390	0.074713
959.783486	0.074480
959.959563	0.074618
960.135622	0.071116
960.311662	0.065855
960.487685	0.062244
960.663689	0.061031
960.839675	0.059084
961.015643	0.065715
961.191593	0.062734
961.367524	0.061664
961.543437	0.059738
961.719332	0.063736
961.895209	0.066248
962.071067	0.072000
962.246907	0.066198
962.422730	0.069750
962.598533	0.064395
962.774319	0.062949
962.950086	0.068486
963.125835	0.070255
963.301566	0.067117
963.477279	0.062381
963.652973	0.063723
963.828650	0.069763
964.004308	0.065669
964.179947	0.068034
964.355569	0.068763
964.531172	0.063172
964.706757	0.060036
964.882324	0.058618
965.057873	0.062613
965.233403	0.059338
965.408916	0.054181
965.584410	0.055951
965.759885	0.057602
965.935343	0.056016
966.110782	0.058946
966.286203	0.062086
966.461606	0.068575
966.636991	0.064150
966.812357	0.065311
966.987705	0.065887
967.163035	0.064808
967.338347	0.060967
967.513641	0.060054
967.688916	0.060722
967.864173	0.061801
968.039412	0.056091
968.214632	0.058747
968.389835	0.057858
968.565019	0.059058
968.740185	0.058186
968.915333	0.057706
969.090462	0.055265
969.265573	0.051728
969.440667	0.052316
969.615741	0.052432
969.790798	0.049700
969.965836	0.047563
970.140856	0.049085
970.315858	0.051838
970.490842	0.058313
970.665808	0.060713
970.840755	0.066692
971.015684	0.060913
971.190595	0.061594
971.365487	0.062649
971.540362	0.063627
971.715218	0.067923
971.890056	0.063510
972.064875	0.056876
972.239677	0.058611
972.414460	0.054618
972.589225	0.054329
972.763972	0.052598
972.938700	0.056211
973.113411	0.059637
973.288103	0.053430
973.462777	0.060415
973.637432	0.061758
973.812070	0.060605
973.986689	0.065022
974.161290	0.063230
974.335873	0.063507
974.510437	0.062439
974.684984	0.059102
974.859512	0.062037
975.034022	0.061611
975.208513	0.069309
975.382987	0.069616
975.557442	0.065738
975.731879	0.068644
975.906298	0.068765
976.080698	0.069151
976.255080	0.067338
976.429445	0.064044
976.603790	0.061246
976.778118	0.057758
976.952427	0.055409
977.126719	0.054195
977.300992	0.054161
977.475246	0.050835
977.649483	0.055489
977.823701	0.059125
977.997901	0.062712
978.172083	0.066140
978.346247	0.064346
978.520392	0.068444
978.694519	0.069244
978.868628	0.072046
979.042719	0.074160
979.216791	0.069275
979.390845	0.069313
979.564882	0.065582
979.738899	0.059869
979.912899	0.057857
980.086880	0.054642
980.260843	0.054398
980.434788	0.055870
980.608715	0.057991
980.782623	0.055512
980.956514	0.054552
981.130386	0.053817
981.304240	0.054567
981.478075	0.056545
981.651892	0.058270
981.825692	0.055745
981.999472	0.049687
982.173235	0.050583
982.346980	0.049889
982.520706	0.050190
982.694414	0.051526
982.868104	0.051753
983.041775	0.052745
983.215428	0.054751
983.389064	0.054748
983.562680	0.058917
983.736279	0.057608
983.909860	0.055611
984.083422	0.061078
984.256966	0.066894
984.430491	0.069208
984.603999	0.061812
984.777488	0.058038
984.950959	0.062425
985.124412	0.060870
985.297847	0.059787
985.471263	0.062184
985.644661	0.059200
985.818041	0.053477
985.991403	0.050585
986.164747	0.050761
986.338072	0.050668
986.511379	0.046886
986.684668	0.046638
986.857938	0.051986
987.031191	0.054522
987.204425	0.054519
987.377641	0.059966
987.550839	0.059641
987.724018	0.062971
987.897179	0.063161
988.070322	0.066462
988.243447	0.065562
988.416554	0.061773
988.589642	0.064523
988.762712	0.063845
988.935764	0.060314
989.108798	0.058789
989.281813	0.062393
989.454811	0.064065
989.627790	0.059008
989.800751	0.062133
989.973693	0.060294
990.146617	0.059502
990.319524	0.058332
990.492412	0.062336
990.665281	0.068435
990.838133	0.067999
991.010966	0.069536
991.183781	0.070902
991.356578	0.071236
991.529356	0.074578
991.702117	0.075707
991.874859	0.074781
992.047583	0.071662
992.220288	0.068546
992.392976	0.064265
992.565645	0.061231
992.738296	0.064326
992.910929	0.063332
993.083543	0.057348
993.256139	0.052257
993.428718	0.054822
993.601277	0.053097
993.773819	0.052311
993.946342	0.053048
994.118848	0.055418
994.291335	0.051481
994.463803	0.050178
994.636254	0.059038
994.808686	0.062618
994.981100	0.056064
995.153496	0.060278
995.325874	0.061635
995.498233	0.061928
995.670574	0.061207
995.842897	0.063629
996.015202	0.065549
996.187488	0.058124
996.359757	0.056342
996.532007	0.059289
996.704239	0.057607
996.876452	0.060199
997.048648	0.060744
997.220825	0.064300
997.392984	0.065622
997.565124	0.066456
997.737247	0.068605
997.909351	0.065640
998.081437	0.065164
998.253505	0.063953
998.425554	0.059551
998.597586	0.058713
998.769599	0.054272
998.941594	0.053913
999.113571	0.052919
999.285529	0.057473
999.457469	0.059692
999.629391	0.058595
999.801295	0.055557
999.973181	0.058230
1000.145048	0.061353
1000.316897	0.063342
1000.488728	0.060883
1000.660541	0.060913
1000.832335	0.058084
1001.004111	0.055444
1001.175869	0.060671
1001.347609	0.064710
1001.519331	0.061987
1001.691034	0.060058
1001.862719	0.060144
1002.034386	0.061847
1002.206035	0.062589
1002.377665	0.061867
1002.549277	0.065083
1002.720871	0.062029
1002.892447	0.058826
1003.064004	0.061451
1003.235544	0.059666
1003.407065	0.057648
1003.578568	0.056675
1003.750052	0.055408
1003.921519	0.053551
1004.092967	0.055107
1004.264397	0.058870
1004.435809	0.060545
1004.607202	0.062217
1004.778577	0.064549
1004.949934	0.060919
1005.121273	0.062263
1005.292594	0.064642
1005.463896	0.063464
1005.635180	0.061013
1005.806446	0.057356
1005.977694	0.057602
1006.148923	0.056605
1006.320135	0.052157
1006.491328	0.055084
1006.662503	0.054299
1006.833659	0.052221
1007.004798	0.057399
1007.175918	0.057227
1007.347020	0.056690
1007.518103	0.054754
1007.689169	0.054106
1007.860216	0.058468
1008.031245	0.055440
1008.202256	0.052218
1008.373248	0.051660
1008.544223	0.050505
1008.715179	0.051822
1008.886117	0.051342
1009.057036	0.054698
1009.227938	0.059953
1009.398821	0.058398
1009.569686	0.060749
1009.740533	0.063530
1009.911361	0.065238
1010.082172	0.061922
1010.252964	0.062409
1010.423738	0.063860
1010.594493	0.063733
1010.765231	0.056183
1010.935950	0.058040
1011.106651	0.057298
1011.277334	0.060076
1011.447998	0.057579
1011.618645	0.059741
1011.789273	0.057609
1011.959882	0.060902
1012.130474	0.057412
1012.301048	0.061323
1012.471603	0.059880
1012.642140	0.060219
1012.812658	0.060663
1012.983159	0.058718
1013.153641	0.059044
1013.324105	0.057447
1013.494551	0.055398
1013.664979	0.054611
1013.835388	0.049494
1014.005779	0.050493
1014.176152	0.054097
1014.346507	0.050432
1014.516843	0.053373
1014.687162	0.053288
1014.857462	0.053577
1015.027744	0.052044
1015.198007	0.056465
1015.368252	0.058850
1015.538480	0.057492
1015.708689	0.056003
1015.878879	0.054830
1016.049052	0.056995
1016.219206	0.058010
1016.389342	0.059254
1016.559460	0.059874
1016.729559	0.057959
1016.899641	0.058707
1017.069704	0.060650
1017.239749	0.060051
1017.409775	0.064225
1017.579784	0.058585
1017.749774	0.055780
1017.919746	0.055916
1018.089700	0.052145
1018.259635	0.052831
1018.429553	0.049698
1018.599452	0.045023
1018.769333	0.046845
1018.939195	0.045797
1019.109040	0.046195
1019.278866	0.046445
1019.448674	0.044480
1019.618464	0.047285
1019.788235	0.045653
1019.957989	0.048502
1020.127724	0.051858
1020.297441	0.047727
1020.467139	0.047002
1020.636820	0.048194
1020.806482	0.046577
1020.976126	0.050787
1021.145752	0.049494
1021.315359	0.052344
1021.484948	0.049728
1021.654519	0.047323
1021.824072	0.048898
1021.993607	0.051268
1022.163123	0.053443
1022.332621	0.053618
1022.502101	0.053221
1022.671563	0.056965
1022.841007	0.052005
1023.010432	0.056709
1023.179839	0.061262
1023.349228	0.061183
1023.518598	0.059581
1023.687951	0.057326
1023.857285	0.060098
1024.026601	0.055675
1024.195899	0.055343
1024.365178	0.059756
1024.534439	0.058464
1024.703682	0.057476
1024.872907	0.059446
1025.042114	0.057750
1025.211302	0.058176
1025.380472	0.055608
1025.549624	0.058476
1025.718758	0.056717
1025.887873	0.055942
1026.056970	0.054321
1026.226049	0.054907
1026.395110	0.056566
1026.564153	0.056210
1026.733177	0.056901
1026.902183	0.057669
1027.071171	0.057752
1027.240141	0.058738
1027.409092	0.058094
1027.578026	0.056083
1027.746940	0.052398
1027.915837	0.051719
1028.084716	0.051616
1028.253576	0.054657
1028.422418	0.057209
1028.591242	0.060024
1028.760048	0.059395
1028.928835	0.062934
1029.097604	0.063751
1029.266355	0.064591
1029.435088	0.064483
1029.603803	0.065376
1029.772499	0.062856
1029.941177	0.060748
1030.109837	0.059717
1030.278478	0.059810
1030.447102	0.054922
1030.615707	0.058225
1030.784294	0.057924
1030.952863	0.054658
1031.121413	0.053137
1031.289945	0.054228
1031.458460	0.057150
1031.626955	0.055950
1031.795433	0.055333
1031.963892	0.056728
1032.132334	0.053250
1032.300756	0.051282
1032.469161	0.052464
1032.637548	0.052706
1032.805916	0.050595
1032.974266	0.047013
1033.142598	0.046686
1033.310911	0.043507
1033.479207	0.043625
1033.647484	0.046509
1033.815743	0.053068
1033.983983	0.051851
1034.152206	0.053123
1034.320410	0.052504
1034.488596	0.053830
1034.656764	0.055806
1034.824914	0.057154
1034.993045	0.058178
1035.161158	0.056652
1035.329253	0.054364
1035.497330	0.058262
1035.665388	0.060344
1035.833428	0.063051
1036.001450	0.065865
1036.169454	0.064206
1036.337440	0.066016
1036.505407	0.062496
1036.673356	0.062155
1036.841287	0.062907
1037.009200	0.062420
1037.177094	0.060309
1037.344970	0.058449
1037.512828	0.056271
1037.680668	0.054271
1037.848489	0.055258
1038.016293	0.057563
1038.184078	0.057218
1038.351845	0.054646
1038.519593	0.053363
1038.687324	0.053738
1038.855036	0.056053
1039.022730	0.058248
1039.190406	0.059627
1039.358063	0.058313
1039.525702	0.061525
1039.693323	0.064507
1039.860926	0.066831
1040.028511	0.067523
1040.196077	0.067475
1040.363625	0.064564
1040.531155	0.063230
1040.698667	0.062769
1040.866161	0.061150
1041.033636	0.055385
1041.201093	0.057501
1041.368532	0.055588
1041.535952	0.053444
1041.703355	0.053180
1041.870739	0.054989
1042.038105	0.052855
1042.205452	0.055193
1042.372782	0.057387
1042.540093	0.055227
1042.707386	0.050940
1042.874661	0.051340
1043.041918	0.048821
1043.209156	0.044095
1043.376376	0.040598
1043.543578	0.040634
1043.710762	0.038368
1043.877927	0.038406
1044.045074	0.045537
1044.212203	0.048242
1044.379314	0.051213
1044.546407	0.057804
1044.713481	0.059792
1044.880537	0.061956
1045.047575	0.066156
1045.214595	0.067045
1045.381596	0.067433
1045.548579	0.067491
1045.715544	0.067603
1045.882491	0.065748
1046.049420	0.063178
1046.216330	0.067563
1046.383222	0.068156
1046.550096	0.064003
1046.716951	0.065830
1046.883789	0.063511
1047.050608	0.060971
1047.217409	0.061881
1047.384192	0.061205
1047.550956	0.059649
1047.717703	0.059326
1047.884431	0.061169
1048.051140	0.061943
1048.217832	0.057159
1048.384505	0.058517
1048.551161	0.058135
1048.717798	0.055921
1048.884416	0.055658
1049.051017	0.060825
1049.217599	0.056211
1049.384163	0.052588
1049.550709	0.051331
1049.717237	0.050322
1049.883746	0.048720
1050.050237	0.045268
1050.216710	0.045741
1050.383165	0.042988
1050.549601	0.036578
1050.716019	0.039238
1050.882420	0.040320
1051.048801	0.042155
1051.215165	0.044032
1051.381510	0.048198
1051.547837	0.052949
1051.714146	0.050205
1051.880437	0.051928
1052.046709	0.059165
1052.212964	0.061158
1052.379200	0.061934
1052.545417	0.062356
1052.711617	0.064604
1052.877798	0.062598
1053.043961	0.058442
1053.210106	0.059611
1053.376233	0.058828
1053.542341	0.053228
1053.708432	0.051090
1053.874504	0.048926
1054.040557	0.042880
1054.206593	0.039614
1054.372610	0.040954
1054.538609	0.042047
1054.704590	0.043957
1054.870553	0.044243
1055.036497	0.044142
1055.202424	0.045040
1055.368331	0.050128
1055.534221	0.055568
1055.700093	0.055936
1055.865946	0.053855
1056.031781	0.056633
1056.197598	0.055079
1056.363397	0.057454
1056.529177	0.056791
1056.694939	0.056857
1056.860683	0.056463
1057.026409	0.054662
1057.192116	0.055614
1057.357806	0.053982
1057.523477	0.050987
1057.689130	0.053500
1057.854764	0.053259
1058.020381	0.058119
1058.185979	0.053379
1058.351559	0.052336
1058.517120	0.052253
1058.682664	0.056782
1058.848189	0.057143
1059.013696	0.058071
1059.179185	0.053963
1059.344656	0.055059
1059.510108	0.048708
1059.675542	0.054701
1059.840958	0.055812
1060.006356	0.055341
1060.171735	0.048380
1060.337096	0.048771
1060.502439	0.049654
1060.667764	0.056098
1060.833071	0.052046
1060.998359	0.055505
1061.163629	0.055838
1061.328881	0.052584
1061.494115	0.056498
1061.659330	0.059650
1061.824527	0.058463
1061.989706	0.060636
1062.154867	0.057309
1062.320010	0.059801
1062.485134	0.060702
1062.650240	0.059821
1062.815328	0.057298
1062.980398	0.052855
1063.145449	0.055306
1063.310482	0.058786
1063.475497	0.053104
1063.640494	0.054586
1063.805473	0.055407
1063.970433	0.053354
1064.135375	0.051565
1064.300299	0.055914
1064.465204	0.056460
1064.630092	0.056277
1064.794961	0.055315
1064.959812	0.058098
1065.124645	0.055707
1065.289459	0.054490
1065.454256	0.057262
1065.619034	0.057383
1065.783793	0.057365
1065.948535	0.062317
1066.113258	0.059224
1066.277964	0.061166
1066.442651	0.063485
1066.607319	0.057780
1066.771970	0.055576
1066.936602	0.055987
1067.101216	0.060463
1067.265812	0.061449
1067.430389	0.056806
1067.594949	0.061570
1067.759490	0.059056
1067.924013	0.058877
1068.088518	0.062522
1068.253004	0.061828
1068.417472	0.057095
1068.581922	0.048171
1068.746354	0.044953
1068.910768	0.044883
1069.075163	0.038981
1069.239540	0.033676
1069.403899	0.030826
1069.568240	0.033747
1069.732562	0.034105
1069.896866	0.034220
1070.061152	0.036133
1070.225420	0.039496
1070.389670	0.038945
1070.553901	0.040441
1070.718114	0.050082
1070.882309	0.055405
1071.046486	0.053930
1071.210644	0.053496
1071.374784	0.056232
1071.538906	0.060851
1071.703010	0.059337
1071.867096	0.059146
1072.031163	0.058143
1072.195212	0.051668
1072.359243	0.048912
1072.523256	0.048470
1072.687250	0.050220
1072.851226	0.046313
1073.015184	0.041697
1073.179124	0.044190
1073.343045	0.046984
1073.506949	0.052165
1073.670834	0.050485
1073.834701	0.047760
1073.998549	0.048070
1074.162380	0.044691
1074.326192	0.047207
1074.489986	0.050570
1074.653761	0.044304
1074.817519	0.046634
1074.981258	0.043717
1075.144979	0.047599
1075.308682	0.047163
1075.472367	0.042784
1075.636033	0.054489
1075.799681	0.055132
1075.963311	0.059466
1076.126923	0.066900
1076.290516	0.065382
1076.454092	0.061980
1076.617649	0.057456
1076.781187	0.060201
1076.944708	0.064187
1077.108210	0.057369
1077.271695	0.055467
1077.435160	0.054310
1077.598608	0.051493
1077.762038	0.056174
1077.925449	0.056962
1078.088842	0.062059
1078.252217	0.058764
1078.415573	0.054912
1078.578912	0.061432
1078.742232	0.062855
1078.905534	0.058979
1079.068817	0.059595
1079.232083	0.055637
1079.395330	0.062626
1079.558559	0.058989
1079.721770	0.062345
1079.884962	0.069357
1080.048136	0.061558
1080.211293	0.058662
1080.374430	0.056778
1080.537550	0.057918
1080.700651	0.058543
1080.863735	0.054430
1081.026800	0.056429
1081.189846	0.054589
1081.352875	0.053064
1081.515885	0.053091
1081.678877	0.048362
1081.841851	0.049748
1082.004807	0.045491
1082.167744	0.036916
1082.330663	0.034333
1082.493564	0.042957
1082.656447	0.044243
1082.819312	0.042180
1082.982158	0.040807
1083.144986	0.048173
1083.307796	0.053098
1083.470587	0.055806
1083.633361	0.060446
1083.796116	0.061675
1083.958853	0.053610
1084.121571	0.053582
1084.284272	0.053751
1084.446954	0.058572
1084.609618	0.059063
1084.772264	0.054752
1084.934892	0.054572
1085.097501	0.054158
1085.260092	0.055518
1085.422665	0.052102
1085.585220	0.048141
1085.747756	0.045692
1085.910274	0.042197
1086.072774	0.040144
1086.235256	0.043267
1086.397720	0.037547
1086.560165	0.041410
1086.722592	0.045626
1086.885001	0.045637
1087.047392	0.047461
1087.209764	0.052504
1087.372119	0.050423
1087.534455	0.055544
1087.696772	0.053905
1087.859072	0.049667
1088.021353	0.046359
1088.183616	0.037656
1088.345861	0.044995
1088.508088	0.049082
1088.670296	0.050671
1088.832486	0.053159
1088.994658	0.053988
1089.156812	0.058248
1089.318948	0.062373
1089.481065	0.064498
1089.643164	0.072107
1089.805245	0.072218
1089.967308	0.063806
1090.129352	0.054943
1090.291378	0.049371
1090.453386	0.041044
1090.615376	0.037041
1090.777347	0.041471
1090.939301	0.041988
1091.101236	0.041735
1091.263153	0.037871
1091.425051	0.043033
1091.586932	0.043365
1091.748794	0.047054
1091.910638	0.051924
1092.072463	0.053429
1092.234271	0.054316
1092.396060	0.048306
1092.557831	0.044522
1092.719584	0.046552
1092.881319	0.046445
1093.043035	0.057627
1093.204733	0.058761
1093.366413	0.063441
1093.528075	0.057037
1093.689718	0.056637
1093.851343	0.058877
1094.012950	0.054862
1094.174539	0.058600
1094.336110	0.063345
1094.497662	0.058302
1094.659196	0.061717
1094.820712	0.055970
1094.982210	0.064324
1095.143689	0.060579
1095.305151	0.055779
1095.466594	0.049532
1095.628018	0.047162
1095.789425	0.046928
1095.950813	0.047859
1096.112183	0.044316
1096.273535	0.051066
1096.434869	0.047206
1096.596184	0.053506
1096.757482	0.055316
1096.918761	0.066008
1097.080021	0.060157
1097.241264	0.064455
1097.402488	0.060471
1097.563694	0.064795
1097.724882	0.062540
1097.886052	0.057674
1098.047203	0.042616
1098.208336	0.049630
1098.369451	0.056080
1098.530548	0.056337
1098.691627	0.045149
1098.852687	0.050870
1099.013729	0.049089
1099.174753	0.048088
1099.335758	0.053941
1099.496746	0.060498
1099.657715	0.055313
1099.818666	0.059130
1099.979599	0.064880
1100.140513	0.074573
1100.301409	0.067623
1100.462287	0.064675
1100.623147	0.065501
1100.783989	0.065790
1100.944812	0.069781
1101.105617	0.084342
1101.266404	0.068235
1101.427173	0.060231
1101.587923	0.049541
1101.748656	0.046613
1101.909370	0.050616
1102.070066	0.046917
1102.230743	0.037717
1102.391403	0.039760
1102.552044	0.037862
1102.712667	0.052981
1102.873271	0.056119
1103.033858	0.061471
1103.194426	0.072691
1103.354976	0.063762
1103.515508	0.063550
1103.676021	0.061825
1103.836517	0.058441
1103.996994	0.044111
1104.157453	0.035193
1104.317893	0.036438
1104.478316	0.031817
1104.638720	0.024333
1104.799106	0.036104
1104.959474	0.032637
1105.119823	0.058260
1105.280155	0.059822
1105.440468	0.069747
1105.600763	0.062969
1105.761039	0.055331
1105.921298	0.059939
1106.081538	0.061394
1106.241760	0.057488
1106.401964	0.058916
1106.562149	0.049500
1106.722316	0.052611
1106.882465	0.049924
1107.042596	0.064794
1107.202709	0.069437
1107.362803	0.070320
1107.522879	0.064505
1107.682937	0.067401
1107.842977	0.076174
1108.002999	0.054732
1108.163002	0.050118
1108.322987	0.046733
1108.482954	0.040248
1108.642902	0.039160
1108.802833	0.021209
1108.962745	0.024566
1109.122639	0.025605
1109.282515	0.018758
1109.442372	0.030890
1109.602211	0.037813
1109.762032	0.052035
1109.921835	0.045103
1110.081620	0.056467
1110.241386	0.090995
1110.401134	0.103718
1110.560864	0.111956
1110.720576	0.121816
1110.880269	0.124829
1111.039945	0.120753
1111.199602	0.108581
1111.359240	0.111392
1111.518861	0.100963
1111.678463	0.078649
1111.838047	0.072885
1111.997613	0.069196
1112.157161	0.051467
1112.316690	0.065661
1112.476202	0.062192
1112.635695	0.054162
1112.795169	0.063513
1112.954626	0.080628
1113.114064	0.089712
1113.273484	0.103451
1113.432886	0.095285
1113.592270	0.112020
1113.751635	0.095096
1113.910983	0.094549
1114.070312	0.108580
1114.229622	0.092669
1114.388915	0.075711
1114.548189	0.085607
1114.707445	0.062340
1114.866683	0.055563
1115.025903	0.049630
1115.185104	0.036633
1115.344287	0.043671
1115.503452	0.037558
1115.662599	0.038797
1115.821727	0.033167
1115.980838	0.003935
1116.139930	0.010902
1116.299004	0.025004
1116.458059	0.032866
1116.617097	0.043112
1116.776116	0.046082
1116.935117	0.042189
1117.094099	0.057678
1117.253064	0.055394
1117.412010	0.081657
1117.570938	0.087963
1117.729848	0.062291
1117.888740	0.051457
1118.047613	0.047623
1118.206468	0.047220
1118.365305	0.051223
1118.524124	0.034891
1118.682924	0.045455
1118.841707	0.037425
1119.000471	0.031595
1119.159216	0.042925
1119.317944	0.045826
1119.476653	0.052160
1119.635344	0.039825
1119.794017	0.041260
1119.952672	0.052388
1120.111308	0.059683
1120.269927	0.064605
1120.428527	0.056402
1120.587108	0.050477
1120.745672	0.042758
1120.904217	0.044215
1121.062744	0.030857
1121.221253	0.031612
1121.379744	0.026665
1121.538216	0.016486
1121.696671	0.002910
1121.855107	0.012746
1122.013524	0.021179
1122.171924	0.033774
1122.330305	0.028497
1122.488668	0.040413
1122.647013	0.048004
1122.805340	0.057814
1122.963648	0.066142
1123.121938	0.073858
1123.280210	0.076911
1123.438464	0.071080
1123.596700	0.049030
1123.754917	0.072728
1123.913116	0.071255
1124.071297	0.065386
1124.229459	0.064095
1124.387604	0.072277
1124.545730	0.093115
1124.703838	0.079038
1124.861928	0.094712
1125.019999	0.097894
1125.178052	0.066968
1125.336088	0.075429
1125.494104	0.065150
1125.652103	0.070192
1125.810083	0.051898
1125.968045	0.024241
1126.125989	0.034545
1126.283915	0.011344
1126.441823	0.019456
1126.599712	0.028078
1126.757583	0.031060
1126.915436	0.035875
1127.073270	0.016512
1127.231087	0.027110
1127.388885	0.058766
1127.546665	0.064523
1127.704426	0.073811
1127.862170	0.092764
1128.019895	0.085069
1128.177602	0.079079
1128.335291	0.080473
1128.492961	0.087104
1128.650614	0.079818
1128.808248	0.076476
1128.965864	0.061566
1129.123461	0.053721
1129.281041	0.039824
1129.438602	0.048448
1129.596145	0.049404
1129.753670	0.042831
1129.911176	0.048118
1130.068665	0.052753
1130.226135	0.026819
1130.383587	0.042772
1130.541020	0.059444
1130.698436	0.048974
1130.855833	0.043352
1131.013212	0.037968
1131.170573	0.051121
1131.327915	0.057530
1131.485239	0.054649
1131.642545	0.056678
1131.799833	0.048290
1131.957103	0.035821
1132.114354	0.053421
1132.271588	0.064208
1132.428803	0.057238
1132.585999	0.042012
1132.743178	0.030741
1132.900338	0.015969
1133.057480	0.026429
1133.214604	0.028867
1133.371710	0.041344
1133.528797	0.028107
1133.685866	0.021285
1133.842917	0.046893
1133.999950	0.055962
1134.156964	0.065242
1134.313960	0.079812
1134.470938	0.068693
1134.627898	0.064936
1134.784840	0.060091
1134.941763	0.063021
1135.098668	0.066664
1135.255555	0.058522
1135.412424	0.066264
1135.569274	0.084821
1135.726107	0.077690
1135.882921	0.093901
1136.039716	0.091375
1136.196494	0.073232
1136.353253	0.080762
1136.509995	0.078818
1136.666717	0.084128
1136.823422	0.067375
1136.980109	0.039261
1137.136777	0.053154
1137.293427	0.045106
1137.450059	0.054076
1137.606672	0.064865
1137.763267	0.068278
1137.919844	0.085090
1138.076403	0.079319
1138.232944	0.082677
1138.389466	0.099669
1138.545971	0.084517
1138.702457	0.098503
1138.858924	0.065932
1139.015374	0.080322
1139.171805	0.063893
1139.328218	0.052438
1139.484613	0.060860
1139.640990	0.071381
1139.797348	0.073368
1139.953688	0.098381
1140.110010	0.063412
1140.266314	0.098698
1140.422600	0.090712
1140.578867	0.083838
1140.735116	0.082128
1140.891347	0.074066
1141.047559	0.075011
1141.203754	0.047005
1141.359930	0.028785
1141.516088	0.048398
1141.672228	0.029067
1141.828349	0.031058
1141.984452	0.043699
1142.140537	0.050884
1142.296604	0.049314
1142.452653	0.046629
1142.608683	0.067612
1142.764695	0.073840
1142.920689	0.064398
1143.076665	0.086371
1143.232622	0.107114
1143.388562	0.107522
1143.544483	0.107246
1143.700385	0.115621
1143.856270	0.100779
1144.012136	0.095488
1144.167985	0.101689
1144.323814	0.123267
1144.479626	0.123100
1144.635420	0.119608
1144.791195	0.128997
1144.946952	0.121058
1145.102691	0.083091
1145.258411	0.087994
1145.414113	0.097767
1145.569798	0.076832
1145.725463	0.052147
1145.881111	0.039576
1146.036741	0.023554
1146.192352	0.013432
1146.347945	0.011589
1146.503519	0.043835
1146.659076	0.065371
1146.814614	0.070532
1146.970134	0.058033
1147.125636	0.094095
1147.281120	0.067401
1147.436585	0.064359
1147.592032	0.056587
1147.747461	0.068806
1147.902872	0.052358
1148.058265	0.044406
1148.213639	0.021392
1148.368995	0.065709
1148.524333	0.041039
1148.679653	0.053766
1148.834954	0.044635
1148.990237	0.044823
1149.145502	0.036852
1149.300749	0.038964
1149.455977	0.041668
1149.611188	0.030925
1149.766380	-0.014372
1149.921553	0.000551
1150.076709	0.023786
1150.231846	0.010013
1150.386966	0.034184
1150.542066	0.029616
1150.697149	0.031010
1150.852214	0.022454
1151.007260	0.029516
1151.162288	0.059906
1151.317298	0.075253
1151.472289	0.060112
1151.627263	0.092536
1151.782218	0.073560
1151.937155	0.080924
1152.092073	0.074232
1152.246974	0.082219
1152.401856	0.093164
1152.556720	0.100422
1152.711566	0.092371
1152.866393	0.105192
1153.021203	0.077878
1153.175994	0.068103
1153.330767	0.054744
1153.485521	0.050984
1153.640258	0.058300
1153.794976	0.052057
1153.949676	0.032386
1154.104358	0.036981
1154.259021	0.033004
1154.413667	0.056567
1154.568294	0.071986
1154.722903	0.057194
1154.877493	0.058720
1155.032066	0.043828
1155.186620	0.057658
1155.341156	0.076517
1155.495674	0.052902
1155.650173	0.033435
1155.804654	0.024811
1155.959118	0.010477
1156.113562	0.035121
1156.267989	0.035014
1156.422397	0.018322
1156.576788	0.008637
1156.731160	-0.000917
1156.885513	0.004993
1157.039849	0.019275
1157.194166	0.017841
1157.348465	0.049138
1157.502746	0.055410
1157.657009	0.081972
1157.811253	0.083893
1157.965479	0.091508
1158.119687	0.114584
1158.273877	0.112134
1158.428048	0.122747
1158.582201	0.115551
1158.736337	0.092130
1158.890453	0.099795
1159.044552	0.068930
1159.198632	0.069272
1159.352694	0.068848
1159.506738	0.067496
1159.660764	0.079909
1159.814771	0.062017
1159.968761	0.060127
1160.122732	0.047953
1160.276685	0.028151
1160.430619	0.057888
1160.584535	0.046461
1160.738434	0.050668
1160.892313	0.041191
1161.046175	0.022939
1161.200019	0.009600
1161.353844	0.023660
1161.507651	0.049747
1161.661440	0.022980
1161.815210	0.011377
1161.968962	0.013831
1162.122697	0.017631
1162.276412	0.004112
1162.430110	-0.010414
1162.583789	0.013648
1162.737451	0.014936
1162.891094	0.000600
1163.044718	0.015952
1163.198325	0.002585
1163.351913	0.036038
1163.505483	0.023729
1163.659035	0.042598
1163.812569	0.047091
1163.966084	0.058433
1164.119581	0.073366
1164.273060	0.047088
1164.426521	0.048426
1164.579964	0.041879
1164.733388	0.004212
1164.886794	0.011866
1165.040182	0.007963
1165.193551	0.023701
1165.346903	0.000859
1165.500236	-0.009113
1165.653551	0.025418
1165.806848	0.050489
1165.960126	0.060729
1166.113386	0.105715
1166.266628	0.092443
1166.419852	0.052979
1166.573058	0.072902
1166.726245	0.073240
1166.879414	0.063930
1167.032565	0.087782
1167.185698	0.085624
1167.338812	0.083354
1167.491909	0.073299
1167.644987	0.069427
1167.798046	0.074839
1167.951088	0.025325
1168.104111	0.041897
1168.257117	0.032198
1168.410103	-0.028261
1168.563072	-0.016437
1168.716023	-0.025944
1168.868955	-0.026824
1169.021869	-0.031551
1169.174765	-0.056998
1169.327642	-0.021691
1169.480501	-0.045873
1169.633343	-0.045402
1169.786165	-0.029725
1169.938970	-0.069197
1170.091757	-0.048995
1170.244525	-0.029784
1170.397275	-0.032372
1170.550007	0.019191
1170.702720	0.040937
1170.855415	0.072709
1171.008092	0.080980
1171.160751	0.093244
1171.313392	0.107760
1171.466014	0.228952
1171.618619	-0.005148
1171.771205	-0.005148
1171.923772	-0.005148
