sample name	sample
index	1107
start time	 04-22-2021  12:56:53 PM


Wavelength (nm)	Absorbance
494.344910	NaN
494.563924	NaN
494.782919	NaN
495.001897	NaN
495.220856	0.149802
495.439797	0.038186
495.658719	0.064125
495.877624	0.087455
496.096510	-0.005817
496.315378	0.050132
496.534227	-0.024775
496.753059	-0.042726
496.971872	-0.000847
497.190667	0.151627
497.409444	0.160681
497.628203	0.160780
497.846943	0.164676
498.065665	0.163313
498.284369	0.164306
498.503055	0.165795
498.721723	0.165178
498.940372	0.165625
499.159003	0.165439
499.377616	0.166516
499.596210	0.168629
499.814787	0.166369
500.033345	0.168017
500.251885	0.169288
500.470406	0.169018
500.688910	0.171262
500.907395	0.171318
501.125862	0.172241
501.344311	0.170937
501.562742	0.169197
501.781154	0.170812
501.999548	0.170981
502.217924	0.170034
502.436282	0.171182
502.654621	0.170658
502.872942	0.171969
503.091245	0.171306
503.309530	0.171017
503.527797	0.171599
503.746045	0.171365
503.964275	0.171815
504.182487	0.171796
504.400681	0.172528
504.618856	0.173287
504.837013	0.171986
505.055152	0.172407
505.273273	0.174736
505.491376	0.174953
505.709460	0.174107
505.927526	0.172753
506.145574	0.172759
506.363604	0.172063
506.581615	0.171602
506.799608	0.171405
507.017583	0.172007
507.235540	0.171782
507.453478	0.172201
507.671399	0.173423
507.889301	0.174447
508.107185	0.175199
508.325050	0.174543
508.542898	0.174764
508.760727	0.176004
508.978538	0.176180
509.196330	0.176285
509.414105	0.175914
509.631861	0.176409
509.849599	0.176857
510.067319	0.177390
510.285021	0.179206
510.502704	0.179679
510.720369	0.179985
510.938016	0.179731
511.155645	0.179895
511.373255	0.179773
511.590848	0.179567
511.808422	0.179979
512.025977	0.179465
512.243515	0.179175
512.461034	0.179002
512.678536	0.178428
512.896018	0.179773
513.113483	0.179963
513.330930	0.180485
513.548358	0.179992
513.765768	0.179955
513.983160	0.180876
514.200533	0.180070
514.417889	0.180367
514.635226	0.180978
514.852545	0.179957
515.069845	0.179895
515.287128	0.180074
515.504392	0.180502
515.721638	0.180533
515.938866	0.180076
516.156075	0.180996
516.373267	0.181464
516.590440	0.181350
516.807594	0.181407
517.024731	0.181585
517.241850	0.181605
517.458950	0.181657
517.676032	0.181841
517.893095	0.182629
518.110141	0.182242
518.327168	0.182399
518.544177	0.182958
518.761168	0.183360
518.978141	0.183522
519.195095	0.183733
519.412031	0.184892
519.628949	0.184278
519.845849	0.184289
520.062731	0.185014
520.279594	0.184417
520.496439	0.185389
520.713266	0.186046
520.930074	0.186135
521.146865	0.188113
521.363637	0.188185
521.580391	0.188631
521.797127	0.187865
522.013844	0.188782
522.230543	0.189460
522.447224	0.189699
522.663887	0.190093
522.880532	0.191094
523.097158	0.189401
523.313766	0.189840
523.530356	0.190235
523.746928	0.191350
523.963481	0.190442
524.180017	0.191221
524.396534	0.190839
524.613032	0.191603
524.829513	0.191978
525.045975	0.193080
525.262420	0.193889
525.478845	0.194559
525.695253	0.194513
525.911643	0.195226
526.128014	0.195339
526.344367	0.195381
526.560702	0.195134
526.777018	0.195120
526.993316	0.194977
527.209597	0.194644
527.425858	0.195006
527.642102	0.196050
527.858328	0.196346
528.074535	0.196532
528.290724	0.196934
528.506894	0.197099
528.723047	0.197825
528.939181	0.198491
529.155297	0.199244
529.371395	0.199927
529.587475	0.199740
529.803536	0.200164
530.019579	0.200500
530.235604	0.201223
530.451611	0.201257
530.667600	0.201199
530.883570	0.201564
531.099522	0.201554
531.315456	0.201344
531.531372	0.202099
531.747269	0.202380
531.963148	0.202625
532.179009	0.203020
532.394852	0.203271
532.610676	0.203573
532.826482	0.203993
533.042271	0.204505
533.258040	0.204864
533.473792	0.204869
533.689525	0.205492
533.905240	0.206071
534.120937	0.206574
534.336616	0.207245
534.552277	0.206869
534.767919	0.207158
534.983543	0.207233
535.199149	0.207714
535.414736	0.207915
535.630306	0.208235
535.845857	0.208174
536.061390	0.207838
536.276904	0.208500
536.492401	0.209862
536.707879	0.210296
536.923339	0.210209
537.138781	0.210761
537.354204	0.211085
537.569610	0.211092
537.784997	0.211487
538.000366	0.211854
538.215716	0.212118
538.431049	0.211651
538.646363	0.211879
538.861659	0.212295
539.076937	0.212035
539.292196	0.212450
539.507438	0.213054
539.722661	0.213742
539.937866	0.214272
540.153052	0.214019
540.368221	0.214658
540.583371	0.214958
540.798503	0.215562
541.013617	0.215969
541.228712	0.216256
541.443789	0.216331
541.658848	0.216367
541.873889	0.216546
542.088912	0.217416
542.303916	0.218346
542.518902	0.218964
542.733870	0.219705
542.948820	0.220275
543.163752	0.220789
543.378665	0.220848
543.593560	0.221192
543.808437	0.221577
544.023295	0.221726
544.238136	0.221543
544.452958	0.221258
544.667762	0.221572
544.882548	0.221747
545.097315	0.222223
545.312064	0.223095
545.526795	0.223468
545.741508	0.223687
545.956203	0.223602
546.170879	0.223428
546.385537	0.223922
546.600177	0.223611
546.814799	0.224061
547.029402	0.224095
547.243988	0.223805
547.458555	0.224269
547.673103	0.224534
547.887634	0.225310
548.102146	0.226119
548.316640	0.226776
548.531116	0.227139
548.745574	0.227532
548.960013	0.228065
549.174435	0.228676
549.388838	0.229297
549.603222	0.229650
549.817589	0.229655
550.031937	0.229650
550.246267	0.229162
550.460579	0.229602
550.674873	0.230075
550.889148	0.230132
551.103405	0.229848
551.317644	0.229032
551.531865	0.229057
551.746068	0.229288
551.960252	0.229887
552.174418	0.230576
552.388566	0.230302
552.602696	0.230219
552.816807	0.230051
553.030900	0.230729
553.244975	0.231429
553.459032	0.231930
553.673070	0.232019
553.887091	0.231959
554.101093	0.232093
554.315077	0.232402
554.529042	0.232419
554.742990	0.232201
554.956919	0.232520
555.170830	0.232387
555.384722	0.232180
555.598597	0.232578
555.812453	0.232631
556.026291	0.232657
556.240111	0.233116
556.453913	0.233523
556.667696	0.233848
556.881461	0.234146
557.095208	0.234242
557.308937	0.234716
557.522647	0.234835
557.736339	0.235542
557.950013	0.235246
558.163669	0.235258
558.377307	0.235048
558.590926	0.235540
558.804527	0.235397
559.018110	0.236141
559.231675	0.236331
559.445221	0.236396
559.658749	0.236290
559.872259	0.237058
560.085751	0.236921
560.299225	0.236981
560.512680	0.237284
560.726117	0.237733
560.939536	0.237255
561.152937	0.237158
561.366319	0.237347
561.579683	0.236868
561.793029	0.236835
562.006357	0.237308
562.219667	0.237908
562.432958	0.237763
562.646231	0.237022
562.859486	0.237217
563.072723	0.237392
563.285941	0.237096
563.499141	0.237546
563.712323	0.237813
563.925487	0.238058
564.138632	0.237754
564.351760	0.238067
564.564869	0.238651
564.777960	0.239182
564.991032	0.239332
565.204087	0.239995
565.417123	0.240081
565.630141	0.240239
565.843140	0.240128
566.056122	0.240718
566.269085	0.240864
566.482030	0.240897
566.694957	0.241135
566.907866	0.241282
567.120756	0.241358
567.333628	0.241418
567.546482	0.241631
567.759318	0.241975
567.972135	0.241537
568.184935	0.241789
568.397716	0.242166
568.610478	0.241925
568.823223	0.242316
569.035949	0.242512
569.248657	0.242353
569.461347	0.242667
569.674019	0.242605
569.886672	0.242784
570.099308	0.242933
570.311925	0.243166
570.524523	0.243316
570.737104	0.243261
570.949666	0.243222
571.162210	0.243460
571.374736	0.242708
571.587244	0.242765
571.799733	0.243112
572.012205	0.243200
572.224658	0.243236
572.437092	0.243413
572.649509	0.243165
572.861907	0.243327
573.074287	0.243654
573.286649	0.243971
573.498993	0.244318
573.711318	0.244674
573.923625	0.244740
574.135914	0.245062
574.348185	0.245171
574.560438	0.245801
574.772672	0.246071
574.984888	0.246650
575.197086	0.246989
575.409266	0.246906
575.621427	0.246802
575.833570	0.247029
576.045695	0.246717
576.257802	0.246738
576.469890	0.246576
576.681961	0.246424
576.894013	0.246233
577.106046	0.246837
577.318062	0.247127
577.530059	0.247739
577.742039	0.247827
577.954000	0.248258
578.165942	0.248604
578.377867	0.248870
578.589773	0.248893
578.801661	0.249220
579.013531	0.249050
579.225382	0.249349
579.437216	0.249059
579.649031	0.249382
579.860828	0.249501
580.072606	0.249595
580.284367	0.249554
580.496109	0.249899
580.707833	0.249957
580.919539	0.250350
581.131227	0.250430
581.342896	0.250713
581.554547	0.250554
581.766180	0.251104
581.977795	0.251350
582.189391	0.251492
582.400969	0.251709
582.612529	0.251793
582.824071	0.251732
583.035595	0.252002
583.247100	0.252352
583.458587	0.252829
583.670056	0.252405
583.881506	0.252577
584.092939	0.253136
584.304353	0.252957
584.515749	0.252917
584.727127	0.253206
584.938486	0.253342
585.149828	0.253013
585.361151	0.252880
585.572456	0.253086
585.783742	0.252909
585.995011	0.252773
586.206261	0.252856
586.417493	0.253057
586.628706	0.253180
586.839902	0.253213
587.051079	0.253507
587.262238	0.253756
587.473379	0.253818
587.684502	0.254547
587.895606	0.254879
588.106692	0.255348
588.317760	0.255473
588.528810	0.255304
588.739841	0.255692
588.950855	0.255873
589.161850	0.255879
589.372827	0.256035
589.583785	0.255870
589.794726	0.256008
590.005648	0.256240
590.216552	0.256619
590.427437	0.256903
590.638305	0.256522
590.849154	0.256842
591.059985	0.257216
591.270798	0.257500
591.481592	0.257654
591.692369	0.257541
591.903127	0.257731
592.113867	0.257787
592.324588	0.257695
592.535292	0.258353
592.745977	0.258555
592.956644	0.258449
593.167293	0.258598
593.377923	0.258732
593.588536	0.259289
593.799130	0.259045
594.009706	0.259577
594.220263	0.260045
594.430803	0.259767
594.641324	0.259886
594.851827	0.260280
595.062312	0.260241
595.272778	0.260561
595.483227	0.260129
595.693657	0.260166
595.904069	0.259636
596.114462	0.259641
596.324838	0.259609
596.535195	0.259443
596.745534	0.259491
596.955855	0.259642
597.166157	0.259664
597.376441	0.260016
597.586707	0.260652
597.796955	0.261120
598.007185	0.261339
598.217396	0.262129
598.427589	0.262354
598.637764	0.262668
598.847921	0.262977
599.058060	0.263179
599.268180	0.263524
599.478282	0.263464
599.688366	0.263858
599.898431	0.264144
600.108479	0.263876
600.318508	0.263972
600.528519	0.264074
600.738511	0.264088
600.948486	0.264033
601.158442	0.264390
601.368380	0.264519
601.578300	0.264082
601.788202	0.264014
601.998085	0.264518
602.207950	0.264691
602.417797	0.264841
602.627626	0.265164
602.837436	0.265577
603.047228	0.265190
603.257002	0.265443
603.466758	0.266105
603.676496	0.266665
603.886215	0.266901
604.095916	0.267197
604.305599	0.266986
604.515264	0.267159
604.724910	0.266848
604.934538	0.267267
605.144148	0.267313
605.353740	0.267251
605.563314	0.266898
605.772869	0.266983
605.982406	0.267183
606.191925	0.267530
606.401425	0.267913
606.610908	0.268123
606.820372	0.268238
607.029818	0.268572
607.239246	0.268799
607.448655	0.269397
607.658047	0.269269
607.867420	0.269139
608.076775	0.269142
608.286111	0.268779
608.495430	0.269519
608.704730	0.269604
608.914012	0.269788
609.123275	0.269727
609.332521	0.269475
609.541748	0.269411
609.750957	0.269660
609.960148	0.269882
610.169321	0.270492
610.378475	0.270171
610.587611	0.270100
610.796729	0.270322
611.005829	0.270285
611.214910	0.270304
611.423974	0.270483
611.633019	0.270580
611.842045	0.270577
612.051054	0.270181
612.260044	0.270366
612.469017	0.270489
612.677970	0.270309
612.886906	0.270429
613.095824	0.270458
613.304723	0.270440
613.513604	0.270615
613.722467	0.270575
613.931311	0.271149
614.140138	0.271481
614.348946	0.271853
614.557736	0.272068
614.766507	0.272317
614.975261	0.272722
615.183996	0.273507
615.392713	0.273805
615.601412	0.274092
615.810092	0.274082
616.018754	0.273985
616.227399	0.274229
616.436024	0.274297
616.644632	0.274428
616.853222	0.275067
617.061793	0.274792
617.270346	0.274917
617.478880	0.275546
617.687397	0.275509
617.895895	0.275574
618.104375	0.275875
618.312837	0.276172
618.521281	0.276610
618.729706	0.276326
618.938113	0.276547
619.146502	0.276566
619.354873	0.276514
619.563226	0.276832
619.771560	0.277172
619.979876	0.277174
620.188174	0.277046
620.396453	0.277257
620.604715	0.277330
620.812958	0.277595
621.021183	0.277866
621.229390	0.278174
621.437578	0.278219
621.645748	0.278374
621.853900	0.278591
622.062034	0.279106
622.270150	0.279048
622.478247	0.279493
622.686326	0.279239
622.894387	0.279618
623.102430	0.279557
623.310454	0.279648
623.518461	0.279638
623.726449	0.279478
623.934418	0.279607
624.142370	0.279776
624.350303	0.279431
624.558218	0.279814
624.766115	0.279341
624.973994	0.279714
625.181855	0.279858
625.389697	0.280242
625.597521	0.280749
625.805327	0.280823
626.013114	0.281063
626.220883	0.281589
626.428634	0.281604
626.636367	0.282078
626.844082	0.281932
627.051778	0.282323
627.259457	0.282436
627.467117	0.282134
627.674758	0.282176
627.882382	0.282513
628.089987	0.282336
628.297574	0.282535
628.505143	0.282704
628.712694	0.282893
628.920226	0.282822
629.127740	0.282829
629.335236	0.283516
629.542714	0.283717
629.750174	0.283575
629.957615	0.284038
630.165038	0.284240
630.372443	0.284500
630.579829	0.284561
630.787198	0.284878
630.994548	0.285053
631.201880	0.284940
631.409194	0.285005
631.616489	0.285037
631.823766	0.285055
632.031025	0.285355
632.238266	0.285239
632.445489	0.285313
632.652693	0.285277
632.859879	0.285493
633.067047	0.285495
633.274197	0.285749
633.481329	0.286119
633.688442	0.286265
633.895537	0.286581
634.102614	0.286739
634.309672	0.286991
634.516713	0.287025
634.723735	0.286977
634.930739	0.287379
635.137724	0.287714
635.344692	0.287696
635.551641	0.287695
635.758572	0.287633
635.965485	0.287781
636.172379	0.287975
636.379256	0.287958
636.586114	0.288281
636.792954	0.288222
636.999775	0.288306
637.206579	0.288567
637.413364	0.288748
637.620131	0.288891
637.826880	0.289311
638.033610	0.289333
638.240323	0.290008
638.447017	0.290028
638.653692	0.290204
638.860350	0.290285
639.066990	0.290323
639.273611	0.290724
639.480214	0.291217
639.686798	0.291349
639.893365	0.291750
640.099913	0.291746
640.306443	0.291805
640.512955	0.292278
640.719449	0.292206
640.925924	0.292488
641.132381	0.292471
641.338820	0.292681
641.545241	0.292587
641.751644	0.292784
641.958028	0.293048
642.164394	0.293159
642.370742	0.293197
642.577071	0.293562
642.783383	0.293702
642.989676	0.293896
643.195951	0.293332
643.402207	0.293537
643.608446	0.293517
643.814666	0.293786
644.020868	0.294429
644.227052	0.294414
644.433218	0.294820
644.639365	0.295120
644.845494	0.295431
645.051605	0.295985
645.257698	0.296281
645.463772	0.296550
645.669828	0.296521
645.875866	0.296491
646.081886	0.296675
646.287888	0.296607
646.493871	0.296618
646.699836	0.297128
646.905783	0.297599
647.111712	0.297927
647.317622	0.298387
647.523514	0.298603
647.729388	0.298710
647.935244	0.299215
648.141082	0.299556
648.346901	0.299891
648.552702	0.299746
648.758485	0.299651
648.964250	0.299465
649.169996	0.299329
649.375724	0.299283
649.581434	0.299493
649.787126	0.299269
649.992800	0.299220
650.198455	0.299284
650.404092	0.299151
650.609711	0.299288
650.815311	0.299813
651.020894	0.300097
651.226458	0.300644
651.432004	0.300679
651.637532	0.300931
651.843041	0.301283
652.048532	0.301541
652.254006	0.302086
652.459460	0.302403
652.664897	0.302441
652.870315	0.302645
653.075716	0.302711
653.281097	0.302961
653.486461	0.303332
653.691807	0.303392
653.897134	0.303434
654.102443	0.303554
654.307734	0.303677
654.513006	0.303958
654.718261	0.304157
654.923497	0.304408
655.128715	0.304694
655.333915	0.304661
655.539096	0.305166
655.744259	0.305386
655.949404	0.305400
656.154531	0.305430
656.359640	0.305528
656.564730	0.305607
656.769802	0.305984
656.974856	0.306183
657.179892	0.306733
657.384909	0.306639
657.589908	0.307067
657.794889	0.307264
657.999852	0.307583
658.204797	0.307851
658.409723	0.308211
658.614631	0.308205
658.819521	0.308538
659.024393	0.308740
659.229246	0.309023
659.434081	0.308927
659.638898	0.309363
659.843697	0.309452
660.048478	0.309731
660.253240	0.309814
660.457984	0.309826
660.662710	0.309694
660.867417	0.309813
661.072107	0.309898
661.276778	0.310308
661.481431	0.310458
661.686066	0.310784
661.890682	0.310946
662.095281	0.311441
662.299861	0.311845
662.504422	0.312339
662.708966	0.312317
662.913491	0.312535
663.117999	0.312567
663.322488	0.312707
663.526958	0.312888
663.731411	0.313106
663.935845	0.312948
664.140261	0.313194
664.344659	0.313450
664.549038	0.313934
664.753400	0.314393
664.957743	0.314778
665.162068	0.314939
665.366375	0.315224
665.570663	0.315548
665.774933	0.315822
665.979185	0.316158
666.183419	0.316397
666.387635	0.316667
666.591832	0.316906
666.796011	0.317056
667.000172	0.317605
667.204315	0.317691
667.408439	0.317785
667.612545	0.317749
667.816634	0.317984
668.020703	0.318015
668.224755	0.318288
668.428788	0.318477
668.632803	0.318799
668.836800	0.318911
669.040779	0.319325
669.244739	0.319573
669.448681	0.320164
669.652605	0.320270
669.856511	0.320609
670.060399	0.320641
670.264268	0.320970
670.468119	0.321326
670.671952	0.321483
670.875767	0.321527
671.079563	0.321776
671.283341	0.321913
671.487101	0.322040
671.690843	0.322135
671.894567	0.322367
672.098272	0.322183
672.301959	0.322171
672.505628	0.322238
672.709278	0.322577
672.912911	0.322939
673.116525	0.323066
673.320121	0.323352
673.523699	0.323798
673.727258	0.324020
673.930799	0.324421
674.134322	0.324852
674.337827	0.325256
674.541314	0.325543
674.744782	0.325683
674.948232	0.326111
675.151664	0.326361
675.355078	0.326361
675.558474	0.326837
675.761851	0.327001
675.965210	0.326971
676.168551	0.326937
676.371873	0.327188
676.575178	0.327398
676.778464	0.327600
676.981732	0.327556
677.184981	0.327999
677.388213	0.327973
677.591426	0.328478
677.794621	0.328846
677.997798	0.328855
678.200956	0.329003
678.404097	0.329185
678.607219	0.329081
678.810323	0.329315
679.013408	0.329222
679.216476	0.329294
679.419525	0.329094
679.622556	0.329173
679.825569	0.329614
680.028563	0.329654
680.231540	0.329808
680.434498	0.330273
680.637438	0.330448
680.840359	0.330966
681.043263	0.331107
681.246148	0.331526
681.449015	0.331778
681.651864	0.332006
681.854694	0.332205
682.057506	0.332310
682.260301	0.332349
682.463076	0.332741
682.665834	0.332574
682.868573	0.332742
683.071295	0.332767
683.273998	0.332876
683.476682	0.332765
683.679349	0.332840
683.881997	0.333055
684.084627	0.333408
684.287239	0.333643
684.489833	0.334162
684.692408	0.334664
684.894965	0.335158
685.097504	0.335387
685.300025	0.335881
685.502527	0.335997
685.705012	0.336086
685.907478	0.336309
686.109925	0.336437
686.312355	0.336352
686.514766	0.336301
686.717159	0.336440
686.919534	0.336682
687.121891	0.336997
687.324230	0.337553
687.526550	0.337766
687.728852	0.337636
687.931136	0.337494
688.133401	0.337561
688.335649	0.337649
688.537878	0.337727
688.740089	0.337907
688.942281	0.338049
689.144456	0.338020
689.346612	0.338085
689.548750	0.338571
689.750870	0.338830
689.952971	0.339346
690.155055	0.339781
690.357120	0.339717
690.559167	0.340032
690.761195	0.340066
690.963206	0.340459
691.165198	0.340740
691.367172	0.340816
691.569128	0.341087
691.771065	0.341209
691.972984	0.341202
692.174885	0.341479
692.376768	0.341360
692.578633	0.341732
692.780479	0.341843
692.982308	0.341861
693.184118	0.341632
693.385909	0.341723
693.587683	0.341755
693.789438	0.342009
693.991175	0.342116
694.192894	0.342245
694.394595	0.342079
694.596277	0.341760
694.797941	0.341982
694.999587	0.342387
695.201215	0.342078
695.402824	0.342311
695.604416	0.342539
695.805989	0.342557
696.007543	0.342664
696.209080	0.342744
696.410598	0.343120
696.612099	0.343417
696.813580	0.343648
697.015044	0.344347
697.216490	0.344383
697.417917	0.344594
697.619326	0.344915
697.820717	0.344963
698.022089	0.345435
698.223444	0.345618
698.424780	0.345417
698.626098	0.345371
698.827397	0.345253
699.028679	0.345407
699.229942	0.345091
699.431187	0.345122
699.632414	0.345431
699.833622	0.345171
700.034813	0.344988
700.235985	0.345103
700.437139	0.345113
700.638274	0.345292
700.839392	0.345330
701.040491	0.345543
701.241572	0.345681
701.442635	0.345753
701.643679	0.346170
701.844706	0.346403
702.045714	0.346595
702.246704	0.346840
702.447675	0.347291
702.648629	0.347355
702.849564	0.347471
703.050481	0.347473
703.251380	0.347647
703.452260	0.347683
703.653122	0.347801
703.853966	0.348093
704.054792	0.348167
704.255600	0.347998
704.456389	0.347837
704.657160	0.348017
704.857913	0.347955
705.058648	0.347931
705.259365	0.347594
705.460063	0.347547
705.660743	0.347442
705.861405	0.347581
706.062048	0.347408
706.262674	0.347387
706.463281	0.346991
706.663870	0.347062
706.864441	0.346925
707.064993	0.346952
707.265527	0.347070
707.466043	0.346739
707.666541	0.346694
707.867021	0.346988
708.067482	0.347243
708.267925	0.347419
708.468350	0.347649
708.668757	0.347483
708.869145	0.347760
709.069516	0.347715
709.269868	0.348050
709.470201	0.348042
709.670517	0.347971
709.870814	0.347893
710.071093	0.348067
710.271354	0.347943
710.471597	0.348028
710.671821	0.347899
710.872028	0.347750
711.072216	0.347827
711.272385	0.347601
711.472537	0.347378
711.672670	0.347489
711.872785	0.347559
712.072882	0.347420
712.272961	0.347403
712.473021	0.347606
712.673063	0.347986
712.873087	0.347949
713.073093	0.348192
713.273081	0.348369
713.473050	0.348332
713.673001	0.347856
713.872934	0.347980
714.072849	0.348036
714.272745	0.347726
714.472623	0.347401
714.672483	0.347324
714.872325	0.347242
715.072148	0.347200
715.271954	0.347112
715.471741	0.347468
715.671509	0.347117
715.871260	0.347106
716.070992	0.347359
716.270707	0.347615
716.470403	0.347200
716.670080	0.346894
716.869740	0.346779
717.069381	0.346632
717.269004	0.346170
717.468609	0.346275
717.668195	0.346242
717.867764	0.345908
718.067314	0.345420
718.266846	0.345378
718.466360	0.345329
718.665855	0.345242
718.865332	0.345339
719.064791	0.345371
719.264232	0.344966
719.463655	0.344904
719.663059	0.344816
719.862445	0.345079
720.061813	0.345367
720.261163	0.345392
720.460494	0.345317
720.659807	0.344959
720.859102	0.344972
721.058379	0.345095
721.257638	0.344989
721.456878	0.345175
721.656100	0.345036
721.855304	0.344790
722.054490	0.344773
722.253657	0.344862
722.452806	0.344874
722.651937	0.344833
722.851050	0.344833
723.050145	0.344681
723.249221	0.344329
723.448279	0.344075
723.647319	0.344091
723.846340	0.343891
724.045344	0.343439
724.244329	0.343474
724.443296	0.343196
724.642245	0.343105
724.841175	0.342981
725.040088	0.343190
725.238982	0.342900
725.437857	0.342632
725.636715	0.342760
725.835554	0.342887
726.034376	0.342555
726.233179	0.342355
726.431963	0.342347
726.630730	0.342051
726.829478	0.341467
727.028208	0.341410
727.226920	0.341371
727.425614	0.340876
727.624289	0.340331
727.822946	0.340149
728.021585	0.340135
728.220206	0.339463
728.418808	0.339184
728.617392	0.339048
728.815958	0.338816
729.014506	0.338687
729.213036	0.338511
729.411547	0.338536
729.610040	0.338457
729.808515	0.338217
730.006972	0.338656
730.205410	0.338812
730.403831	0.338589
730.602233	0.338489
730.800616	0.338224
730.998982	0.338149
731.197329	0.337984
731.395658	0.337713
731.593969	0.337664
731.792262	0.337208
731.990536	0.336841
732.188793	0.336835
732.387031	0.336643
732.585250	0.336557
732.783452	0.336127
732.981635	0.336073
733.179800	0.335898
733.377947	0.335718
733.576076	0.335360
733.774186	0.334975
733.972278	0.334754
734.170352	0.334636
734.368408	0.334490
734.566446	0.334366
734.764465	0.334054
734.962466	0.334061
735.160449	0.333789
735.358413	0.333875
735.556360	0.334208
735.754288	0.334154
735.952198	0.334080
736.150090	0.333782
736.347963	0.334074
736.545818	0.333829
736.743655	0.333532
736.941474	0.333347
737.139275	0.333176
737.337057	0.333065
737.534821	0.332864
737.732567	0.332771
737.930295	0.332358
738.128005	0.331875
738.325696	0.331884
738.523369	0.331726
738.721024	0.331511
738.918660	0.331297
739.116279	0.331024
739.313879	0.330924
739.511461	0.330705
739.709024	0.330803
739.906570	0.330471
740.104097	0.330114
740.301606	0.329934
740.499097	0.330113
740.696569	0.329995
740.894024	0.329825
741.091460	0.329373
741.288878	0.329226
741.486277	0.328995
741.683659	0.329003
741.881022	0.329002
742.078367	0.328667
742.275694	0.328292
742.473002	0.327934
742.670293	0.327372
742.867565	0.327370
743.064819	0.327007
743.262054	0.326900
743.459272	0.326364
743.656471	0.325850
743.853652	0.325693
744.050815	0.325222
744.247959	0.325016
744.445085	0.324763
744.642194	0.324412
744.839283	0.324335
745.036355	0.323989
745.233408	0.323912
745.430444	0.324006
745.627461	0.324058
745.824459	0.324068
746.021440	0.323950
746.218402	0.324048
746.415346	0.324084
746.612272	0.323895
746.809180	0.323813
747.006069	0.323919
747.202940	0.323899
747.399793	0.323832
747.596628	0.323802
747.793444	0.323931
747.990243	0.323866
748.187023	0.323612
748.383784	0.323514
748.580528	0.323375
748.777253	0.323105
748.973960	0.322701
749.170649	0.322363
749.367320	0.322025
749.563973	0.321493
749.760607	0.321283
749.957223	0.320940
750.153821	0.320627
750.350400	0.320297
750.546962	0.320131
750.743505	0.319868
750.940030	0.319457
751.136536	0.319348
751.333025	0.319114
751.529495	0.318712
751.725947	0.318833
751.922381	0.318310
752.118796	0.317987
752.315194	0.317953
752.511573	0.317766
752.707934	0.317534
752.904276	0.317333
753.100601	0.317100
753.296907	0.316903
753.493195	0.316790
753.689465	0.316794
753.885716	0.316573
754.081949	0.315961
754.278164	0.315781
754.474361	0.315596
754.670540	0.315339
754.866700	0.315329
755.062843	0.315241
755.258967	0.314606
755.455072	0.314433
755.651160	0.314232
755.847229	0.314161
756.043280	0.314184
756.239313	0.314250
756.435328	0.314039
756.631324	0.313641
756.827302	0.313403
757.023262	0.313569
757.219204	0.313659
757.415127	0.313948
757.611033	0.313938
757.806920	0.313758
758.002788	0.313472
758.198639	0.313633
758.394471	0.313829
758.590286	0.313743
758.786081	0.313340
758.981859	0.312986
759.177619	0.312507
759.373360	0.312218
759.569083	0.311856
759.764788	0.311757
759.960474	0.311113
760.156143	0.310430
760.351793	0.310232
760.547425	0.309880
760.743038	0.309723
760.938634	0.309497
761.134211	0.309138
761.329770	0.308642
761.525311	0.308395
761.720833	0.308411
761.916338	0.308525
762.111824	0.308488
762.307292	0.308317
762.502741	0.308415
762.698173	0.308370
762.893586	0.308280
763.088981	0.308347
763.284358	0.308310
763.479716	0.308441
763.675057	0.308330
763.870379	0.308012
764.065683	0.307954
764.260968	0.307643
764.456236	0.307444
764.651485	0.307796
764.846716	0.307960
765.041929	0.307810
765.237123	0.307639
765.432299	0.307455
765.627457	0.307617
765.822597	0.307909
766.017719	0.307843
766.212822	0.308000
766.407907	0.307922
766.602974	0.307914
766.798023	0.307919
766.993054	0.307802
767.188066	0.307836
767.383060	0.307613
767.578036	0.307465
767.772993	0.307288
767.967933	0.307077
768.162854	0.307031
768.357757	0.306700
768.552642	0.306556
768.747508	0.306575
768.942356	0.306680
769.137186	0.306485
769.331998	0.306376
769.526792	0.306348
769.721567	0.306221
769.916324	0.306187
770.111063	0.306323
770.305784	0.306238
770.500486	0.305912
770.695171	0.305605
770.889837	0.305344
771.084484	0.305100
771.279114	0.305041
771.473725	0.304907
771.668318	0.304500
771.862893	0.304392
772.057450	0.304319
772.251988	0.304360
772.446509	0.304498
772.641011	0.304739
772.835494	0.304853
773.029960	0.304654
773.224407	0.304665
773.418836	0.304929
773.613247	0.304835
773.807640	0.304623
774.002014	0.304229
774.196370	0.303993
774.390708	0.303818
774.585028	0.303729
774.779330	0.303613
774.973613	0.303688
775.167878	0.303269
775.362125	0.303192
775.556354	0.303154
775.750564	0.303483
775.944756	0.303628
776.138930	0.304008
776.333086	0.304013
776.527223	0.304034
776.721343	0.304088
776.915444	0.304062
777.109526	0.303799
777.303591	0.303780
777.497637	0.303611
777.691666	0.303645
777.885676	0.303339
778.079667	0.303266
778.273641	0.303536
778.467596	0.303476
778.661533	0.303619
778.855452	0.303719
779.049352	0.303661
779.243235	0.303451
779.437099	0.303078
779.630945	0.302984
779.824773	0.302806
780.018582	0.302490
780.212373	0.302391
780.406146	0.302097
780.599901	0.302040
780.793638	0.302234
780.987356	0.302255
781.181056	0.302325
781.374738	0.302411
781.568402	0.302433
781.762047	0.302492
781.955674	0.302450
782.149283	0.302616
782.342874	0.302964
782.536447	0.302865
782.730001	0.303000
782.923537	0.302916
783.117055	0.302484
783.310555	0.302605
783.504036	0.302637
783.697499	0.302628
783.890944	0.302707
784.084371	0.302611
784.277780	0.302947
784.471170	0.303187
784.664542	0.303445
784.857896	0.303850
785.051231	0.303866
785.244549	0.304084
785.437848	0.304262
785.631129	0.304444
785.824392	0.304532
786.017636	0.304531
786.210863	0.304624
786.404071	0.304659
786.597260	0.305129
786.790432	0.305165
786.983585	0.305264
787.176721	0.305178
787.369838	0.305307
787.562936	0.305292
787.756017	0.305327
787.949079	0.305255
788.142123	0.305547
788.335149	0.305398
788.528156	0.306033
788.721146	0.306097
788.914117	0.306242
789.107070	0.306412
789.300005	0.306691
789.492921	0.306811
789.685819	0.306858
789.878699	0.306785
790.071561	0.307039
790.264405	0.306970
790.457230	0.307243
790.650037	0.307702
790.842826	0.307872
791.035597	0.307963
791.228349	0.308478
791.421084	0.308748
791.613800	0.309030
791.806497	0.309043
791.999177	0.308973
792.191838	0.309076
792.384481	0.309182
792.577106	0.309206
792.769713	0.309592
792.962301	0.309582
793.154871	0.309843
793.347423	0.309979
793.539957	0.310310
793.732473	0.310888
793.924970	0.310905
794.117449	0.310915
794.309910	0.310927
794.502353	0.311084
794.694777	0.311210
794.887183	0.311392
795.079571	0.311622
795.271941	0.311699
795.464293	0.311522
795.656626	0.311773
795.848941	0.312325
796.041238	0.312663
796.233516	0.312550
796.425777	0.312580
796.618019	0.313017
796.810243	0.313233
797.002449	0.313525
797.194636	0.313753
797.386805	0.313959
797.578956	0.313785
797.771089	0.314252
797.963204	0.314455
798.155300	0.314690
798.347378	0.314713
798.539438	0.314830
798.731480	0.314783
798.923503	0.315002
799.115509	0.315075
799.307496	0.315105
799.499465	0.315168
799.691415	0.315623
799.883348	0.316014
800.075262	0.316012
800.267158	0.316343
800.459035	0.316587
800.650895	0.316572
800.842736	0.316892
801.034559	0.317369
801.226364	0.317686
801.418150	0.317985
801.609919	0.318137
801.801669	0.318342
801.993401	0.318695
802.185114	0.319158
802.376810	0.319686
802.568487	0.320056
802.760146	0.320323
802.951787	0.320401
803.143409	0.320676
803.335014	0.320610
803.526600	0.321100
803.718168	0.321333
803.909717	0.321425
804.101249	0.321472
804.292762	0.321836
804.484257	0.322065
804.675734	0.322377
804.867192	0.322510
805.058632	0.322932
805.250054	0.323233
805.441458	0.323323
805.632844	0.323482
805.824211	0.324076
806.015561	0.324092
806.206891	0.324202
806.398204	0.324465
806.589499	0.324886
806.780775	0.325353
806.972033	0.325734
807.163273	0.325938
807.354495	0.326399
807.545698	0.326838
807.736883	0.327145
807.928050	0.327606
808.119199	0.327914
808.310329	0.328055
808.501441	0.328449
808.692535	0.328511
808.883611	0.328870
809.074669	0.329051
809.265708	0.328991
809.456729	0.329179
809.647732	0.329392
809.838717	0.329614
810.029683	0.329911
810.220632	0.330118
810.411562	0.330635
810.602474	0.330873
810.793367	0.331357
810.984242	0.331643
811.175100	0.332019
811.365938	0.332300
811.556759	0.332600
811.747562	0.333036
811.938346	0.333369
812.129112	0.333528
812.319860	0.334008
812.510589	0.334167
812.701300	0.334543
812.891994	0.334819
813.082668	0.335203
813.273325	0.335407
813.463964	0.335316
813.654584	0.335458
813.845186	0.335791
814.035769	0.336304
814.226335	0.336545
814.416882	0.336498
814.607411	0.337047
814.797922	0.337418
814.988415	0.337907
815.178889	0.338573
815.369345	0.339095
815.559783	0.339305
815.750203	0.339510
815.940605	0.339928
816.130988	0.340682
816.321353	0.341009
816.511700	0.341704
816.702028	0.342000
816.892339	0.342389
817.082631	0.342720
817.272905	0.343335
817.463161	0.343832
817.653398	0.344447
817.843617	0.344942
818.033819	0.345419
818.224001	0.345355
818.414166	0.345934
818.604312	0.346193
818.794440	0.346659
818.984550	0.347025
819.174642	0.347244
819.364716	0.347520
819.554771	0.347835
819.744808	0.348103
819.934827	0.348650
820.124827	0.348939
820.314810	0.349266
820.504774	0.349521
820.694720	0.349653
820.884647	0.350234
821.074557	0.350842
821.264448	0.351257
821.454321	0.351943
821.644176	0.352595
821.834012	0.353412
822.023831	0.354123
822.213631	0.354349
822.403413	0.355101
822.593176	0.355378
822.782922	0.355785
822.972649	0.356149
823.162358	0.356209
823.352049	0.356258
823.541721	0.356106
823.731376	0.356521
823.921012	0.357147
824.110629	0.357510
824.300229	0.357764
824.489811	0.358123
824.679374	0.358483
824.868919	0.358912
825.058445	0.359352
825.247954	0.359770
825.437444	0.359792
825.626916	0.360389
825.816370	0.360852
826.005806	0.361383
826.195223	0.361519
826.384622	0.362094
826.574003	0.362811
826.763366	0.363191
826.952711	0.364003
827.142037	0.364576
827.331345	0.364702
827.520635	0.364798
827.709906	0.365135
827.899160	0.365842
828.088395	0.366699
828.277612	0.367016
828.466810	0.367459
828.655991	0.367684
828.845153	0.368353
829.034297	0.368918
829.223423	0.369649
829.412531	0.370401
829.601620	0.370517
829.790691	0.370904
829.979744	0.371359
830.168779	0.371951
830.357795	0.372667
830.546793	0.373031
830.735773	0.373393
830.924735	0.373535
831.113679	0.374033
831.302604	0.374601
831.491511	0.375188
831.680400	0.375536
831.869271	0.376307
832.058123	0.376530
832.246957	0.377345
832.435773	0.377839
832.624571	0.378586
832.813351	0.378970
833.002112	0.379412
833.190855	0.379276
833.379580	0.380155
833.568287	0.380498
833.756975	0.381053
833.945645	0.381555
834.134297	0.382106
834.322931	0.382662
834.511547	0.383131
834.700144	0.383743
834.888723	0.384090
835.077284	0.384445
835.265826	0.385046
835.454351	0.385828
835.642857	0.386268
835.831345	0.386901
836.019815	0.387748
836.208266	0.388274
836.396699	0.388792
836.585114	0.389888
836.773511	0.390534
836.961890	0.391034
837.150250	0.391104
837.338592	0.391847
837.526916	0.392494
837.715222	0.393016
837.903510	0.393501
838.091779	0.394307
838.280030	0.394401
838.468263	0.394811
838.656477	0.395794
838.844674	0.396564
839.032852	0.396876
839.221012	0.397522
839.409153	0.397677
839.597277	0.398320
839.785382	0.398719
839.973469	0.399568
840.161538	0.399829
840.349589	0.399629
840.537621	0.400087
840.725635	0.400369
840.913631	0.400528
841.101609	0.400972
841.289568	0.401648
841.477509	0.402742
841.665432	0.403154
841.853337	0.403972
842.041224	0.404848
842.229092	0.405323
842.416942	0.406155
842.604774	0.406802
842.792588	0.407349
842.980383	0.407469
843.168160	0.407318
843.355919	0.407964
843.543660	0.408229
843.731382	0.408465
843.919087	0.408916
844.106773	0.409077
844.294441	0.409913
844.482090	0.410626
844.669722	0.411470
844.857335	0.412004
845.044930	0.412069
845.232507	0.412681
845.420065	0.413200
845.607605	0.413969
845.795127	0.414544
845.982631	0.414647
846.170117	0.414982
846.357584	0.415413
846.545033	0.416161
846.732464	0.417193
846.919877	0.417905
847.107272	0.418912
847.294648	0.419463
847.482006	0.420187
847.669346	0.420544
847.856667	0.420879
848.043971	0.421377
848.231256	0.422003
848.418523	0.422315
848.605771	0.422771
848.793002	0.422836
848.980214	0.423271
849.167408	0.423524
849.354584	0.424410
849.541742	0.424879
849.728881	0.425223
849.916002	0.425440
850.103105	0.425940
850.290190	0.426524
850.477256	0.426945
850.664304	0.427234
850.851334	0.427698
851.038346	0.428557
851.225340	0.429872
851.412315	0.430829
851.599272	0.431822
851.786211	0.432006
851.973132	0.432170
852.160034	0.433248
852.346918	0.433988
852.533784	0.434598
852.720632	0.434731
852.907462	0.434135
853.094273	0.434421
853.281066	0.434414
853.467841	0.434889
853.654598	0.435386
853.841336	0.435262
854.028056	0.435625
854.214758	0.435729
854.401442	0.435884
854.588107	0.437185
854.774755	0.437272
854.961384	0.438012
855.147995	0.438626
855.334587	0.439077
855.521162	0.439767
855.707718	0.440161
855.894256	0.440826
856.080775	0.441606
856.267277	0.441788
856.453760	0.442022
856.640225	0.442206
856.826672	0.443086
857.013101	0.443857
857.199511	0.443953
857.385903	0.444762
857.572277	0.445648
857.758633	0.446031
857.944970	0.446458
858.131290	0.446999
858.317591	0.447216
858.503873	0.447460
858.690138	0.447973
858.876384	0.448542
859.062612	0.448284
859.248822	0.448102
859.435014	0.448773
859.621188	0.449729
859.807343	0.450724
859.993480	0.451604
860.179599	0.451884
860.365699	0.451975
860.551781	0.452526
860.737846	0.453157
860.923891	0.453940
861.109919	0.454297
861.295929	0.454115
861.481920	0.454092
861.667893	0.454136
861.853848	0.454727
862.039784	0.455491
862.225702	0.455995
862.411603	0.456737
862.597484	0.457185
862.783348	0.457654
862.969193	0.458426
863.155021	0.458841
863.340830	0.459635
863.526620	0.459982
863.712393	0.460202
863.898147	0.460693
864.083883	0.460723
864.269601	0.461023
864.455301	0.461297
864.640982	0.461745
864.826645	0.462667
865.012290	0.462754
865.197917	0.462978
865.383526	0.463198
865.569116	0.463664
865.754688	0.464318
865.940242	0.464888
866.125777	0.465034
866.311295	0.465023
866.496794	0.465161
866.682275	0.465733
866.867737	0.466492
867.053182	0.466922
867.238608	0.467227
867.424016	0.467951
867.609406	0.467687
867.794778	0.468301
867.980131	0.468213
868.165466	0.468358
868.350783	0.468629
868.536082	0.468541
868.721362	0.469047
868.906625	0.469211
869.091869	0.469463
869.277094	0.470164
869.462302	0.470047
869.647491	0.470814
869.832662	0.471375
870.017815	0.472082
870.202950	0.472740
870.388066	0.472992
870.573165	0.473656
870.758245	0.473832
870.943306	0.474309
871.128350	0.474958
871.313375	0.475613
871.498382	0.476213
871.683371	0.476557
871.868342	0.476933
872.053294	0.477316
872.238229	0.477442
872.423144	0.478062
872.608042	0.478261
872.792922	0.478827
872.977783	0.479334
873.162626	0.479198
873.347451	0.479275
873.532258	0.479603
873.717046	0.479891
873.901816	0.479922
874.086568	0.479740
874.271302	0.480007
874.456017	0.480009
874.640715	0.479698
874.825394	0.480096
875.010055	0.480258
875.194697	0.480676
875.379322	0.480655
875.563928	0.480977
875.748516	0.481415
875.933085	0.481861
876.117637	0.481934
876.302170	0.482041
876.486685	0.482152
876.671182	0.482168
876.855661	0.481634
877.040121	0.481519
877.224563	0.482052
877.408987	0.482663
877.593393	0.482859
877.777780	0.483119
877.962150	0.483663
878.146501	0.484286
878.330833	0.485378
878.515148	0.485809
878.699444	0.487117
878.883722	0.487733
879.067982	0.487602
879.252224	0.487537
879.436447	0.488661
879.620653	0.489006
879.804840	0.488762
879.989008	0.488561
880.173159	0.489369
880.357291	0.489053
880.541405	0.488504
880.725501	0.488755
880.909579	0.489276
881.093638	0.489163
881.277680	0.489231
881.461703	0.489701
881.645707	0.489607
881.829694	0.489398
882.013662	0.489903
882.197612	0.490398
882.381544	0.490102
882.565458	0.489753
882.749353	0.489246
882.933230	0.489358
883.117089	0.489615
883.300930	0.489379
883.484753	0.489477
883.668557	0.489108
883.852343	0.488953
884.036111	0.489164
884.219861	0.489596
884.403592	0.489716
884.587305	0.489691
884.771000	0.489171
884.954677	0.489480
885.138335	0.488988
885.321976	0.489294
885.505598	0.489289
885.689201	0.489347
885.872787	0.488784
886.056354	0.489544
886.239904	0.489624
886.423434	0.490032
886.606947	0.489760
886.790442	0.490303
886.973918	0.489774
887.157376	0.489933
887.340816	0.489817
887.524237	0.490333
887.707641	0.489490
887.891026	0.489675
888.074393	0.489390
888.257741	0.489230
888.441072	0.489261
888.624384	0.490330
888.807678	0.490305
888.990954	0.490827
889.174211	0.491290
889.357451	0.491656
889.540672	0.491474
889.723875	0.491600
889.907059	0.492175
890.090226	0.491841
890.273374	0.491382
890.456504	0.491757
890.639616	0.491828
890.822709	0.491682
891.005785	0.491670
891.188842	0.491596
891.371881	0.491175
891.554901	0.490752
891.737904	0.491357
891.920888	0.491121
892.103854	0.490513
892.286802	0.489924
892.469731	0.489937
892.652643	0.489808
892.835536	0.489325
893.018410	0.489617
893.201267	0.489808
893.384106	0.488951
893.566926	0.488345
893.749728	0.487847
893.932511	0.487402
894.115277	0.486330
894.298024	0.485984
894.480753	0.486221
894.663464	0.485855
894.846157	0.485572
895.028831	0.485570
895.211487	0.485750
895.394125	0.486411
895.576745	0.487233
895.759346	0.487707
895.941930	0.487720
896.124495	0.487163
896.307041	0.486993
896.489570	0.486899
896.672080	0.486911
896.854573	0.487077
897.037046	0.487131
897.219502	0.486984
897.401940	0.486622
897.584359	0.486785
897.766760	0.486906
897.949143	0.487193
898.131507	0.487405
898.313854	0.486862
898.496182	0.486049
898.678492	0.485521
898.860783	0.484932
899.043057	0.484634
899.225312	0.484176
899.407549	0.484120
899.589768	0.483572
899.771968	0.482833
899.954151	0.482845
900.136315	0.482598
900.318461	0.482040
900.500588	0.481794
900.682698	0.480907
900.864789	0.480363
901.046862	0.479826
901.228917	0.479811
901.410953	0.479520
901.592971	0.478930
901.774972	0.479113
901.956953	0.478377
902.138917	0.478102
902.320862	0.478770
902.502790	0.478607
902.684699	0.478006
902.866589	0.476871
903.048462	0.476590
903.230316	0.476664
903.412152	0.475878
903.593970	0.476026
903.775770	0.475357
903.957551	0.474579
904.139314	0.473861
904.321059	0.473591
904.502786	0.473717
904.684494	0.473231
904.866185	0.472906
905.047857	0.472704
905.229510	0.472308
905.411146	0.471577
905.592763	0.470598
905.774363	0.470478
905.955943	0.470527
906.137506	0.470298
906.319051	0.470005
906.500577	0.469630
906.682085	0.469164
906.863575	0.468373
907.045046	0.467792
907.226500	0.468104
907.407935	0.467290
907.589352	0.466834
907.770750	0.466141
907.952131	0.465729
908.133493	0.464969
908.314837	0.464202
908.496163	0.463754
908.677470	0.463465
908.858760	0.463124
909.040031	0.463002
909.221284	0.462524
909.402518	0.461644
909.583735	0.461073
909.764933	0.459801
909.946113	0.459470
910.127275	0.458644
910.308418	0.457806
910.489544	0.456930
910.670651	0.456824
910.851740	0.455301
911.032810	0.454921
911.213863	0.454506
911.394897	0.454516
911.575913	0.454229
911.756911	0.454357
911.937890	0.454078
912.118851	0.452962
912.299794	0.451578
912.480719	0.451825
912.661626	0.452126
912.842514	0.451527
913.023384	0.451116
913.204236	0.450156
913.385070	0.449139
913.565886	0.448516
913.746683	0.448423
913.927462	0.447765
914.108223	0.446472
914.288965	0.444480
914.469690	0.443763
914.650396	0.442972
914.831084	0.442677
915.011754	0.441839
915.192405	0.440658
915.373038	0.440211
915.553653	0.439945
915.734250	0.439747
915.914829	0.439716
916.095389	0.439163
916.275931	0.438596
916.456455	0.437637
916.636961	0.437772
916.817448	0.436717
916.997917	0.435361
917.178368	0.434291
917.358801	0.433178
917.539216	0.431957
917.719612	0.430580
917.899990	0.429596
918.080350	0.428129
918.260692	0.426715
918.441015	0.426142
918.621320	0.425638
918.801607	0.424865
918.981876	0.424552
919.162127	0.424403
919.342359	0.423378
919.522573	0.422894
919.702769	0.423347
919.882947	0.422123
920.063106	0.421783
920.243247	0.421195
920.423370	0.419559
920.603475	0.418399
920.783562	0.417279
920.963630	0.417803
921.143680	0.416856
921.323712	0.416315
921.503725	0.415557
921.683721	0.415540
921.863698	0.415100
922.043657	0.415283
922.223598	0.414682
922.403520	0.414177
922.583424	0.412563
922.763311	0.411157
922.943178	0.409095
923.123028	0.408170
923.302859	0.406657
923.482673	0.405542
923.662467	0.404460
923.842244	0.403154
924.022003	0.401915
924.201743	0.401309
924.381465	0.400988
924.561169	0.399981
924.740854	0.398821
924.920522	0.397775
925.100171	0.396197
925.279802	0.395241
925.459414	0.394087
925.639009	0.392769
925.818585	0.390617
925.998143	0.389604
926.177683	0.388576
926.357205	0.387437
926.536708	0.386385
926.716193	0.385708
926.895660	0.384993
927.075109	0.383545
927.254539	0.382712
927.433951	0.382465
927.613345	0.381634
927.792721	0.380759
927.972079	0.380218
928.151418	0.379188
928.330739	0.377669
928.510042	0.375898
928.689327	0.375007
928.868593	0.372992
929.047841	0.370651
929.227071	0.369286
929.406283	0.367504
929.585476	0.366342
929.764652	0.365069
929.943809	0.364449
930.122948	0.363713
930.302068	0.363094
930.481171	0.362506
930.660255	0.361969
930.839321	0.360495
931.018369	0.359969
931.197398	0.359385
931.376409	0.358797
931.555402	0.357777
931.734377	0.357664
931.913334	0.356434
932.092272	0.355596
932.271192	0.354657
932.450094	0.353791
932.628978	0.353383
932.807844	0.352437
932.986691	0.351558
933.165520	0.349770
933.344331	0.347370
933.523123	0.347022
933.701898	0.346194
933.880654	0.344402
934.059392	0.342836
934.238111	0.340850
934.416813	0.339623
934.595496	0.338303
934.774161	0.337699
934.952808	0.336853
935.131437	0.334477
935.310047	0.333877
935.488639	0.334106
935.667213	0.333110
935.845769	0.331630
936.024306	0.330209
936.202825	0.328476
936.381326	0.327259
936.559809	0.324678
936.738274	0.324313
936.916720	0.322670
937.095148	0.321017
937.273558	0.319913
937.451950	0.320190
937.630323	0.318028
937.808678	0.316953
937.987015	0.315614
938.165334	0.314952
938.343635	0.314032
938.521917	0.312149
938.700181	0.311274
938.878427	0.310179
939.056655	0.308363
939.234864	0.306654
939.413055	0.305429
939.591228	0.304133
939.769383	0.304118
939.947519	0.302483
940.125638	0.301714
940.303738	0.301807
940.481820	0.301121
940.659883	0.299323
940.837929	0.298212
941.015956	0.297130
941.193965	0.296066
941.371955	0.294262
941.549928	0.292095
941.727882	0.289640
941.905818	0.287244
942.083736	0.285278
942.261636	0.284000
942.439517	0.284558
942.617380	0.282130
942.795225	0.281742
942.973052	0.280350
943.150860	0.279125
943.328651	0.279302
943.506423	0.277128
943.684176	0.276063
943.861912	0.274165
944.039629	0.272435
944.217328	0.272117
944.395009	0.269121
944.572672	0.267650
944.750317	0.268199
944.927943	0.266267
945.105551	0.264371
945.283141	0.263936
945.460712	0.263594
945.638265	0.261734
945.815801	0.260531
945.993317	0.259464
946.170816	0.258114
946.348297	0.254655
946.525759	0.254305
946.703203	0.254219
946.880629	0.253202
947.058036	0.250765
947.235425	0.249187
947.412797	0.246403
947.590149	0.246489
947.767484	0.244775
947.944800	0.244866
948.122099	0.240817
948.299379	0.238278
948.476640	0.234188
948.653884	0.233896
948.831109	0.232224
949.008316	0.232997
949.185505	0.230192
949.362676	0.229629
949.539828	0.225557
949.716962	0.226885
949.894078	0.227325
950.071176	0.226865
950.248256	0.226216
950.425317	0.226856
950.602360	0.226191
950.779385	0.224721
950.956391	0.222668
951.133380	0.224906
951.310350	0.221306
951.487302	0.219154
951.664235	0.218023
951.841151	0.216822
952.018048	0.215350
952.194927	0.212598
952.371788	0.211434
952.548631	0.208909
952.725455	0.205255
952.902261	0.208571
953.079049	0.207699
953.255819	0.206552
953.432570	0.204513
953.609303	0.201783
953.786018	0.202517
953.962715	0.203835
954.139394	0.205894
954.316054	0.208034
954.492696	0.204593
954.669320	0.202961
954.845926	0.201147
955.022513	0.201170
955.199083	0.200803
955.375634	0.198372
955.552166	0.196313
955.728681	0.193247
955.905177	0.189250
956.081655	0.186528
956.258115	0.185604
956.434557	0.186986
956.610980	0.184345
956.787385	0.184063
956.963772	0.182343
957.140141	0.178104
957.316492	0.178950
957.492824	0.181526
957.669138	0.182962
957.845434	0.183190
958.021712	0.182526
958.197971	0.183481
958.374212	0.183871
958.550435	0.182924
958.726640	0.186634
958.902826	0.183104
959.078995	0.181677
959.255145	0.179313
959.431277	0.177874
959.607390	0.176487
959.783486	0.173643
959.959563	0.170833
960.135622	0.171499
960.311662	0.167858
960.487685	0.172017
960.663689	0.170208
960.839675	0.172992
961.015643	0.171215
961.191593	0.170631
961.367524	0.173850
961.543437	0.173986
961.719332	0.174279
961.895209	0.175377
962.071067	0.171821
962.246907	0.170940
962.422730	0.168676
962.598533	0.168529
962.774319	0.169659
962.950086	0.169230
963.125835	0.170311
963.301566	0.169893
963.477279	0.171474
963.652973	0.172443
963.828650	0.173598
964.004308	0.173567
964.179947	0.174445
964.355569	0.171154
964.531172	0.169483
964.706757	0.167991
964.882324	0.165565
965.057873	0.162574
965.233403	0.159930
965.408916	0.159843
965.584410	0.159623
965.759885	0.159435
965.935343	0.161384
966.110782	0.161321
966.286203	0.160626
966.461606	0.164463
966.636991	0.165238
966.812357	0.169330
966.987705	0.168458
967.163035	0.169823
967.338347	0.169190
967.513641	0.167900
967.688916	0.166866
967.864173	0.165507
968.039412	0.162896
968.214632	0.162259
968.389835	0.158584
968.565019	0.159861
968.740185	0.156535
968.915333	0.156400
969.090462	0.156619
969.265573	0.155533
969.440667	0.160222
969.615741	0.158437
969.790798	0.160861
969.965836	0.162310
970.140856	0.163999
970.315858	0.165184
970.490842	0.164841
970.665808	0.165746
970.840755	0.166335
971.015684	0.163040
971.190595	0.165057
971.365487	0.162876
971.540362	0.162166
971.715218	0.157215
971.890056	0.158919
972.064875	0.162628
972.239677	0.161822
972.414460	0.161881
972.589225	0.163976
972.763972	0.162241
972.938700	0.160970
973.113411	0.163462
973.288103	0.165650
973.462777	0.165678
973.637432	0.164315
973.812070	0.163062
973.986689	0.163149
974.161290	0.158956
974.335873	0.159453
974.510437	0.160116
974.684984	0.158335
974.859512	0.157960
975.034022	0.156771
975.208513	0.155328
975.382987	0.157122
975.557442	0.156331
975.731879	0.158009
975.906298	0.158420
976.080698	0.160391
976.255080	0.159777
976.429445	0.160404
976.603790	0.159194
976.778118	0.158937
976.952427	0.160804
977.126719	0.162957
977.300992	0.165667
977.475246	0.164398
977.649483	0.163343
977.823701	0.163580
977.997901	0.163696
978.172083	0.162061
978.346247	0.161563
978.520392	0.159279
978.694519	0.159422
978.868628	0.156889
979.042719	0.159185
979.216791	0.158469
979.390845	0.159796
979.564882	0.160161
979.738899	0.162523
979.912899	0.162670
980.086880	0.160187
980.260843	0.159833
980.434788	0.158200
980.608715	0.155162
980.782623	0.154695
980.956514	0.151281
981.130386	0.150006
981.304240	0.149243
981.478075	0.151068
981.651892	0.153045
981.825692	0.153247
981.999472	0.157424
982.173235	0.159724
982.346980	0.160132
982.520706	0.160409
982.694414	0.159839
982.868104	0.160566
983.041775	0.157455
983.215428	0.156451
983.389064	0.157310
983.562680	0.155875
983.736279	0.155630
983.909860	0.156391
984.083422	0.156673
984.256966	0.157231
984.430491	0.156903
984.603999	0.157387
984.777488	0.155602
984.950959	0.153026
985.124412	0.153731
985.297847	0.152769
985.471263	0.153267
985.644661	0.155725
985.818041	0.156382
985.991403	0.154884
986.164747	0.157408
986.338072	0.159336
986.511379	0.160636
986.684668	0.159037
986.857938	0.157957
987.031191	0.155641
987.204425	0.152694
987.377641	0.152259
987.550839	0.152981
987.724018	0.149339
987.897179	0.151057
988.070322	0.152478
988.243447	0.154075
988.416554	0.157509
988.589642	0.158664
988.762712	0.162000
988.935764	0.160792
989.108798	0.161502
989.281813	0.163225
989.454811	0.161674
989.627790	0.161354
989.800751	0.158535
989.973693	0.156002
990.146617	0.157163
990.319524	0.156833
990.492412	0.159720
990.665281	0.159592
990.838133	0.160207
991.010966	0.163096
991.183781	0.160598
991.356578	0.161116
991.529356	0.163960
991.702117	0.162573
991.874859	0.161607
992.047583	0.162100
992.220288	0.161515
992.392976	0.162468
992.565645	0.161383
992.738296	0.162995
992.910929	0.163548
993.083543	0.162952
993.256139	0.162737
993.428718	0.162982
993.601277	0.161679
993.773819	0.160671
993.946342	0.159313
994.118848	0.158785
994.291335	0.157991
994.463803	0.156222
994.636254	0.155920
994.808686	0.157980
994.981100	0.157947
995.153496	0.157729
995.325874	0.159119
995.498233	0.157819
995.670574	0.158140
995.842897	0.157540
996.015202	0.161018
996.187488	0.160441
996.359757	0.157908
996.532007	0.158658
996.704239	0.158268
996.876452	0.159486
997.048648	0.160909
997.220825	0.159265
997.392984	0.160170
997.565124	0.157846
997.737247	0.157453
997.909351	0.158525
998.081437	0.159508
998.253505	0.158987
998.425554	0.158219
998.597586	0.158222
998.769599	0.158001
998.941594	0.158925
999.113571	0.157813
999.285529	0.158746
999.457469	0.158479
999.629391	0.158470
999.801295	0.158643
999.973181	0.160895
1000.145048	0.160588
1000.316897	0.161077
1000.488728	0.160351
1000.660541	0.162286
1000.832335	0.160819
1001.004111	0.161061
1001.175869	0.159619
1001.347609	0.161382
1001.519331	0.160413
1001.691034	0.160683
1001.862719	0.163564
1002.034386	0.163800
1002.206035	0.163908
1002.377665	0.165724
1002.549277	0.166920
1002.720871	0.165882
1002.892447	0.165159
1003.064004	0.164240
1003.235544	0.165007
1003.407065	0.162171
1003.578568	0.161060
1003.750052	0.161463
1003.921519	0.160151
1004.092967	0.158049
1004.264397	0.158799
1004.435809	0.158393
1004.607202	0.158218
1004.778577	0.159613
1004.949934	0.160325
1005.121273	0.161474
1005.292594	0.163238
1005.463896	0.162350
1005.635180	0.163058
1005.806446	0.163837
1005.977694	0.163864
1006.148923	0.163002
1006.320135	0.161201
1006.491328	0.160296
1006.662503	0.159405
1006.833659	0.158191
1007.004798	0.158489
1007.175918	0.159903
1007.347020	0.158832
1007.518103	0.158203
1007.689169	0.159284
1007.860216	0.159472
1008.031245	0.159978
1008.202256	0.160908
1008.373248	0.161775
1008.544223	0.162084
1008.715179	0.162491
1008.886117	0.162664
1009.057036	0.162642
1009.227938	0.162720
1009.398821	0.162726
1009.569686	0.163502
1009.740533	0.164617
1009.911361	0.162443
1010.082172	0.162283
1010.252964	0.159811
1010.423738	0.159425
1010.594493	0.160684
1010.765231	0.160092
1010.935950	0.159641
1011.106651	0.160272
1011.277334	0.157381
1011.447998	0.157418
1011.618645	0.157965
1011.789273	0.160906
1011.959882	0.162486
1012.130474	0.162857
1012.301048	0.163152
1012.471603	0.163698
1012.642140	0.161416
1012.812658	0.162181
1012.983159	0.161506
1013.153641	0.161024
1013.324105	0.158114
1013.494551	0.156042
1013.664979	0.153733
1013.835388	0.153061
1014.005779	0.153060
1014.176152	0.154209
1014.346507	0.154091
1014.516843	0.155022
1014.687162	0.155821
1014.857462	0.155137
1015.027744	0.156068
1015.198007	0.157073
1015.368252	0.158385
1015.538480	0.156969
1015.708689	0.154944
1015.878879	0.155300
1016.049052	0.153883
1016.219206	0.154257
1016.389342	0.154658
1016.559460	0.154248
1016.729559	0.154015
1016.899641	0.154840
1017.069704	0.156024
1017.239749	0.157497
1017.409775	0.157465
1017.579784	0.159497
1017.749774	0.158767
1017.919746	0.158820
1018.089700	0.160177
1018.259635	0.158530
1018.429553	0.157385
1018.599452	0.159170
1018.769333	0.161503
1018.939195	0.161397
1019.109040	0.160882
1019.278866	0.161293
1019.448674	0.163386
1019.618464	0.163006
1019.788235	0.164430
1019.957989	0.165087
1020.127724	0.163408
1020.297441	0.161272
1020.467139	0.161896
1020.636820	0.162770
1020.806482	0.161712
1020.976126	0.160870
1021.145752	0.159180
1021.315359	0.159042
1021.484948	0.156955
1021.654519	0.156820
1021.824072	0.155780
1021.993607	0.156004
1022.163123	0.155316
1022.332621	0.156211
1022.502101	0.156152
1022.671563	0.157521
1022.841007	0.158731
1023.010432	0.160046
1023.179839	0.159344
1023.349228	0.161751
1023.518598	0.160743
1023.687951	0.159983
1023.857285	0.159353
1024.026601	0.160767
1024.195899	0.160732
1024.365178	0.161117
1024.534439	0.161260
1024.703682	0.163664
1024.872907	0.162509
1025.042114	0.164412
1025.211302	0.164564
1025.380472	0.167039
1025.549624	0.165301
1025.718758	0.161619
1025.887873	0.160861
1026.056970	0.159559
1026.226049	0.157079
1026.395110	0.156345
1026.564153	0.154486
1026.733177	0.156430
1026.902183	0.155024
1027.071171	0.156132
1027.240141	0.159529
1027.409092	0.158869
1027.578026	0.158979
1027.746940	0.161239
1027.915837	0.162507
1028.084716	0.160674
1028.253576	0.160935
1028.422418	0.159389
1028.591242	0.159392
1028.760048	0.160928
1028.928835	0.162119
1029.097604	0.162460
1029.266355	0.163029
1029.435088	0.161650
1029.603803	0.164718
1029.772499	0.163059
1029.941177	0.164660
1030.109837	0.165264
1030.278478	0.164887
1030.447102	0.163880
1030.615707	0.164901
1030.784294	0.161892
1030.952863	0.161849
1031.121413	0.162298
1031.289945	0.162238
1031.458460	0.159765
1031.626955	0.158899
1031.795433	0.156049
1031.963892	0.155056
1032.132334	0.153639
1032.300756	0.153526
1032.469161	0.155893
1032.637548	0.153562
1032.805916	0.154462
1032.974266	0.156798
1033.142598	0.155107
1033.310911	0.157699
1033.479207	0.159013
1033.647484	0.160137
1033.815743	0.161266
1033.983983	0.160569
1034.152206	0.160214
1034.320410	0.158237
1034.488596	0.156641
1034.656764	0.155398
1034.824914	0.155453
1034.993045	0.154685
1035.161158	0.154658
1035.329253	0.154333
1035.497330	0.154119
1035.665388	0.157265
1035.833428	0.157074
1036.001450	0.156405
1036.169454	0.157154
1036.337440	0.157045
1036.505407	0.159566
1036.673356	0.159183
1036.841287	0.159386
1037.009200	0.158017
1037.177094	0.156048
1037.344970	0.157950
1037.512828	0.160674
1037.680668	0.163405
1037.848489	0.161378
1038.016293	0.160600
1038.184078	0.161343
1038.351845	0.161163
1038.519593	0.161420
1038.687324	0.159868
1038.855036	0.159804
1039.022730	0.158950
1039.190406	0.156870
1039.358063	0.157861
1039.525702	0.156656
1039.693323	0.155498
1039.860926	0.155925
1040.028511	0.153987
1040.196077	0.155651
1040.363625	0.154420
1040.531155	0.154509
1040.698667	0.156731
1040.866161	0.157407
1041.033636	0.157921
1041.201093	0.159653
1041.368532	0.160520
1041.535952	0.163044
1041.703355	0.164678
1041.870739	0.164893
1042.038105	0.165478
1042.205452	0.164154
1042.372782	0.164091
1042.540093	0.165292
1042.707386	0.162893
1042.874661	0.162645
1043.041918	0.162044
1043.209156	0.161291
1043.376376	0.161748
1043.543578	0.158707
1043.710762	0.159019
1043.877927	0.158165
1044.045074	0.157063
1044.212203	0.159066
1044.379314	0.158253
1044.546407	0.158337
1044.713481	0.157462
1044.880537	0.158414
1045.047575	0.159732
1045.214595	0.160085
1045.381596	0.161679
1045.548579	0.160588
1045.715544	0.160386
1045.882491	0.160488
1046.049420	0.162060
1046.216330	0.161922
1046.383222	0.161841
1046.550096	0.162217
1046.716951	0.161792
1046.883789	0.161419
1047.050608	0.162188
1047.217409	0.161514
1047.384192	0.162854
1047.550956	0.162617
1047.717703	0.163617
1047.884431	0.161753
1048.051140	0.162251
1048.217832	0.160832
1048.384505	0.162046
1048.551161	0.159858
1048.717798	0.159048
1048.884416	0.158485
1049.051017	0.156336
1049.217599	0.155722
1049.384163	0.158187
1049.550709	0.159924
1049.717237	0.163715
1049.883746	0.161625
1050.050237	0.164588
1050.216710	0.167359
1050.383165	0.166913
1050.549601	0.167345
1050.716019	0.167194
1050.882420	0.164913
1051.048801	0.165476
1051.215165	0.163726
1051.381510	0.164932
1051.547837	0.165062
1051.714146	0.163897
1051.880437	0.163305
1052.046709	0.166410
1052.212964	0.166567
1052.379200	0.167643
1052.545417	0.165245
1052.711617	0.165372
1052.877798	0.163833
1053.043961	0.164704
1053.210106	0.164534
1053.376233	0.165382
1053.542341	0.164324
1053.708432	0.164458
1053.874504	0.163730
1054.040557	0.162618
1054.206593	0.163439
1054.372610	0.164006
1054.538609	0.163387
1054.704590	0.163139
1054.870553	0.161989
1055.036497	0.161496
1055.202424	0.160758
1055.368331	0.161834
1055.534221	0.162090
1055.700093	0.160030
1055.865946	0.161264
1056.031781	0.157718
1056.197598	0.159625
1056.363397	0.158819
1056.529177	0.157202
1056.694939	0.160650
1056.860683	0.160148
1057.026409	0.161282
1057.192116	0.159705
1057.357806	0.159008
1057.523477	0.160613
1057.689130	0.158830
1057.854764	0.160914
1058.020381	0.161849
1058.185979	0.158481
1058.351559	0.158211
1058.517120	0.157879
1058.682664	0.161809
1058.848189	0.161306
1059.013696	0.161848
1059.179185	0.163652
1059.344656	0.164055
1059.510108	0.165141
1059.675542	0.168804
1059.840958	0.168834
1060.006356	0.168034
1060.171735	0.165030
1060.337096	0.162700
1060.502439	0.164073
1060.667764	0.161688
1060.833071	0.162554
1060.998359	0.160603
1061.163629	0.159191
1061.328881	0.158782
1061.494115	0.160641
1061.659330	0.161967
1061.824527	0.163658
1061.989706	0.162975
1062.154867	0.164305
1062.320010	0.163055
1062.485134	0.165911
1062.650240	0.164198
1062.815328	0.165502
1062.980398	0.163430
1063.145449	0.161475
1063.310482	0.160140
1063.475497	0.158631
1063.640494	0.155425
1063.805473	0.155961
1063.970433	0.152627
1064.135375	0.152887
1064.300299	0.152595
1064.465204	0.153858
1064.630092	0.155331
1064.794961	0.158536
1064.959812	0.158529
1065.124645	0.161792
1065.289459	0.160061
1065.454256	0.163254
1065.619034	0.164005
1065.783793	0.163840
1065.948535	0.166567
1066.113258	0.166033
1066.277964	0.165685
1066.442651	0.168572
1066.607319	0.167838
1066.771970	0.168763
1066.936602	0.166062
1067.101216	0.166013
1067.265812	0.164953
1067.430389	0.161826
1067.594949	0.165566
1067.759490	0.165039
1067.924013	0.164713
1068.088518	0.162236
1068.253004	0.161980
1068.417472	0.165572
1068.581922	0.163571
1068.746354	0.165737
1068.910768	0.166644
1069.075163	0.164718
1069.239540	0.162770
1069.403899	0.158677
1069.568240	0.161530
1069.732562	0.162108
1069.896866	0.158105
1070.061152	0.158738
1070.225420	0.160772
1070.389670	0.160873
1070.553901	0.160212
1070.718114	0.162937
1070.882309	0.165846
1071.046486	0.166317
1071.210644	0.168557
1071.374784	0.169758
1071.538906	0.171933
1071.703010	0.169249
1071.867096	0.169358
1072.031163	0.170428
1072.195212	0.171354
1072.359243	0.171149
1072.523256	0.170382
1072.687250	0.167304
1072.851226	0.167662
1073.015184	0.169298
1073.179124	0.169311
1073.343045	0.167940
1073.506949	0.166103
1073.670834	0.165474
1073.834701	0.167867
1073.998549	0.169123
1074.162380	0.169396
1074.326192	0.169196
1074.489986	0.166359
1074.653761	0.165951
1074.817519	0.165782
1074.981258	0.166826
1075.144979	0.164514
1075.308682	0.163807
1075.472367	0.163664
1075.636033	0.164904
1075.799681	0.164531
1075.963311	0.166828
1076.126923	0.166974
1076.290516	0.168107
1076.454092	0.166761
1076.617649	0.171837
1076.781187	0.171011
1076.944708	0.167609
1077.108210	0.166589
1077.271695	0.164608
1077.435160	0.161328
1077.598608	0.160628
1077.762038	0.163451
1077.925449	0.167192
1078.088842	0.164985
1078.252217	0.164394
1078.415573	0.167821
1078.578912	0.166643
1078.742232	0.172811
1078.905534	0.172984
1079.068817	0.175357
1079.232083	0.169813
1079.395330	0.170304
1079.558559	0.171301
1079.721770	0.171322
1079.884962	0.170880
1080.048136	0.176278
1080.211293	0.173488
1080.374430	0.177256
1080.537550	0.178542
1080.700651	0.183408
1080.863735	0.178658
1081.026800	0.177344
1081.189846	0.178126
1081.352875	0.176550
1081.515885	0.173670
1081.678877	0.174484
1081.841851	0.173355
1082.004807	0.171822
1082.167744	0.169184
1082.330663	0.173196
1082.493564	0.173003
1082.656447	0.174345
1082.819312	0.174494
1082.982158	0.174235
1083.144986	0.171705
1083.307796	0.173187
1083.470587	0.173995
1083.633361	0.174778
1083.796116	0.174877
1083.958853	0.173842
1084.121571	0.171364
1084.284272	0.170053
1084.446954	0.170149
1084.609618	0.174330
1084.772264	0.170485
1084.934892	0.169985
1085.097501	0.171104
1085.260092	0.172562
1085.422665	0.173237
1085.585220	0.173528
1085.747756	0.174797
1085.910274	0.174561
1086.072774	0.173139
1086.235256	0.173814
1086.397720	0.173243
1086.560165	0.171411
1086.722592	0.167443
1086.885001	0.164782
1087.047392	0.164000
1087.209764	0.165854
1087.372119	0.164079
1087.534455	0.161442
1087.696772	0.160646
1087.859072	0.161232
1088.021353	0.162013
1088.183616	0.163008
1088.345861	0.167418
1088.508088	0.166319
1088.670296	0.165999
1088.832486	0.166837
1088.994658	0.168919
1089.156812	0.170694
1089.318948	0.167926
1089.481065	0.168169
1089.643164	0.171333
1089.805245	0.169087
1089.967308	0.170361
1090.129352	0.171581
1090.291378	0.173281
1090.453386	0.172775
1090.615376	0.171377
1090.777347	0.173214
1090.939301	0.172440
1091.101236	0.174798
1091.263153	0.169760
1091.425051	0.170538
1091.586932	0.168576
1091.748794	0.165882
1091.910638	0.164967
1092.072463	0.166415
1092.234271	0.163546
1092.396060	0.164406
1092.557831	0.158945
1092.719584	0.167446
1092.881319	0.166385
1093.043035	0.169046
1093.204733	0.171011
1093.366413	0.172310
1093.528075	0.174167
1093.689718	0.177070
1093.851343	0.178423
1094.012950	0.175604
1094.174539	0.171230
1094.336110	0.172870
1094.497662	0.168711
1094.659196	0.166564
1094.820712	0.169318
1094.982210	0.165344
1095.143689	0.166324
1095.305151	0.163246
1095.466594	0.163981
1095.628018	0.167247
1095.789425	0.170680
1095.950813	0.173626
1096.112183	0.172110
1096.273535	0.168210
1096.434869	0.170016
1096.596184	0.164471
1096.757482	0.165582
1096.918761	0.169291
1097.080021	0.166873
1097.241264	0.165381
1097.402488	0.165539
1097.563694	0.167725
1097.724882	0.166391
1097.886052	0.166913
1098.047203	0.168491
1098.208336	0.167464
1098.369451	0.167737
1098.530548	0.168904
1098.691627	0.164959
1098.852687	0.165923
1099.013729	0.168698
1099.174753	0.175187
1099.335758	0.171576
1099.496746	0.181453
1099.657715	0.183293
1099.818666	0.180587
1099.979599	0.183011
1100.140513	0.184435
1100.301409	0.181298
1100.462287	0.178525
1100.623147	0.178054
1100.783989	0.180686
1100.944812	0.173897
1101.105617	0.176265
1101.266404	0.175196
1101.427173	0.175145
1101.587923	0.174341
1101.748656	0.178108
1101.909370	0.177880
1102.070066	0.170445
1102.230743	0.171856
1102.391403	0.175383
1102.552044	0.174711
1102.712667	0.172073
1102.873271	0.172670
1103.033858	0.177914
1103.194426	0.179524
1103.354976	0.176940
1103.515508	0.182264
1103.676021	0.183055
1103.836517	0.179147
1103.996994	0.175604
1104.157453	0.175986
1104.317893	0.168072
1104.478316	0.166949
1104.638720	0.164097
1104.799106	0.174176
1104.959474	0.176681
1105.119823	0.177571
1105.280155	0.183562
1105.440468	0.185389
1105.600763	0.191358
1105.761039	0.195113
1105.921298	0.195016
1106.081538	0.197452
1106.241760	0.193608
1106.401964	0.190828
1106.562149	0.187845
1106.722316	0.186629
1106.882465	0.184709
1107.042596	0.190575
1107.202709	0.194752
1107.362803	0.192277
1107.522879	0.186355
1107.682937	0.185025
1107.842977	0.185089
1108.002999	0.189896
1108.163002	0.189423
1108.322987	0.195754
1108.482954	0.185390
1108.642902	0.184879
1108.802833	0.182584
1108.962745	0.182638
1109.122639	0.182482
1109.282515	0.180575
1109.442372	0.178415
1109.602211	0.179920
1109.762032	0.168546
1109.921835	0.173297
1110.081620	0.166671
1110.241386	0.168047
1110.401134	0.172045
1110.560864	0.174379
1110.720576	0.178980
1110.880269	0.182970
1111.039945	0.183063
1111.199602	0.192045
1111.359240	0.196065
1111.518861	0.202002
1111.678463	0.202265
1111.838047	0.200615
1111.997613	0.199135
1112.157161	0.186892
1112.316690	0.182672
1112.476202	0.179628
1112.635695	0.186154
1112.795169	0.179286
1112.954626	0.179652
1113.114064	0.182452
1113.273484	0.181094
1113.432886	0.179082
1113.592270	0.196400
1113.751635	0.195764
1113.910983	0.197151
1114.070312	0.196296
1114.229622	0.200242
1114.388915	0.199321
1114.548189	0.207801
1114.707445	0.209042
1114.866683	0.213922
1115.025903	0.204010
1115.185104	0.199512
1115.344287	0.201641
1115.503452	0.199917
1115.662599	0.199965
1115.821727	0.205094
1115.980838	0.200168
1116.139930	0.202782
1116.299004	0.198330
1116.458059	0.202819
1116.617097	0.209209
1116.776116	0.203784
1116.935117	0.200837
1117.094099	0.197120
1117.253064	0.199162
1117.412010	0.197518
1117.570938	0.196438
1117.729848	0.194520
1117.888740	0.193147
1118.047613	0.190696
1118.206468	0.193628
1118.365305	0.199825
1118.524124	0.202309
1118.682924	0.193660
1118.841707	0.197029
1119.000471	0.203192
1119.159216	0.207715
1119.317944	0.211467
1119.476653	0.210184
1119.635344	0.207344
1119.794017	0.200721
1119.952672	0.204154
1120.111308	0.208609
1120.269927	0.204857
1120.428527	0.196012
1120.587108	0.190860
1120.745672	0.191246
1120.904217	0.191685
1121.062744	0.190301
1121.221253	0.189475
1121.379744	0.188942
1121.538216	0.186379
1121.696671	0.185414
1121.855107	0.187997
1122.013524	0.190472
1122.171924	0.195195
1122.330305	0.198997
1122.488668	0.197771
1122.647013	0.199040
1122.805340	0.193961
1122.963648	0.199334
1123.121938	0.208964
1123.280210	0.209408
1123.438464	0.218242
1123.596700	0.211713
1123.754917	0.215479
1123.913116	0.221627
1124.071297	0.217416
1124.229459	0.222014
1124.387604	0.214952
1124.545730	0.203113
1124.703838	0.206589
1124.861928	0.199865
1125.019999	0.200242
1125.178052	0.200984
1125.336088	0.194140
1125.494104	0.203565
1125.652103	0.205154
1125.810083	0.207038
1125.968045	0.201711
1126.125989	0.193924
1126.283915	0.197049
1126.441823	0.194795
1126.599712	0.185816
1126.757583	0.194220
1126.915436	0.196172
1127.073270	0.189108
1127.231087	0.190485
1127.388885	0.207019
1127.546665	0.211664
1127.704426	0.208741
1127.862170	0.204821
1128.019895	0.207917
1128.177602	0.206861
1128.335291	0.201508
1128.492961	0.206915
1128.650614	0.200924
1128.808248	0.192260
1128.965864	0.198603
1129.123461	0.208344
1129.281041	0.216596
1129.438602	0.211910
1129.596145	0.210071
1129.753670	0.207697
1129.911176	0.204444
1130.068665	0.209264
1130.226135	0.207534
1130.383587	0.205364
1130.541020	0.195150
1130.698436	0.195398
1130.855833	0.196042
1131.013212	0.194958
1131.170573	0.195776
1131.327915	0.195360
1131.485239	0.197871
1131.642545	0.201885
1131.799833	0.201000
1131.957103	0.202748
1132.114354	0.204376
1132.271588	0.211841
1132.428803	0.205120
1132.585999	0.199714
1132.743178	0.202222
1132.900338	0.204950
1133.057480	0.202694
1133.214604	0.188379
1133.371710	0.185628
1133.528797	0.182387
1133.685866	0.177447
1133.842917	0.182345
1133.999950	0.191514
1134.156964	0.193307
1134.313960	0.184692
1134.470938	0.183309
1134.627898	0.189388
1134.784840	0.182170
1134.941763	0.180749
1135.098668	0.185413
1135.255555	0.182442
1135.412424	0.172309
1135.569274	0.175232
1135.726107	0.173466
1135.882921	0.180819
1136.039716	0.191760
1136.196494	0.201201
1136.353253	0.202810
1136.509995	0.200198
1136.666717	0.204178
1136.823422	0.211858
1136.980109	0.209913
1137.136777	0.221934
1137.293427	0.218938
1137.450059	0.216958
1137.606672	0.204464
1137.763267	0.204703
1137.919844	0.203699
1138.076403	0.207716
1138.232944	0.212647
1138.389466	0.210683
1138.545971	0.209311
1138.702457	0.209944
1138.858924	0.215800
1139.015374	0.223992
1139.171805	0.216904
1139.328218	0.222173
1139.484613	0.214955
1139.640990	0.204272
1139.797348	0.188308
1139.953688	0.189418
1140.110010	0.181610
1140.266314	0.184692
1140.422600	0.193094
1140.578867	0.197182
1140.735116	0.185286
1140.891347	0.204191
1141.047559	0.207790
1141.203754	0.218558
1141.359930	0.216765
1141.516088	0.215970
1141.672228	0.198191
1141.828349	0.198619
1141.984452	0.193378
1142.140537	0.203334
1142.296604	0.192991
1142.452653	0.200458
1142.608683	0.206761
1142.764695	0.199221
1142.920689	0.197535
1143.076665	0.192159
1143.232622	0.184010
1143.388562	0.191567
1143.544483	0.201505
1143.700385	0.205959
1143.856270	0.211704
1144.012136	0.201587
1144.167985	0.209863
1144.323814	0.216243
1144.479626	0.243802
1144.635420	0.255305
1144.791195	0.253922
1144.946952	0.227484
1145.102691	0.217576
1145.258411	0.211395
1145.414113	0.225306
1145.569798	0.221166
1145.725463	0.221068
1145.881111	0.211533
1146.036741	0.199779
1146.192352	0.196070
1146.347945	0.223649
1146.503519	0.222551
1146.659076	0.208233
1146.814614	0.212020
1146.970134	0.211892
1147.125636	0.206954
1147.281120	0.214552
1147.436585	0.213660
1147.592032	0.217631
1147.747461	0.198501
1147.902872	0.203139
1148.058265	0.216967
1148.213639	0.199820
1148.368995	0.203157
1148.524333	0.201374
1148.679653	0.197386
1148.834954	0.210243
1148.990237	0.207810
1149.145502	0.203474
1149.300749	0.206600
1149.455977	0.200398
1149.611188	0.212831
1149.766380	0.215028
1149.921553	0.221513
1150.076709	0.217217
1150.231846	0.197831
1150.386966	0.203310
1150.542066	0.214778
1150.697149	0.206800
1150.852214	0.212429
1151.007260	0.210505
1151.162288	0.197362
1151.317298	0.191299
1151.472289	0.190564
1151.627263	0.215753
1151.782218	0.207989
1151.937155	0.219156
1152.092073	0.224721
1152.246974	0.221589
1152.401856	0.208954
1152.556720	0.216105
1152.711566	0.221255
1152.866393	0.201434
1153.021203	0.196720
1153.175994	0.201411
1153.330767	0.190897
1153.485521	0.188706
1153.640258	0.190071
1153.794976	0.194516
1153.949676	0.182050
1154.104358	0.187220
1154.259021	0.204119
1154.413667	0.208702
1154.568294	0.204706
1154.722903	0.200707
1154.877493	0.190696
1155.032066	0.177847
1155.186620	0.189558
1155.341156	0.201157
1155.495674	0.198562
1155.650173	0.184629
1155.804654	0.171069
1155.959118	0.165144
1156.113562	0.163943
1156.267989	0.171530
1156.422397	0.185419
1156.576788	0.173459
1156.731160	0.186506
1156.885513	0.181644
1157.039849	0.179318
1157.194166	0.177060
1157.348465	0.192919
1157.502746	0.190771
1157.657009	0.190473
1157.811253	0.193075
1157.965479	0.203114
1158.119687	0.180551
1158.273877	0.198781
1158.428048	0.215786
1158.582201	0.220886
1158.736337	0.208508
1158.890453	0.207589
1159.044552	0.220448
1159.198632	0.208107
1159.352694	0.215987
1159.506738	0.208251
1159.660764	0.212425
1159.814771	0.232357
1159.968761	0.234424
1160.122732	0.259631
1160.276685	0.251454
1160.430619	0.253307
1160.584535	0.256552
1160.738434	0.235941
1160.892313	0.264985
1161.046175	0.252836
1161.200019	0.240343
1161.353844	0.235931
1161.507651	0.218784
1161.661440	0.237714
1161.815210	0.228907
1161.968962	0.225821
1162.122697	0.241294
1162.276412	0.219985
1162.430110	0.213004
1162.583789	0.200658
1162.737451	0.197704
1162.891094	0.223346
1163.044718	0.209790
1163.198325	0.228753
1163.351913	0.230080
1163.505483	0.206320
1163.659035	0.217959
1163.812569	0.204801
1163.966084	0.184726
1164.119581	0.203386
1164.273060	0.176298
1164.426521	0.173329
1164.579964	0.143198
1164.733388	0.126654
1164.886794	0.138529
1165.040182	0.141452
1165.193551	0.136464
1165.346903	0.137953
1165.500236	0.142753
1165.653551	0.140865
1165.806848	0.175006
1165.960126	0.180880
1166.113386	0.194837
1166.266628	0.220969
1166.419852	0.243515
1166.573058	0.264936
1166.726245	0.296866
1166.879414	0.277236
1167.032565	0.282857
1167.185698	0.256092
1167.338812	0.268677
1167.491909	0.269520
1167.644987	0.264760
1167.798046	0.227945
1167.951088	0.227992
1168.104111	0.213993
1168.257117	0.190477
1168.410103	0.183015
1168.563072	0.166417
1168.716023	0.157398
1168.868955	0.173104
1169.021869	0.165002
1169.174765	0.166883
1169.327642	0.178198
1169.480501	0.202482
1169.633343	0.201388
1169.786165	0.218243
1169.938970	0.247999
1170.091757	0.253757
1170.244525	0.233838
1170.397275	0.215627
1170.550007	0.251681
1170.702720	0.226635
1170.855415	0.230906
1171.008092	0.228533
1171.160751	0.180916
1171.313392	0.143735
1171.466014	0.473960
1171.618619	-0.012597
1171.771205	-0.012597
1171.923772	-0.012597
