sample name	sample
index	579
start time	 03-16-2021  03:36:17 PM
880	0.429226
Peak Time (s)	181.534
Peak Height 	0.4292
calc peak height	180,183
Baseline Time (s)	11.035
Baseline Value 	-0.002808
subtract baseline	10,4
Abs	0.303881
Peak Time (s)	182.54
Peak Height 	0.3039
calc peak height	180,183
Baseline Time (s)	11.035
Baseline Value 	0.004439
subtract baseline	10,3
PK_550	0.163656
Peak Time (s)	180.537
Peak Height 	0.1637
calc peak height	180,183
Baseline Time (s)	10.037
Baseline Value 	4.1101E-4
subtract baseline	10,2
PK_880	0.287725
Peak Time (s)	182.037
Peak Height 	0.2877
calc peak height	180,183
Baseline Time (s)	11.535
Baseline Value 	-3.8351E-4
subtract baseline	10,1


Time (s)	A880-A510	A880-A775	A880-A975	A880	I510	I775	I975	I880	
0.034000	-0.000136	0.000127	-0.001833	0.000897	5584.147694	33963.726678	3634.442101	18411.696624
0.534500	-0.000356	-0.000876	-0.004958	0.006927	5544.802361	33464.013360	3617.211049	18196.756551
1.037500	0.000570	-0.000146	-0.001720	0.004227	5567.558708	33706.661215	3628.345466	18292.628805
1.536500	-0.000381	-0.000243	-0.005593	0.000004	5588.262282	34001.204115	3629.006337	18443.781163
2.035500	0.001306	0.000421	-0.001696	0.000372	5596.648922	34022.448988	3635.703199	18430.560246
2.535500	-0.001890	0.000201	-0.006966	0.004673	5549.306534	33699.622901	3617.668230	18276.748732
3.035500	0.002935	-0.000401	0.000001	-0.001484	5618.935692	34096.685605	3642.498042	18497.391459
3.536500	0.000079	-0.000763	-0.003783	0.000175	5590.091581	33951.661883	3632.109687	18437.624590
4.036500	0.001620	-0.000187	-0.001127	0.000938	5595.044383	33938.306788	3635.708759	18410.229741
4.536500	0.000874	-0.000097	-0.000553	0.000832	5590.973225	33952.286844	3637.004199	18414.023963
5.034000	0.000403	-0.000441	-0.005985	0.000329	5591.178418	33963.678961	3627.653129	18432.095410
5.537500	-0.001264	-0.000864	-0.004971	-0.000606	5586.521870	34000.332856	3631.336428	18465.714364
6.035000	0.000605	0.000021	-0.008962	0.000493	5591.419433	33985.070484	3621.749356	18426.203458
6.534500	0.003013	0.000435	-0.000485	0.000209	5608.579235	34035.094104	3638.321724	18436.392365
7.035000	0.002104	0.001201	-0.002790	0.001155	5596.739933	34022.139354	3632.132151	18402.418734
7.535500	-0.000499	-0.000339	-0.004886	-0.000139	5588.417029	34004.480224	3630.613122	18448.906992
8.036000	0.000654	0.000484	0.001524	0.000625	5590.889577	34008.738592	3641.373157	18421.448612
8.539500	0.001650	0.000448	-0.002935	0.000259	5599.561353	34032.437518	3633.559138	18434.611201
9.036500	0.001337	0.001197	-0.002708	0.000853	5593.783479	34043.605841	3632.861912	18413.275796
9.536500	-0.003005	-0.000109	0.004567	-0.000038	5571.910802	34013.763134	3648.511724	18445.285043
10.037000	-0.000008	0.000000	0.001808	-0.000504	5593.860260	34055.063620	3644.088147	18462.055083
10.534500	-0.000189	-0.000073	0.003761	0.000128	5588.685712	34004.439721	3646.632670	18439.301104
11.035000	0.000460	0.000264	0.000000	0.000000	5593.631795	34037.863118	3639.650592	18443.919022
11.535000	0.000000	-0.000042	-0.000601	-0.000809	5595.853792	34073.974394	3640.049022	18473.058337
12.036000	0.001486	0.000342	-0.000658	-0.000604	5604.021553	34086.859582	3639.547361	18465.659885
12.535500	0.000001	0.000450	-0.005306	-0.000299	5592.610226	34072.677284	3630.121910	18454.680728
13.036000	0.001757	0.000368	0.000209	-0.001064	5608.689120	34121.781543	3642.091126	18482.230461
13.540000	0.001638	0.000353	-0.001405	-0.000830	5606.438762	34103.935755	3638.550581	18473.815738
14.037000	0.000466	0.000290	0.002745	0.002830	5575.720984	33837.139081	3639.487853	18342.452821
14.537000	0.000305	0.000501	-0.005917	0.001947	5580.287758	33915.295905	3624.734224	18374.045153
15.034500	0.004850	0.000883	-0.001588	-0.000517	5625.028445	34119.501296	3637.603686	18462.520040
15.534500	0.001212	0.000475	-0.002873	-0.000192	5599.641543	34066.756581	3634.534299	18450.812390
16.035000	0.000527	-0.000284	-0.004627	-0.001987	5606.725430	34141.252954	3634.611227	18515.533148
16.535500	0.000246	0.001511	-0.000876	-0.000632	5596.289179	34173.081271	3639.183118	18466.673873
17.036000	0.004126	0.000547	-0.000721	-0.003339	5638.561717	34298.966379	3644.676738	18564.470146
17.535500	0.001998	0.000735	0.001112	0.001002	5597.045969	33999.770260	3639.861564	18407.938558
18.039000	0.002001	-0.000152	-0.001622	0.000263	5601.775988	33989.122344	3636.050247	18434.462573
18.536500	-0.000950	0.000227	-0.001166	0.001104	5577.680869	33956.016015	3635.317095	18404.266017
19.037000	-0.002909	-0.000042	-0.007218	0.000512	5569.041653	33979.114314	3624.983738	18425.497527
19.537000	0.000618	-0.000157	-0.000750	0.000707	5590.140446	33956.919501	3636.865353	18418.500800
20.037500	0.000236	0.001757	0.001163	0.002046	5579.226959	33998.143448	3637.961612	18370.507639
20.535000	-0.001908	0.000611	-0.001876	0.001024	5572.129928	33989.228748	3634.117002	18407.114259
21.035000	0.003011	-0.000046	-0.004338	0.000700	5605.433844	33965.370849	3630.063900	18418.759341
21.535000	0.000221	-0.000475	-0.000518	0.000970	5585.946508	33915.370264	3636.805845	18409.052445
22.036000	-0.000129	-0.000357	-0.000720	0.000444	5587.064275	33961.446505	3637.424559	18427.942929
22.536500	0.001077	0.000123	-0.000463	0.000561	5593.985016	33987.416393	3637.692560	18423.738443
23.036000	0.004201	0.000537	-0.007011	0.000760	5612.657162	34002.835504	3624.908152	18416.596608
23.537000	0.000368	0.000123	-0.006344	0.001210	5585.358004	33940.964748	3625.316273	18400.443520
24.037500	-0.000205	0.000371	-0.004145	0.000669	5585.155429	33997.504130	3630.485620	18419.858702
24.537500	-0.001227	-0.000562	-0.001927	0.000200	5581.651431	33964.277427	3635.589830	18436.735738
25.035000	-0.001399	0.000014	-0.003232	0.000615	5577.932408	33975.743794	3632.318404	18421.806542
25.535000	-0.000402	-0.000092	-0.001302	0.000999	5581.815270	33940.734692	3635.257673	18408.039481
26.035500	-0.000640	0.000489	-0.007830	0.001147	5579.365697	33971.704293	3622.643956	18402.709675
26.535500	0.000804	0.000877	-0.004419	0.001252	5587.855601	33991.930781	3628.866062	18398.938044
27.036000	0.000886	-0.000754	0.003930	-0.002398	5611.657579	34137.024597	3651.851970	18530.401128
27.538500	0.002516	0.000487	0.002219	-0.000876	5612.344011	34116.791609	3645.595453	18475.444632
28.036500	0.002669	0.000330	0.000754	-0.001115	5614.862903	34122.780391	3643.236892	18484.089835
28.536500	0.004718	0.001556	0.003228	0.000211	5619.499491	34115.581731	3645.446692	18436.340689
29.037000	0.002865	0.000513	-0.001747	-0.000370	5611.344873	34082.327506	3637.019674	18457.239205
29.534500	0.002170	0.000690	0.001213	-0.000699	5608.994810	34118.699416	3643.318037	18469.069523
30.035000	-0.000828	0.000142	-0.005872	0.004356	5557.951827	33718.032036	3620.303279	18288.040215
30.535500	-0.000802	-0.000193	-0.009195	0.002159	5571.952997	33850.618194	3618.199499	18366.462611
31.037500	-0.000656	-0.000473	-0.000317	0.000424	5583.847093	33954.557936	3638.233365	18428.674187
31.536500	0.003043	0.000715	-0.002779	-0.000055	5610.463921	34074.195294	3634.453445	18445.896283
32.039000	-0.000865	0.000258	0.000644	0.003956	5560.234350	33754.701916	3633.335772	18302.282612
32.537000	0.003120	0.000259	-0.000598	-0.000291	5612.471781	34058.354836	3639.063654	18454.393248
33.036500	0.000100	0.000476	-0.003083	-0.000577	5595.009747	34094.471514	3634.867729	18464.673271
33.537000	0.002588	0.000758	-0.004614	-0.001666	5617.873657	34193.262769	3634.027370	18503.950901
34.037000	0.000389	0.000793	-0.003528	0.003620	5570.243366	33816.692791	3626.080823	18314.251033
34.537000	0.000621	0.000061	-0.006271	0.001695	5583.890425	33901.894905	3624.542187	18383.085947
35.037500	0.001474	-0.000329	0.000339	0.001709	5589.213345	33873.018800	3637.033204	18382.582666
35.535500	0.000253	-0.001708	-0.004991	0.000340	5590.147412	33872.256655	3629.507843	18431.678373
36.038500	-0.000986	0.001389	-0.002991	0.003789	5560.520474	33847.145024	3626.773092	18308.213065
36.536000	0.002187	0.001111	-0.004747	0.002746	5587.153062	33901.769403	3625.430848	18345.458871
37.036000	-0.003761	-0.001412	-0.000625	0.000743	5562.228672	33864.684951	3637.037404	18417.233204
37.536500	0.001435	0.000738	-0.001858	0.002069	5586.678494	33923.483140	3632.167164	18369.668904
38.036500	-0.001770	-0.001010	-0.002736	0.002850	5561.498959	33743.157565	3629.026925	18341.759194
38.537000	0.001299	-0.000273	0.000214	0.001646	5588.502358	33881.516200	3636.914636	18384.826953
39.037500	-0.000946	-0.000103	0.003966	0.001996	5572.071478	33868.643665	3643.430512	18372.306461
39.535000	0.001992	0.000558	-0.005925	0.002166	5589.602585	33903.766824	3624.306944	18366.221300
40.035500	0.002720	0.000533	0.001434	0.002479	5592.236797	33879.600958	3637.652590	18355.016420
40.535500	-0.000851	0.000448	-0.004290	0.001871	5573.455952	33916.943316	3627.940581	18376.750906
41.035500	0.001714	0.001011	-0.002801	0.002003	5588.870599	33947.816603	3630.505002	18372.041061
41.539000	-0.000209	0.000791	-0.001582	0.002293	5574.848282	33911.317635	3632.266488	18361.656387
42.036000	-0.000147	0.000543	-0.000327	0.002256	5575.478586	33896.268217	3634.721447	18362.998311
42.536500	-0.000488	0.000579	-0.002391	0.002334	5572.825254	33893.221228	3630.655950	18360.199432
43.040000	0.002205	-0.000253	-0.003769	0.001905	5592.613487	33864.439167	3628.860881	18375.564194
43.537500	-0.001792	-0.000207	0.000046	-0.000378	5581.734190	34031.144454	3640.462704	18457.520400
44.037500	0.002994	0.000582	-0.000849	-0.000362	5612.111248	34086.650364	3638.718278	18456.928170
44.535000	-0.000145	0.000200	-0.000181	-0.001091	5596.725604	34111.617872	3641.393142	18483.202609
45.035500	0.003528	-0.000066	-0.000783	-0.000931	5619.194493	34081.070258	3639.933845	18477.457568
45.535000	0.001650	0.000756	-0.004466	0.002751	5583.720213	33876.078460	3625.951065	18345.297457
46.036000	-0.000139	-0.000307	-0.004336	0.005177	5557.121963	33627.878404	3621.640255	18258.816527
46.536000	0.002894	0.000027	0.004697	-0.000713	5613.730165	34072.054557	3650.071637	18469.594617
47.036500	-0.000477	0.000536	-0.003311	0.001639	5577.286293	33939.831408	3630.229341	18385.065041
47.539500	0.000672	0.000295	-0.000955	0.002494	5579.148992	33861.556316	3633.076568	18354.486399
48.037000	-0.001646	-0.000132	-0.002280	0.004435	5552.323809	33692.905464	3626.895637	18285.212306
48.537000	-0.001777	0.000569	0.000457	-0.000338	5581.576627	34084.001359	3641.174287	18456.079507
49.037500	0.003152	0.000456	0.002646	-0.000235	5612.319010	34068.485439	3645.183132	18452.379319
49.536000	0.002368	0.000649	-0.000870	0.001850	5593.998752	33932.782895	3634.460658	18377.514952
50.035500	-0.000756	-0.000218	-0.000066	0.003879	5561.406269	33726.304489	3632.133872	18305.033091
50.536000	0.002174	0.000844	0.001755	-0.000339	5606.723454	34103.864654	3643.669129	18456.124088
51.039000	0.021229	0.007671	0.003407	-0.011727	5808.317843	35442.337673	3669.129087	18871.467078
51.536000	0.000532	-0.010327	0.008935	0.122111	4916.708877	25828.127754	3448.946984	14615.266970
52.036500	-0.013964	-0.014403	-0.004649	-0.080538	6047.988363	39144.736744	3798.373048	21626.711298
52.537000	-0.007803	-0.064176	-0.006495	-0.358434	9018.915520	64217.165221	4677.704887	38479.385262
53.037500	0.001716	-0.062669	0.001597	-0.356577	9129.072207	64167.656589	4704.733311	38327.240272
53.534500	0.001221	-0.051639	-0.003425	-0.342249	8917.710557	63703.822953	4622.097543	37175.004354
54.035000	-0.003539	-0.024327	-0.009614	-0.278977	8035.068137	58868.476144	4354.019021	32517.800749
54.535000	-0.006067	-0.016934	-0.007360	-0.236754	7525.486113	54551.816105	4218.121095	29766.764780
55.035500	-0.004679	-0.013519	-0.017708	-0.241711	7594.572518	55558.025695	4200.726030	30076.030090
55.536000	0.001658	-0.009089	-0.011729	-0.242583	7674.315191	56205.428057	4222.865950	30130.810463
56.036000	0.002506	-0.003021	-0.006357	-0.201687	7247.622267	52094.172247	4111.770553	27676.745639
56.536500	0.005203	-0.007463	0.000081	-0.197897	7236.512876	51169.619987	4119.740924	27460.744385
57.036500	0.009727	-0.002961	0.000071	-0.180956	7112.321322	49805.495594	4069.541768	26518.196577
57.534000	0.013406	-0.001144	0.001980	-0.154118	6889.970640	47177.048244	3999.189349	25098.241953
58.037500	0.010740	-0.000738	0.006890	-0.109780	6473.544348	42912.983578	3895.842765	22936.396777
58.537500	0.015951	0.000880	0.015320	-0.079781	6271.423561	40378.960094	3843.151760	21593.946002
59.035000	0.019941	0.001805	0.019677	-0.054925	6110.009162	38367.323310	3795.444004	20549.801297
59.535500	0.020833	0.003708	0.018935	-0.034676	5967.050648	36898.508986	3748.869465	19742.295330
60.036000	0.025848	0.006714	0.025872	-0.020095	5898.715399	36003.164694	3732.461110	19183.676260
60.538500	0.036445	0.011081	0.030577	-0.016823	5950.906041	36086.866705	3735.515935	19060.889273
61.036000	0.040127	0.014638	0.038367	-0.009407	5924.190347	35792.854467	3736.313535	18785.955761
61.537000	0.045545	0.017995	0.038508	-0.010441	5970.500395	36127.567242	3738.828449	18824.025866
62.037000	0.048079	0.027991	0.046716	-0.005226	5951.175070	36495.874911	3745.263180	18633.039538
62.539500	0.055277	0.026114	0.051097	-0.008843	6029.864008	36630.957858	3762.676509	18765.250996
63.034500	0.056435	0.027858	0.047138	-0.000792	5979.475589	36143.936549	3736.646673	18472.426376
63.543000	0.059263	0.029534	0.058591	0.007246	5941.928673	35659.889535	3743.974729	18185.458477
64.043500	0.060798	0.031683	0.067904	0.016345	5888.207654	35139.131845	3744.436644	17866.954108
64.535500	0.063633	0.034134	0.063205	0.024411	5851.599697	34724.419186	3717.324526	17590.132351
65.039000	0.063988	0.034649	0.061951	0.030777	5810.067545	34297.995291	3701.516037	17375.259840
65.536000	0.068587	0.036523	0.065908	0.039048	5784.980008	33838.230928	3692.687576	17100.741411
66.036500	0.070704	0.037970	0.067798	0.044133	5764.860491	33579.767865	3686.204165	16934.539565
66.536500	0.076053	0.040286	0.066044	0.051281	5752.729778	33239.849310	3668.395419	16704.187262
67.037000	0.077426	0.040810	0.078079	0.056733	5725.408534	32897.019906	3681.531074	16531.017178
67.537500	0.078626	0.042086	0.076070	0.063044	5691.540572	32550.777209	3664.961186	16333.266229
68.035000	0.079687	0.044334	0.079900	0.072877	5634.326177	32036.647545	3653.201271	16030.798054
68.535000	0.081887	0.045547	0.086912	0.073428	5644.993462	32081.183821	3665.865700	16014.061855
69.035000	0.082810	0.046537	0.088078	0.078082	5620.920775	31835.641670	3659.006323	15873.457243
69.535500	0.085600	0.048014	0.083283	0.083881	5601.656815	31548.710629	3638.507908	15700.373158
70.036000	0.085753	0.048707	0.088019	0.092252	5549.708422	31045.862064	3631.587818	15454.534235
70.536000	0.090654	0.049624	0.092591	0.092446	5579.336695	31092.818737	3639.927303	15448.878354
71.036500	0.092399	0.051058	0.094263	0.097453	5558.762818	30861.439713	3633.565903	15304.151101
71.537000	0.091041	0.052099	0.098507	0.102824	5516.821366	30583.705906	3631.429210	15150.771633
72.037000	0.093007	0.052901	0.095533	0.108829	5491.954734	30253.493896	3614.586965	14981.491394
72.537500	0.097087	0.053675	0.105378	0.111301	5501.826494	30146.553876	3628.391152	14912.473321
73.034500	0.100828	0.053566	0.099479	0.114854	5502.981812	29917.395937	3610.735522	14813.961340
73.535500	0.101812	0.054655	0.106258	0.119831	5478.526061	29676.231522	3614.072463	14677.347972
74.035000	0.098999	0.056273	0.107462	0.127008	5418.306002	29335.139307	3603.066512	14483.057978
74.539000	0.106376	0.057606	0.112376	0.128698	5452.414731	29313.373935	3608.988685	14437.768043
75.036500	0.106853	0.058734	0.110366	0.132734	5431.018154	29136.826164	3597.921368	14330.343564
75.536500	0.110456	0.060337	0.122029	0.138151	5420.172554	28906.988899	3609.357439	14187.689615
76.036500	0.107711	0.060495	0.110960	0.144004	5369.405814	28567.613694	3578.745952	14035.552057
76.537000	0.114827	0.061912	0.115492	0.145370	5403.246899	28570.668611	3584.383444	14000.346621
77.037500	0.115795	0.062686	0.122191	0.149845	5382.555726	28352.413180	3588.368328	13885.763314
77.537500	0.115654	0.063553	0.122389	0.153815	5358.512437	28170.966258	3581.623302	13785.112422
78.035000	0.118378	0.063471	0.123431	0.156262	5360.124684	28023.935887	3579.125291	13723.518548
78.535000	0.120726	0.065649	0.120642	0.161660	5342.417979	27838.017938	3564.731016	13588.860902
79.036000	0.125056	0.067806	0.125828	0.165890	5342.999220	27719.073437	3566.397757	13484.522905
79.536000	0.120129	0.067988	0.132861	0.168045	5302.359731	27606.431160	3574.962192	13431.765122
80.036500	0.124735	0.068954	0.127771	0.174337	5292.782002	27304.685206	3555.131551	13279.165196
80.536500	0.126616	0.069330	0.136121	0.174474	5302.688149	27318.158478	3569.388029	13275.874676
81.037000	0.128352	0.070626	0.134579	0.178286	5290.900478	27176.860667	3560.063176	13184.519447
81.537500	0.129220	0.069942	0.137320	0.179158	5290.877404	27089.928268	3563.305751	13163.748295
82.037500	0.132296	0.073126	0.141264	0.185652	5271.589333	26905.897930	3558.885031	13010.270913
82.535000	0.137298	0.073171	0.136269	0.187006	5292.182183	26833.554417	3547.993586	12978.565812
83.035000	0.138340	0.074923	0.140983	0.190012	5281.073186	26764.383760	3550.907000	12908.509563
83.535500	0.139048	0.074762	0.145119	0.192396	5271.632516	26624.725725	3553.909821	12853.306439
84.038500	0.143457	0.077079	0.147431	0.196312	5274.404627	26537.344641	3551.160800	12763.263447
84.536000	0.141867	0.076665	0.152188	0.197348	5259.673052	26458.396485	3557.552995	12739.583107
85.036500	0.143309	0.078108	0.152551	0.200159	5252.024920	26384.165946	3553.341439	12675.601098
85.536500	0.145338	0.079441	0.155343	0.203360	5245.499052	26283.173546	3552.639324	12603.251956
86.037000	0.147101	0.080712	0.155932	0.207870	5230.268600	26109.085760	3545.949227	12502.206764
86.537500	0.150782	0.079748	0.157782	0.206439	5258.693579	26134.140536	3551.544718	12534.170560
87.037500	0.149767	0.081842	0.159610	0.209831	5234.174980	26064.657902	3548.872711	12458.612474
87.535000	0.148709	0.081212	0.167147	0.211229	5220.614781	25956.549295	3559.413735	12427.641548
88.038000	0.153831	0.084449	0.165432	0.216327	5220.750111	25857.798176	3547.724535	12315.561101
88.541500	0.154377	0.083531	0.159199	0.215991	5225.608592	25827.008239	3537.753769	12322.915606
89.036000	0.158085	0.085194	0.162758	0.219035	5229.277911	25754.068714	3538.618468	12256.567726
89.536000	0.159994	0.086139	0.163248	0.222682	5219.692128	25612.005260	3533.328453	12177.670300
90.036500	0.160447	0.087751	0.166585	0.226327	5202.192543	25505.726054	3532.815001	12099.479798
90.534000	0.165640	0.088394	0.171547	0.226454	5230.024226	25532.676608	3540.925406	12096.770737
91.037000	0.164305	0.088672	0.167890	0.228334	5212.325920	25449.184639	3531.643982	12056.711251
91.537000	0.167416	0.090048	0.175144	0.231684	5211.016695	25346.742545	3538.177813	11985.779355
92.035000	0.169242	0.092211	0.181555	0.235545	5199.887392	25258.965584	3542.473440	11904.670705
92.540500	0.169522	0.091657	0.175321	0.234910	5204.885650	25263.168636	3533.071348	11917.963484
93.035000	0.173721	0.092795	0.178606	0.237550	5213.418638	25185.781630	3534.147329	11862.833513
93.541500	0.177155	0.094211	0.181078	0.241061	5212.999407	25078.302067	3532.412663	11790.053495
94.036000	0.176359	0.094210	0.181902	0.243166	5197.139047	24970.823731	3530.280859	11746.707313
94.539000	0.176467	0.094613	0.187905	0.244081	5192.742436	24944.753043	3538.786836	11727.912093
95.037000	0.180825	0.097111	0.190366	0.247170	5199.660113	24914.762477	3537.734076	11664.817944
95.536500	0.181382	0.097971	0.189506	0.249919	5187.733852	24819.041483	3531.696725	11609.026654
96.037500	0.182086	0.098026	0.185080	0.252501	5177.558527	24691.602860	3520.118417	11556.942227
96.537000	0.183526	0.099322	0.192531	0.253575	5179.540201	24702.741374	3530.646599	11535.371859
97.035000	0.182352	0.098918	0.199858	0.254799	5166.602104	24620.966470	3540.868015	11510.842251
97.538000	0.185135	0.099212	0.190533	0.256627	5171.747203	24544.306379	3522.296509	11474.365700
98.038500	0.189815	0.100572	0.197162	0.260310	5177.125709	24428.532867	3527.154889	11401.298529
98.535500	0.191489	0.103212	0.197019	0.261995	5177.062762	24476.045488	3524.135611	11368.077786
99.036000	0.193180	0.103318	0.193561	0.263705	5176.963946	24396.372687	3515.668915	11334.505611
99.536500	0.192708	0.102960	0.199653	0.264387	5170.741445	24344.878958	3524.536210	11321.161210
100.036500	0.196296	0.104789	0.205791	0.268422	5168.328139	24235.938606	3528.012152	11242.556107
100.536500	0.196546	0.104666	0.203218	0.268834	5167.460674	24209.645918	3523.083902	11234.585253
101.037000	0.192202	0.104948	0.205038	0.269882	5138.621356	24172.032745	3524.354399	11214.315542
101.537500	0.197167	0.105197	0.208275	0.271788	5154.939189	24090.851217	3526.553371	11177.572628
102.035000	0.197827	0.107240	0.203397	0.275169	5140.419527	24025.540616	3513.024175	11112.782054
102.538000	0.200396	0.108541	0.208969	0.276483	5147.105627	24024.898186	3519.965455	11087.734997
103.035500	0.198654	0.109570	0.204179	0.278682	5126.177442	23967.924767	3508.605779	11045.991779
103.536000	0.200056	0.107992	0.200615	0.278253	5135.873159	23912.150843	3503.568668	11054.110872
104.036500	0.206382	0.109950	0.217173	0.281198	5153.890791	23864.357811	3525.704750	10998.488901
104.536500	0.204568	0.109298	0.206460	0.282351	5138.071539	23777.229378	3506.372017	10976.816173
105.037000	0.204269	0.111486	0.211110	0.285107	5121.898473	23749.860755	3509.421642	10925.237372
105.540000	0.206882	0.111942	0.218183	0.286748	5127.028503	23692.955011	3518.245885	10894.678550
106.037500	0.205810	0.112240	0.219107	0.288358	5112.893535	23630.102216	3517.125889	10864.814897
106.534500	0.210750	0.114051	0.218057	0.290565	5127.299212	23611.152092	3511.829642	10824.048212
107.034500	0.208960	0.113289	0.218602	0.290804	5116.595760	23563.390079	3512.326191	10819.657466
107.538500	0.211646	0.115005	0.220382	0.293873	5114.579253	23498.939604	3510.239090	10763.338920
108.035500	0.212528	0.114197	0.215000	0.294866	5113.998012	23413.518568	3500.011511	10745.204180
108.536000	0.211358	0.115341	0.217954	0.296734	5098.078559	23379.287908	3501.743320	10711.201671
109.036500	0.212715	0.114879	0.228045	0.298040	5098.346501	23295.936309	3515.912198	10687.524699
109.536500	0.216721	0.117486	0.223531	0.301587	5100.742367	23251.742736	3502.900516	10623.554483
110.037000	0.216544	0.116928	0.226808	0.301788	5098.766918	23216.093291	3507.836271	10619.938790
110.540000	0.215656	0.116575	0.231643	0.302310	5091.416768	23175.146641	3514.819020	10610.584348
111.034500	0.216263	0.117588	0.215013	0.304875	5081.246434	23102.685079	3484.274924	10564.724354
111.535000	0.218350	0.118139	0.235502	0.306013	5086.171122	23075.331544	3515.072665	10544.466406
112.035500	0.220324	0.119777	0.225156	0.309159	5080.091709	23005.257621	3493.455527	10488.742464
112.535500	0.220571	0.119615	0.233374	0.309645	5078.850766	22975.170448	3505.760962	10480.157453
113.036000	0.221962	0.120851	0.227209	0.311757	5075.120131	22934.624967	3492.595475	10443.007247
113.536000	0.218420	0.119081	0.227272	0.311982	5055.738431	22842.614595	3492.341004	10439.067886
114.036500	0.224049	0.121143	0.232357	0.314905	5069.643699	22803.068931	3495.754426	10387.985807
114.537000	0.227556	0.123374	0.234203	0.316992	5076.979372	22809.656857	3495.372452	10351.720963
115.037000	0.226239	0.122469	0.236847	0.318783	5060.954531	22686.182569	3496.722511	10320.728499
115.535000	0.227846	0.123021	0.228399	0.320172	5062.079067	22648.009382	3481.307942	10296.792985
116.037500	0.226908	0.122765	0.230500	0.321545	5050.236009	22573.908301	3482.437251	10273.209230
116.537500	0.229097	0.124508	0.242273	0.322881	5054.597935	22592.382310	3498.831783	10250.314954
117.038500	0.232054	0.123353	0.240842	0.323617	5066.006940	22506.643346	3495.396190	10237.751722
117.535000	0.231905	0.124265	0.239630	0.327015	5047.817960	22394.458598	3488.139743	10179.952398
118.036000	0.231094	0.124237	0.241574	0.326771	5044.924946	22404.185762	3491.574199	10184.087038
118.536500	0.231028	0.126479	0.240628	0.329321	5031.628490	22390.348199	3486.096589	10140.999758
119.036000	0.229834	0.126643	0.242215	0.330404	5020.116073	22349.039400	3486.884118	10122.771831
119.539500	0.233885	0.125903	0.243672	0.332928	5027.827250	22203.084213	3485.218962	10080.469263
120.036500	0.236311	0.127679	0.253723	0.333709	5036.168879	22247.475267	3499.821437	10067.440410
120.537500	0.236266	0.128474	0.241929	0.334991	5029.436533	22225.703138	3479.312040	10046.073027
121.035000	0.240819	0.129172	0.247614	0.337412	5040.262765	22149.052166	3484.374540	10005.935362
121.538000	0.236087	0.128151	0.242920	0.340433	5001.159187	21970.312314	3472.472045	9956.138718
122.035000	0.240598	0.129582	0.250337	0.340935	5021.289969	22011.228971	3483.130122	9947.896896
122.535500	0.240145	0.130029	0.248227	0.341497	5016.177133	22006.200438	3478.992345	9938.686989
123.035500	0.241091	0.132140	0.251597	0.343547	5010.625649	22008.841881	3481.033176	9905.173472
123.536000	0.238253	0.130898	0.250053	0.345779	4985.325112	21856.296590	3475.210618	9868.876711
124.037000	0.239656	0.130625	0.256806	0.344805	4997.145738	21886.964358	3487.179851	9884.686067
124.539500	0.244161	0.131817	0.247225	0.346878	5009.315880	21848.414942	3469.207230	9851.068380
125.037500	0.246041	0.132068	0.250699	0.348671	5009.751465	21781.088738	3471.769861	9822.111231
125.537500	0.244740	0.132747	0.257217	0.349747	4997.857566	21763.786813	3480.135340	9804.786866
126.035500	0.245654	0.134076	0.258749	0.351203	4995.155072	21758.272991	3480.253151	9781.432087
126.538500	0.246584	0.134367	0.252704	0.352437	4993.643025	21717.285453	3469.085219	9761.686319
127.036000	0.248183	0.133514	0.261463	0.353058	4998.515785	21653.370218	3481.582690	9751.766722
127.535500	0.246711	0.135513	0.261734	0.355461	4979.255876	21635.896868	3478.286701	9713.536922
128.036500	0.248543	0.134157	0.263928	0.356037	4985.482033	21552.529192	3480.786209	9704.406698
128.536000	0.250811	0.136993	0.258704	0.358641	4983.816524	21562.556302	3468.776197	9663.277095
129.036500	0.250474	0.136971	0.257743	0.359342	4978.676957	21531.410076	3466.253243	9652.243222
129.543000	0.249686	0.136649	0.261078	0.360285	4970.130234	21477.092804	3469.886881	9637.430646
130.034500	0.251517	0.137517	0.254932	0.361506	4973.136788	21461.944361	3458.759522	9618.288869
130.537000	0.254624	0.138121	0.265390	0.363918	4976.569984	21384.672896	3470.921532	9580.661250
131.038000	0.254675	0.137746	0.263620	0.363131	4980.713426	21402.256036	3469.423985	9592.916762
131.535500	0.253172	0.139276	0.264840	0.369114	4943.966433	21213.075490	3462.212690	9500.294328
132.036000	0.257207	0.141006	0.264598	0.368107	4968.647338	21329.112218	3463.366047	9515.792558
132.536000	0.255263	0.139230	0.266026	0.367099	4964.045435	21296.487973	3467.050998	9531.352904
133.036500	0.257475	0.140334	0.261270	0.368908	4966.024738	21266.552027	3457.168435	9503.464915
133.536500	0.253636	0.140137	0.263488	0.374302	4921.099164	21031.073444	3452.440570	9421.004320
134.037000	0.258373	0.139938	0.261230	0.369896	4965.579024	21207.985835	3455.633105	9488.279042
134.534000	0.261086	0.142079	0.271880	0.372887	4964.212732	21172.096393	3467.150253	9442.536935
135.034500	0.260045	0.142572	0.269248	0.373455	4956.319584	21168.917897	3462.312995	9433.879550
135.535000	0.260458	0.142909	0.270150	0.379154	4930.606684	20944.275243	3455.131220	9347.711426
136.035500	0.258179	0.143039	0.274689	0.374910	4940.128879	21127.354305	3468.343580	9411.778832
136.538500	0.262637	0.142524	0.270256	0.375868	4957.199795	21065.489298	3460.202517	9397.262611
137.036000	0.261020	0.143604	0.268865	0.377286	4942.388080	21051.295830	3455.999535	9375.825290
137.536000	0.263163	0.143431	0.265717	0.382231	4928.807080	20838.165649	3444.043453	9301.647546
138.036500	0.260801	0.143590	0.266585	0.378700	4934.458913	20991.572055	3450.512749	9354.522522
138.537000	0.264084	0.144095	0.276628	0.378785	4950.011804	21009.115425	3465.407858	9353.247854
139.037500	0.265203	0.147668	0.277910	0.382475	4937.505932	21004.233761	3461.776321	9298.010407
139.543000	0.262139	0.145996	0.274690	0.387921	4896.615053	20709.235841	3448.866888	9217.319062
140.035000	0.262866	0.145895	0.276116	0.382192	4927.560159	20942.057380	3459.504688	9302.218085
140.537500	0.264129	0.146015	0.266896	0.382449	4932.422099	20936.387589	3445.450317	9298.390685
141.035500	0.269658	0.148364	0.276002	0.385054	4946.623521	20925.719971	3455.058716	9259.662117
141.536000	0.265257	0.146769	0.274859	0.383807	4931.312978	20911.232892	3455.212969	9278.171933
142.036000	0.264492	0.147133	0.275021	0.385704	4918.472709	20847.623829	3452.634260	9250.039746
142.536500	0.268724	0.148320	0.280251	0.386860	4933.313872	20848.891715	3458.706779	9232.953409
143.036000	0.270176	0.149184	0.281802	0.388012	4934.767765	20836.966428	3459.304905	9215.971600
143.539500	0.269905	0.148370	0.285742	0.387557	4935.658056	20822.123536	3465.926268	9222.677746
144.037500	0.267764	0.149166	0.279250	0.389554	4915.696597	20772.490775	3453.197684	9193.316856
144.537500	0.270472	0.148408	0.282189	0.389705	4928.013037	20735.054575	3457.351383	9191.111826
145.035000	0.269851	0.149559	0.272916	0.390416	4921.586232	20753.156164	3442.601214	9180.690124
145.537500	0.271310	0.149677	0.283207	0.391317	4924.276473	20720.943048	3456.463841	9167.518027
146.035000	0.269494	0.150861	0.287249	0.392813	4908.367545	20708.071776	3460.273593	9145.690652
146.536000	0.270711	0.151196	0.281297	0.393911	4908.936928	20676.747772	3449.776000	9129.731492
147.036000	0.271128	0.151586	0.279929	0.394542	4907.910220	20666.851399	3446.830121	9120.571221
147.536000	0.269861	0.150836	0.277656	0.401250	4870.115719	20363.676150	3433.763957	9024.061768
148.037000	0.271011	0.150114	0.285667	0.394063	4909.646878	20626.225113	3456.037474	9127.529532
148.534000	0.270177	0.150924	0.279076	0.395166	4900.394058	20614.216641	3444.663751	9111.536804
149.037500	0.273519	0.151739	0.283476	0.396563	4909.683045	20590.456759	3449.078687	9091.337543
149.534500	0.270698	0.152862	0.280066	0.403905	4861.590883	20338.292679	3433.411144	8986.263562
150.037500	0.275870	0.151286	0.282250	0.397269	4917.576144	20543.175328	3446.235144	9081.163973
150.535500	0.274335	0.151590	0.280972	0.397416	4909.508287	20549.586116	3444.145031	9079.040734
151.036000	0.275297	0.151445	0.286630	0.397785	4912.346555	20528.643919	3451.935157	9073.720673
151.535500	0.271153	0.152538	0.279577	0.404908	4859.029104	20284.944719	3431.266412	8972.041382
152.036500	0.274683	0.153690	0.287112	0.401100	4893.596591	20485.126889	3447.750042	9026.193163
152.536000	0.277213	0.151890	0.286205	0.400064	4910.608712	20454.156976	3447.940358	9041.012652
153.036000	0.279408	0.154187	0.284726	0.402428	4909.799253	20451.458403	3442.305034	9007.254700
153.539500	0.273575	0.153930	0.284172	0.408358	4854.235151	20202.599364	3432.913012	8923.399022
154.034500	0.276192	0.154427	0.285413	0.402688	4893.222421	20450.621715	3442.929619	9003.553847
154.535000	0.275077	0.155897	0.288200	0.404885	4877.551197	20421.198085	3443.791908	8972.368418
155.035500	0.273157	0.154128	0.289927	0.403697	4874.104364	20397.740366	3448.071612	8989.217752
155.536000	0.274297	0.154134	0.279803	0.410291	4848.598980	20133.627836	3423.913705	8896.297038
156.036000	0.275939	0.156316	0.291563	0.406398	4874.480461	20377.005903	3446.504195	8950.979589
156.536500	0.278732	0.155398	0.286147	0.405969	4889.708739	20357.344556	3439.220172	8957.047664
157.036500	0.275747	0.155020	0.287978	0.405970	4875.596598	20342.039136	3441.883021	8957.030938
157.537000	0.280089	0.156678	0.288805	0.407506	4888.854022	20346.987175	3440.849713	8935.376075
158.037000	0.279467	0.155463	0.284550	0.406967	4888.459595	20319.747313	3435.460684	8942.962802
158.537500	0.277933	0.155578	0.289964	0.407477	4878.797377	20303.873511	3442.582882	8935.786284
159.034500	0.282020	0.157192	0.294436	0.409311	4889.449098	20295.060527	3446.446563	8910.025597
159.538000	0.281164	0.156876	0.296386	0.408839	4887.628890	20301.301227	3450.014617	8916.643155
160.035500	0.281588	0.157406	0.291221	0.409928	4884.481868	20278.847336	3440.840555	8901.377507
160.535500	0.278804	0.156080	0.289932	0.408876	4876.306301	20267.890172	3440.495092	8916.122337
161.039000	0.283205	0.158513	0.291439	0.411837	4883.102039	20246.724108	3438.383944	8874.726372
161.535500	0.276665	0.157126	0.294158	0.410311	4859.542063	20252.286800	3444.571709	8896.028690
162.036000	0.284705	0.157110	0.291581	0.411616	4891.254631	20199.471626	3438.910548	8877.805094
162.536500	0.284981	0.158477	0.288092	0.412319	4889.228390	20226.010684	3432.853056	8868.010961
163.036500	0.283003	0.159007	0.294674	0.413458	4874.501213	20201.626903	3440.728149	8852.172788
163.539500	0.282154	0.157482	0.289008	0.412610	4874.500669	20174.658624	3433.752924	8863.967041
164.038000	0.284179	0.159196	0.296509	0.414176	4876.660115	20180.524212	3442.357106	8842.216822
164.534500	0.282047	0.158888	0.294009	0.414295	4866.079691	20163.519524	3438.544652	8840.565787
165.036000	0.279191	0.157281	0.292385	0.413041	4858.586948	20149.469429	3438.010009	8857.974921
165.538500	0.281358	0.159052	0.295989	0.420017	4836.252154	19943.426671	3433.139390	8761.811002
166.036000	0.280349	0.159334	0.289805	0.415118	4854.299727	20148.503651	3431.292852	8829.178674
166.536500	0.285985	0.160620	0.300052	0.416131	4875.957823	20159.357068	3444.679450	8815.178459
167.037000	0.284106	0.159093	0.294213	0.415601	4869.614420	20119.701558	3436.948005	8822.499633
167.537000	0.281017	0.158690	0.290642	0.421478	4827.947828	19871.889451	3423.422114	8741.868809
168.034500	0.284031	0.160892	0.295314	0.418047	4857.810840	20093.976996	3435.005001	8788.805570
168.537500	0.284977	0.161671	0.296814	0.418799	4858.715361	20095.078054	3436.084356	8778.486259
169.035500	0.283657	0.159747	0.296926	0.417478	4858.722624	20071.153724	3438.158771	8796.623733
169.538000	0.280718	0.157817	0.288335	0.419815	4834.228878	19902.845044	3422.509474	8764.570180
170.035500	0.286391	0.161331	0.292434	0.419416	4862.443920	20057.113132	3428.903942	8770.027918
170.535500	0.283881	0.160883	0.295480	0.419175	4851.855639	20048.939026	3433.619035	8773.339526
171.036000	0.289144	0.161375	0.298052	0.419820	4873.458942	20042.838402	3436.397733	8764.495698
171.536500	0.281247	0.160451	0.294650	0.423784	4818.423065	19850.518106	3425.836879	8710.526059
172.037000	0.287009	0.162112	0.294307	0.420889	4858.445591	20029.708108	3429.475921	8749.893149
172.537000	0.286740	0.162285	0.291523	0.420882	4857.224856	20036.848998	3425.516961	8749.993859
173.034500	0.285649	0.160302	0.300682	0.420499	4853.919776	19973.678769	3439.226403	8755.220909
173.535000	0.287118	0.162482	0.298233	0.421668	4855.320605	20013.586215	3433.992969	8739.280492
174.035000	0.285622	0.160541	0.291530	0.420379	4854.356201	19987.856287	3426.242590	8756.864245
174.543500	0.289373	0.162061	0.298295	0.421834	4865.082924	19990.416633	3433.842779	8737.016896
175.038500	0.287903	0.161418	0.296510	0.422847	4853.484636	19925.187148	3429.826789	8723.240089
175.536000	0.282367	0.161414	0.292432	0.427578	4806.218139	19740.101657	3417.347874	8659.307625
176.036500	0.286769	0.162987	0.294545	0.423445	4845.434813	19963.385933	3426.169793	8715.119942
176.542500	0.287115	0.162851	0.296156	0.423272	4847.841104	19964.838318	3428.711750	8717.462923
177.037000	0.288983	0.163659	0.297835	0.424813	4849.360562	19936.003687	3428.909950	8696.586816
177.537500	0.290406	0.163155	0.293028	0.424493	4857.481533	19928.755020	3422.532093	8700.917674
178.034500	0.290223	0.162915	0.304253	0.424503	4856.582842	19918.949213	3438.598823	8700.785260
178.537500	0.287012	0.162176	0.298185	0.424436	4841.966389	19892.572589	3429.949490	8701.689876
179.035500	0.286458	0.162258	0.291708	0.424617	4838.564519	19888.679025	3420.492468	8699.241252
179.535500	0.285719	0.160409	0.298363	0.422843	4843.357731	19885.758435	3432.489037	8723.295798
180.036000	0.285675	0.163494	0.299846	0.425566	4830.573591	19899.955839	3430.710045	8686.417698
180.537000	0.286814	0.163656	0.299045	0.426403	4831.961030	19873.458163	3428.367492	8675.123718
181.036500	0.286915	0.162454	0.294435	0.425301	4837.511131	19869.538323	3423.378012	8689.988482
181.534000	0.284839	0.162980	0.294477	0.429226	4809.970267	19736.914665	3417.904757	8637.210062
182.037000	0.287725	0.162904	0.299617	0.425994	4838.055019	19860.041032	3429.768865	8680.636896
182.540000	0.285370	0.162071	0.303881	0.425596	4829.028144	19843.004758	3436.475884	8686.012423
183.035000	0.289820	0.164328	0.297609	0.428079	4838.102500	19834.186903	3423.940834	8652.587671
183.535000	0.288698	0.164273	0.304443	0.430515	4821.721227	19737.082721	3430.206663	8619.983551
184.035500	0.291141	0.164735	0.297506	0.428431	4842.585379	19836.347856	3423.295972	8647.865406
184.535500	0.289899	0.164142	0.293783	0.427717	4840.139018	19841.065511	3419.049180	8657.444761
185.036000	0.287768	0.164757	0.301862	0.428740	4825.596529	19825.113083	3429.052256	8643.718249
185.536500	0.285789	0.163339	0.293731	0.433054	4796.896642	19602.643101	3411.519687	8586.192536
186.036000	0.291828	0.164622	0.299282	0.428034	4847.615011	19847.438872	3426.380610	8653.189585
