sample name	sample
index	1345
start time	 05-03-2021  12:51:35 PM


Wavelength (nm)	Absorbance
494.344910	-0.287354
494.563924	-0.287354
494.782919	-0.287354
495.001897	0.719341
495.220856	-0.066363
495.439797	-0.080814
495.658719	0.019153
495.877624	0.076485
496.096510	0.173702
496.315378	0.171470
496.534227	0.129652
496.753059	0.374454
496.971872	0.312720
497.190667	0.096378
497.409444	0.081954
497.628203	0.071977
497.846943	0.068902
498.065665	0.067672
498.284369	0.070053
498.503055	0.069404
498.721723	0.067709
498.940372	0.067042
499.159003	0.068186
499.377616	0.067988
499.596210	0.068231
499.814787	0.068025
500.033345	0.066896
500.251885	0.064886
500.470406	0.064032
500.688910	0.063667
500.907395	0.064314
501.125862	0.062337
501.344311	0.061494
501.562742	0.060043
501.781154	0.060190
501.999548	0.060780
502.217924	0.060010
502.436282	0.060168
502.654621	0.060903
502.872942	0.059974
503.091245	0.060713
503.309530	0.061490
503.527797	0.063085
503.746045	0.062921
503.964275	0.063065
504.182487	0.064455
504.400681	0.063501
504.618856	0.063618
504.837013	0.063839
505.055152	0.063592
505.273273	0.063144
505.491376	0.063599
505.709460	0.064118
505.927526	0.062349
506.145574	0.061095
506.363604	0.061492
506.581615	0.061125
506.799608	0.060478
507.017583	0.060226
507.235540	0.059885
507.453478	0.059930
507.671399	0.060508
507.889301	0.062298
508.107185	0.062561
508.325050	0.063701
508.542898	0.062683
508.760727	0.063446
508.978538	0.063721
509.196330	0.064280
509.414105	0.064006
509.631861	0.063212
509.849599	0.062215
510.067319	0.062912
510.285021	0.063439
510.502704	0.064305
510.720369	0.063413
510.938016	0.063862
511.155645	0.064493
511.373255	0.065692
511.590848	0.065796
511.808422	0.066475
512.025977	0.065658
512.243515	0.065416
512.461034	0.065800
512.678536	0.066272
512.896018	0.064504
513.113483	0.063610
513.330930	0.061958
513.548358	0.061744
513.765768	0.061666
513.983160	0.062475
514.200533	0.061603
514.417889	0.061732
514.635226	0.062811
514.852545	0.064003
515.069845	0.064680
515.287128	0.065408
515.504392	0.065460
515.721638	0.065437
515.938866	0.065948
516.156075	0.065779
516.373267	0.065568
516.590440	0.064586
516.807594	0.064744
517.024731	0.064256
517.241850	0.063615
517.458950	0.063666
517.676032	0.063477
517.893095	0.062469
518.110141	0.062909
518.327168	0.062148
518.544177	0.062618
518.761168	0.063003
518.978141	0.062739
519.195095	0.063303
519.412031	0.063880
519.628949	0.063642
519.845849	0.063497
520.062731	0.063100
520.279594	0.064851
520.496439	0.064506
520.713266	0.063971
520.930074	0.063975
521.146865	0.064164
521.363637	0.063816
521.580391	0.064298
521.797127	0.065109
522.013844	0.065665
522.230543	0.064710
522.447224	0.064330
522.663887	0.064465
522.880532	0.064507
523.097158	0.063305
523.313766	0.063322
523.530356	0.062529
523.746928	0.061927
523.963481	0.061457
524.180017	0.061634
524.396534	0.062489
524.613032	0.062462
524.829513	0.062538
525.045975	0.062794
525.262420	0.062790
525.478845	0.063905
525.695253	0.064847
525.911643	0.065389
526.128014	0.065631
526.344367	0.065335
526.560702	0.065877
526.777018	0.066180
526.993316	0.066625
527.209597	0.066504
527.425858	0.066312
527.642102	0.065598
527.858328	0.065669
528.074535	0.066182
528.290724	0.066391
528.506894	0.066907
528.723047	0.066774
528.939181	0.066897
529.155297	0.067193
529.371395	0.066874
529.587475	0.067400
529.803536	0.067447
530.019579	0.066635
530.235604	0.066534
530.451611	0.066351
530.667600	0.067216
530.883570	0.067554
531.099522	0.067629
531.315456	0.067898
531.531372	0.067651
531.747269	0.067615
531.963148	0.067785
532.179009	0.068043
532.394852	0.067233
532.610676	0.066542
532.826482	0.066791
533.042271	0.066531
533.258040	0.066801
533.473792	0.066895
533.689525	0.067379
533.905240	0.067680
534.120937	0.067102
534.336616	0.067404
534.552277	0.068151
534.767919	0.068336
534.983543	0.069354
535.199149	0.069369
535.414736	0.070098
535.630306	0.069617
535.845857	0.070313
536.061390	0.070954
536.276904	0.071204
536.492401	0.070614
536.707879	0.070620
536.923339	0.070187
537.138781	0.070390
537.354204	0.069393
537.569610	0.069653
537.784997	0.069383
538.000366	0.069626
538.215716	0.069840
538.431049	0.070357
538.646363	0.070306
538.861659	0.070777
539.076937	0.070976
539.292196	0.071967
539.507438	0.071858
539.722661	0.072223
539.937866	0.072281
540.153052	0.072053
540.368221	0.072342
540.583371	0.072385
540.798503	0.072213
541.013617	0.072252
541.228712	0.072083
541.443789	0.073202
541.658848	0.072797
541.873889	0.072694
542.088912	0.073361
542.303916	0.073378
542.518902	0.073412
542.733870	0.073448
542.948820	0.073413
543.163752	0.073526
543.378665	0.072877
543.593560	0.073161
543.808437	0.073606
544.023295	0.072987
544.238136	0.073128
544.452958	0.073420
544.667762	0.073733
544.882548	0.073622
545.097315	0.073794
545.312064	0.074007
545.526795	0.073927
545.741508	0.073834
545.956203	0.074513
546.170879	0.074248
546.385537	0.074332
546.600177	0.074701
546.814799	0.074899
547.029402	0.074488
547.243988	0.074359
547.458555	0.074635
547.673103	0.074819
547.887634	0.074414
548.102146	0.074251
548.316640	0.074284
548.531116	0.073643
548.745574	0.073832
548.960013	0.074156
549.174435	0.074421
549.388838	0.073817
549.603222	0.073735
549.817589	0.074356
550.031937	0.074822
550.246267	0.074630
550.460579	0.075012
550.674873	0.075055
550.889148	0.075310
551.103405	0.075397
551.317644	0.075895
551.531865	0.076111
551.746068	0.075904
551.960252	0.075828
552.174418	0.076355
552.388566	0.076364
552.602696	0.076410
552.816807	0.076310
553.030900	0.076359
553.244975	0.076513
553.459032	0.076716
553.673070	0.076624
553.887091	0.077054
554.101093	0.077063
554.315077	0.076894
554.529042	0.077289
554.742990	0.077379
554.956919	0.077028
555.170830	0.077264
555.384722	0.077009
555.598597	0.077347
555.812453	0.077485
556.026291	0.077218
556.240111	0.077616
556.453913	0.077397
556.667696	0.077720
556.881461	0.078211
557.095208	0.078509
557.308937	0.079077
557.522647	0.078991
557.736339	0.078848
557.950013	0.079205
558.163669	0.078979
558.377307	0.079035
558.590926	0.078730
558.804527	0.078559
559.018110	0.078442
559.231675	0.078122
559.445221	0.077868
559.658749	0.077751
559.872259	0.077774
560.085751	0.077574
560.299225	0.078212
560.512680	0.078198
560.726117	0.078302
560.939536	0.078017
561.152937	0.078125
561.366319	0.078336
561.579683	0.078285
561.793029	0.078369
562.006357	0.079285
562.219667	0.078515
562.432958	0.078884
562.646231	0.079209
562.859486	0.079461
563.072723	0.079128
563.285941	0.079319
563.499141	0.079419
563.712323	0.079291
563.925487	0.078863
564.138632	0.079327
564.351760	0.079319
564.564869	0.079126
564.777960	0.079273
564.991032	0.079530
565.204087	0.079563
565.417123	0.080072
565.630141	0.079915
565.843140	0.079875
566.056122	0.079776
566.269085	0.079881
566.482030	0.080014
566.694957	0.079550
566.907866	0.079737
567.120756	0.080015
567.333628	0.079846
567.546482	0.080172
567.759318	0.080614
567.972135	0.080506
568.184935	0.080553
568.397716	0.080183
568.610478	0.080564
568.823223	0.080760
569.035949	0.080710
569.248657	0.080522
569.461347	0.080360
569.674019	0.080124
569.886672	0.080502
570.099308	0.080387
570.311925	0.080669
570.524523	0.080695
570.737104	0.080618
570.949666	0.080719
571.162210	0.080821
571.374736	0.080926
571.587244	0.080941
571.799733	0.080881
572.012205	0.080915
572.224658	0.080897
572.437092	0.081033
572.649509	0.080766
572.861907	0.080577
573.074287	0.080433
573.286649	0.080489
573.498993	0.080392
573.711318	0.080259
573.923625	0.080134
574.135914	0.080482
574.348185	0.080100
574.560438	0.080225
574.772672	0.080571
574.984888	0.080975
575.197086	0.081115
575.409266	0.081121
575.621427	0.080612
575.833570	0.080773
576.045695	0.080691
576.257802	0.081053
576.469890	0.081237
576.681961	0.081180
576.894013	0.080951
577.106046	0.081016
577.318062	0.081250
577.530059	0.081845
577.742039	0.082049
577.954000	0.082037
578.165942	0.082281
578.377867	0.082377
578.589773	0.082437
578.801661	0.082580
579.013531	0.082380
579.225382	0.082385
579.437216	0.082450
579.649031	0.082453
579.860828	0.082614
580.072606	0.082407
580.284367	0.082270
580.496109	0.082080
580.707833	0.081992
580.919539	0.082136
581.131227	0.081973
581.342896	0.082071
581.554547	0.082110
581.766180	0.082218
581.977795	0.082180
582.189391	0.082404
582.400969	0.082539
582.612529	0.082742
582.824071	0.082824
583.035595	0.083076
583.247100	0.083097
583.458587	0.082978
583.670056	0.082675
583.881506	0.082950
584.092939	0.082994
584.304353	0.083220
584.515749	0.082983
584.727127	0.083215
584.938486	0.083440
585.149828	0.083772
585.361151	0.083757
585.572456	0.084178
585.783742	0.084177
585.995011	0.084346
586.206261	0.084095
586.417493	0.084404
586.628706	0.084429
586.839902	0.084317
587.051079	0.083993
587.262238	0.084274
587.473379	0.084057
587.684502	0.084293
587.895606	0.084011
588.106692	0.084194
588.317760	0.084312
588.528810	0.083839
588.739841	0.083614
588.950855	0.083990
589.161850	0.083938
589.372827	0.084150
589.583785	0.083831
589.794726	0.083811
590.005648	0.083781
590.216552	0.083772
590.427437	0.083963
590.638305	0.084629
590.849154	0.084464
591.059985	0.084526
591.270798	0.084497
591.481592	0.084781
591.692369	0.084889
591.903127	0.085040
592.113867	0.084900
592.324588	0.084990
592.535292	0.084739
592.745977	0.084671
592.956644	0.084831
593.167293	0.085044
593.377923	0.085025
593.588536	0.085139
593.799130	0.084982
594.009706	0.085163
594.220263	0.085288
594.430803	0.085432
594.641324	0.085812
594.851827	0.085773
595.062312	0.085662
595.272778	0.085697
595.483227	0.085753
595.693657	0.085911
595.904069	0.086270
596.114462	0.086561
596.324838	0.086482
596.535195	0.086489
596.745534	0.086683
596.955855	0.086825
597.166157	0.086705
597.376441	0.087155
597.586707	0.086891
597.796955	0.086835
598.007185	0.086597
598.217396	0.086784
598.427589	0.086487
598.637764	0.086405
598.847921	0.086305
599.058060	0.086406
599.268180	0.086040
599.478282	0.086344
599.688366	0.086620
599.898431	0.086727
600.108479	0.086661
600.318508	0.086917
600.528519	0.087101
600.738511	0.087141
600.948486	0.087206
601.158442	0.087403
601.368380	0.087766
601.578300	0.087688
601.788202	0.088076
601.998085	0.087905
602.207950	0.088091
602.417797	0.088016
602.627626	0.088369
602.837436	0.088569
603.047228	0.088318
603.257002	0.088319
603.466758	0.087933
603.676496	0.087710
603.886215	0.088035
604.095916	0.088063
604.305599	0.088170
604.515264	0.088113
604.724910	0.088345
604.934538	0.088824
605.144148	0.088752
605.353740	0.089225
605.563314	0.089232
605.772869	0.089165
605.982406	0.089148
606.191925	0.089276
606.401425	0.089360
606.610908	0.089297
606.820372	0.089263
607.029818	0.089288
607.239246	0.089342
607.448655	0.089660
607.658047	0.089722
607.867420	0.089740
608.076775	0.089603
608.286111	0.089456
608.495430	0.089159
608.704730	0.089035
608.914012	0.089080
609.123275	0.089144
609.332521	0.089003
609.541748	0.089231
609.750957	0.089237
609.960148	0.089283
610.169321	0.089451
610.378475	0.089881
610.587611	0.089987
610.796729	0.089866
611.005829	0.089608
611.214910	0.089541
611.423974	0.089488
611.633019	0.089751
611.842045	0.090134
612.051054	0.090214
612.260044	0.089974
612.469017	0.089884
612.677970	0.089964
612.886906	0.090105
613.095824	0.090138
613.304723	0.090172
613.513604	0.090180
613.722467	0.089844
613.931311	0.089787
614.140138	0.089881
614.348946	0.089782
614.557736	0.089988
614.766507	0.090005
614.975261	0.090076
615.183996	0.089972
615.392713	0.089797
615.601412	0.089583
615.810092	0.089492
616.018754	0.089387
616.227399	0.089721
616.436024	0.089603
616.644632	0.089605
616.853222	0.089465
617.061793	0.089446
617.270346	0.089180
617.478880	0.089399
617.687397	0.089489
617.895895	0.089679
618.104375	0.089549
618.312837	0.089531
618.521281	0.089390
618.729706	0.089403
618.938113	0.089360
619.146502	0.089670
619.354873	0.089596
619.563226	0.089510
619.771560	0.089577
619.979876	0.089761
620.188174	0.089882
620.396453	0.089855
620.604715	0.090011
620.812958	0.090140
621.021183	0.090241
621.229390	0.090523
621.437578	0.090754
621.645748	0.090850
621.853900	0.090717
622.062034	0.090797
622.270150	0.091036
622.478247	0.091288
622.686326	0.091504
622.894387	0.091508
623.102430	0.091564
623.310454	0.091615
623.518461	0.091445
623.726449	0.091742
623.934418	0.091902
624.142370	0.092225
624.350303	0.092288
624.558218	0.092271
624.766115	0.092357
624.973994	0.092393
625.181855	0.092413
625.389697	0.092435
625.597521	0.092323
625.805327	0.092209
626.013114	0.092047
626.220883	0.091786
626.428634	0.091499
626.636367	0.091775
626.844082	0.091860
627.051778	0.091911
627.259457	0.092180
627.467117	0.092385
627.674758	0.092568
627.882382	0.092959
628.089987	0.093202
628.297574	0.093482
628.505143	0.093185
628.712694	0.093050
628.920226	0.093240
629.127740	0.093108
629.335236	0.093037
629.542714	0.092814
629.750174	0.092526
629.957615	0.093051
630.165038	0.093318
630.372443	0.093510
630.579829	0.093748
630.787198	0.093734
630.994548	0.094012
631.201880	0.094163
631.409194	0.094398
631.616489	0.094679
631.823766	0.094507
632.031025	0.094536
632.238266	0.094511
632.445489	0.094567
632.652693	0.094254
632.859879	0.094127
633.067047	0.094100
633.274197	0.094187
633.481329	0.094109
633.688442	0.093867
633.895537	0.093794
634.102614	0.093739
634.309672	0.093801
634.516713	0.094393
634.723735	0.094573
634.930739	0.094894
635.137724	0.095065
635.344692	0.095103
635.551641	0.095052
635.758572	0.095128
635.965485	0.095229
636.172379	0.095167
636.379256	0.094763
636.586114	0.094595
636.792954	0.094574
636.999775	0.094850
637.206579	0.094801
637.413364	0.095142
637.620131	0.095165
637.826880	0.095274
638.033610	0.095204
638.240323	0.095517
638.447017	0.095666
638.653692	0.095654
638.860350	0.095345
639.066990	0.095489
639.273611	0.095235
639.480214	0.095192
639.686798	0.095173
639.893365	0.095435
640.099913	0.095379
640.306443	0.095433
640.512955	0.095460
640.719449	0.095641
640.925924	0.095638
641.132381	0.096018
641.338820	0.096110
641.545241	0.096385
641.751644	0.096694
641.958028	0.096801
642.164394	0.096885
642.370742	0.096792
642.577071	0.096843
642.783383	0.097009
642.989676	0.096986
643.195951	0.097178
643.402207	0.097125
643.608446	0.096865
643.814666	0.096902
644.020868	0.097158
644.227052	0.097279
644.433218	0.097264
644.639365	0.097252
644.845494	0.097459
645.051605	0.097847
645.257698	0.098052
645.463772	0.098368
645.669828	0.098720
645.875866	0.098759
646.081886	0.099017
646.287888	0.099153
646.493871	0.099172
646.699836	0.099111
646.905783	0.099165
647.111712	0.099144
647.317622	0.099149
647.523514	0.098912
647.729388	0.098966
647.935244	0.098906
648.141082	0.099041
648.346901	0.099241
648.552702	0.099333
648.758485	0.099125
648.964250	0.099410
649.169996	0.099556
649.375724	0.099894
649.581434	0.100019
649.787126	0.100126
649.992800	0.100228
650.198455	0.100144
650.404092	0.100168
650.609711	0.100352
650.815311	0.100121
651.020894	0.100093
651.226458	0.100149
651.432004	0.100103
651.637532	0.100262
651.843041	0.100183
652.048532	0.100406
652.254006	0.100566
652.459460	0.100714
652.664897	0.100869
652.870315	0.100905
653.075716	0.100941
653.281097	0.101098
653.486461	0.101080
653.691807	0.101428
653.897134	0.101347
654.102443	0.101336
654.307734	0.101175
654.513006	0.101545
654.718261	0.101722
654.923497	0.101711
655.128715	0.101821
655.333915	0.101845
655.539096	0.101698
655.744259	0.101944
655.949404	0.102126
656.154531	0.102475
656.359640	0.102327
656.564730	0.102227
656.769802	0.102409
656.974856	0.102408
657.179892	0.102517
657.384909	0.102626
657.589908	0.102648
657.794889	0.102723
657.999852	0.102406
658.204797	0.102503
658.409723	0.102753
658.614631	0.102579
658.819521	0.102522
659.024393	0.102628
659.229246	0.102688
659.434081	0.102742
659.638898	0.102713
659.843697	0.102786
660.048478	0.102624
660.253240	0.102435
660.457984	0.102619
660.662710	0.102649
660.867417	0.102728
661.072107	0.102711
661.276778	0.102825
661.481431	0.102880
661.686066	0.103225
661.890682	0.103454
662.095281	0.103627
662.299861	0.103789
662.504422	0.104056
662.708966	0.104251
662.913491	0.104335
663.117999	0.104444
663.322488	0.104564
663.526958	0.104869
663.731411	0.105034
663.935845	0.105339
664.140261	0.105384
664.344659	0.105407
664.549038	0.105335
664.753400	0.105514
664.957743	0.105588
665.162068	0.105769
665.366375	0.105747
665.570663	0.105820
665.774933	0.105763
665.979185	0.105885
666.183419	0.106194
666.387635	0.106349
666.591832	0.106386
666.796011	0.106579
667.000172	0.106653
667.204315	0.106638
667.408439	0.106757
667.612545	0.106862
667.816634	0.106869
668.020703	0.106623
668.224755	0.106646
668.428788	0.106816
668.632803	0.106878
668.836800	0.106936
669.040779	0.106876
669.244739	0.106922
669.448681	0.107149
669.652605	0.107216
669.856511	0.107469
670.060399	0.107792
670.264268	0.107828
670.468119	0.107709
670.671952	0.107631
670.875767	0.107825
671.079563	0.107877
671.283341	0.107686
671.487101	0.108013
671.690843	0.108081
671.894567	0.107813
672.098272	0.107960
672.301959	0.108351
672.505628	0.108824
672.709278	0.108920
672.912911	0.109070
673.116525	0.109234
673.320121	0.109227
673.523699	0.109335
673.727258	0.109641
673.930799	0.109621
674.134322	0.109578
674.337827	0.109452
674.541314	0.109518
674.744782	0.109445
674.948232	0.109431
675.151664	0.109478
675.355078	0.109467
675.558474	0.109584
675.761851	0.109571
675.965210	0.109569
676.168551	0.109532
676.371873	0.109706
676.575178	0.110079
676.778464	0.110302
676.981732	0.110390
677.184981	0.110445
677.388213	0.110386
677.591426	0.110721
677.794621	0.110862
677.997798	0.111138
678.200956	0.111117
678.404097	0.111024
678.607219	0.111352
678.810323	0.111336
679.013408	0.111658
679.216476	0.112020
679.419525	0.112264
679.622556	0.112321
679.825569	0.112356
680.028563	0.112547
680.231540	0.112841
680.434498	0.112868
680.637438	0.113219
680.840359	0.113347
681.043263	0.113470
681.246148	0.113424
681.449015	0.113732
681.651864	0.113865
681.854694	0.113949
682.057506	0.114007
682.260301	0.113959
682.463076	0.114009
682.665834	0.113914
682.868573	0.113950
683.071295	0.114044
683.273998	0.114231
683.476682	0.114445
683.679349	0.114614
683.881997	0.114798
684.084627	0.115026
684.287239	0.115028
684.489833	0.115093
684.692408	0.115112
684.894965	0.115044
685.097504	0.114826
685.300025	0.114759
685.502527	0.114711
685.705012	0.114554
685.907478	0.114528
686.109925	0.114525
686.312355	0.114570
686.514766	0.114564
686.717159	0.114644
686.919534	0.114689
687.121891	0.114653
687.324230	0.114902
687.526550	0.115126
687.728852	0.115125
687.931136	0.115284
688.133401	0.115375
688.335649	0.115331
688.537878	0.115451
688.740089	0.115582
688.942281	0.115675
689.144456	0.115601
689.346612	0.115538
689.548750	0.115486
689.750870	0.115618
689.952971	0.115559
690.155055	0.115727
690.357120	0.115797
690.559167	0.115879
690.761195	0.115907
690.963206	0.115876
691.165198	0.115916
691.367172	0.116175
691.569128	0.116131
691.771065	0.116422
691.972984	0.116344
692.174885	0.116654
692.376768	0.116623
692.578633	0.116735
692.780479	0.116899
692.982308	0.117045
693.184118	0.117216
693.385909	0.117453
693.587683	0.117616
693.789438	0.117830
693.991175	0.117623
694.192894	0.117802
694.394595	0.117837
694.596277	0.117768
694.797941	0.117955
694.999587	0.117906
695.201215	0.117855
695.402824	0.117847
695.604416	0.117888
695.805989	0.118082
696.007543	0.118053
696.209080	0.118184
696.410598	0.118235
696.612099	0.118265
696.813580	0.118415
697.015044	0.118495
697.216490	0.118616
697.417917	0.118719
697.619326	0.118900
697.820717	0.118919
698.022089	0.118963
698.223444	0.119202
698.424780	0.119188
698.626098	0.119271
698.827397	0.119361
699.028679	0.119265
699.229942	0.119296
699.431187	0.119191
699.632414	0.119461
699.833622	0.119713
700.034813	0.119638
700.235985	0.119733
700.437139	0.119560
700.638274	0.119770
700.839392	0.120056
701.040491	0.120219
701.241572	0.120347
701.442635	0.120199
701.643679	0.120210
701.844706	0.120264
702.045714	0.120150
702.246704	0.120212
702.447675	0.119837
702.648629	0.119660
702.849564	0.119555
703.050481	0.119506
703.251380	0.119374
703.452260	0.119436
703.653122	0.119393
703.853966	0.119406
704.054792	0.119412
704.255600	0.119419
704.456389	0.119299
704.657160	0.119357
704.857913	0.119403
705.058648	0.119529
705.259365	0.119259
705.460063	0.119197
705.660743	0.119157
705.861405	0.119296
706.062048	0.119468
706.262674	0.119503
706.463281	0.119278
706.663870	0.119005
706.864441	0.118985
707.064993	0.119006
707.265527	0.119166
707.466043	0.119274
707.666541	0.119173
707.867021	0.119311
708.067482	0.119245
708.267925	0.119534
708.468350	0.119552
708.668757	0.119704
708.869145	0.119892
709.069516	0.119755
709.269868	0.119641
709.470201	0.119839
709.670517	0.119713
709.870814	0.119917
710.071093	0.119873
710.271354	0.119908
710.471597	0.119811
710.671821	0.119792
710.872028	0.119904
711.072216	0.120138
711.272385	0.120021
711.472537	0.120023
711.672670	0.120052
711.872785	0.120051
712.072882	0.120201
712.272961	0.120196
712.473021	0.119975
712.673063	0.119882
712.873087	0.119904
713.073093	0.119930
713.273081	0.119925
713.473050	0.119914
713.673001	0.119761
713.872934	0.119824
714.072849	0.119743
714.272745	0.119971
714.472623	0.120082
714.672483	0.119801
714.872325	0.119613
715.072148	0.119585
715.271954	0.119500
715.471741	0.119561
715.671509	0.119216
715.871260	0.119238
716.070992	0.118991
716.270707	0.118864
716.470403	0.119062
716.670080	0.119057
716.869740	0.118986
717.069381	0.118889
717.269004	0.118798
717.468609	0.118967
717.668195	0.118811
717.867764	0.118737
718.067314	0.118734
718.266846	0.118566
718.466360	0.118565
718.665855	0.118534
718.865332	0.118632
719.064791	0.118649
719.264232	0.118328
719.463655	0.118436
719.663059	0.118298
719.862445	0.118164
720.061813	0.117962
720.261163	0.117748
720.460494	0.117647
720.659807	0.117279
720.859102	0.116946
721.058379	0.116956
721.257638	0.116863
721.456878	0.116945
721.656100	0.116915
721.855304	0.116916
722.054490	0.116926
722.253657	0.116690
722.452806	0.116861
722.651937	0.117131
722.851050	0.117258
723.050145	0.117282
723.249221	0.117188
723.448279	0.116958
723.647319	0.116765
723.846340	0.116795
724.045344	0.116815
724.244329	0.116638
724.443296	0.116373
724.642245	0.116252
724.841175	0.115996
725.040088	0.116009
725.238982	0.116050
725.437857	0.116063
725.636715	0.115868
725.835554	0.115775
726.034376	0.115641
726.233179	0.115642
726.431963	0.115568
726.630730	0.115496
726.829478	0.115173
727.028208	0.115147
727.226920	0.115066
727.425614	0.115037
727.624289	0.115110
727.822946	0.115170
728.021585	0.115272
728.220206	0.115345
728.418808	0.115214
728.617392	0.115379
728.815958	0.115223
729.014506	0.115267
729.213036	0.115284
729.411547	0.115104
729.610040	0.115119
729.808515	0.114766
730.006972	0.114570
730.205410	0.114741
730.403831	0.114691
730.602233	0.114726
730.800616	0.114630
730.998982	0.114267
731.197329	0.114160
731.395658	0.113917
731.593969	0.113927
731.792262	0.113710
731.990536	0.113501
732.188793	0.113386
732.387031	0.113105
732.585250	0.112929
732.783452	0.112778
732.981635	0.112712
733.179800	0.112640
733.377947	0.112753
733.576076	0.112848
733.774186	0.112926
733.972278	0.112786
734.170352	0.112788
734.368408	0.112908
734.566446	0.113075
734.764465	0.112958
734.962466	0.112983
735.160449	0.112876
735.358413	0.112916
735.556360	0.112565
735.754288	0.112632
735.952198	0.112478
736.150090	0.112251
736.347963	0.112202
736.545818	0.112220
736.743655	0.112177
736.941474	0.111984
737.139275	0.111882
737.337057	0.112002
737.534821	0.111846
737.732567	0.112159
737.930295	0.112003
738.128005	0.112074
738.325696	0.111974
738.523369	0.111924
738.721024	0.111915
738.918660	0.111713
739.116279	0.111799
739.313879	0.111770
739.511461	0.111522
739.709024	0.111511
739.906570	0.111244
740.104097	0.111365
740.301606	0.111294
740.499097	0.111216
740.696569	0.111246
740.894024	0.111237
741.091460	0.111264
741.288878	0.111370
741.486277	0.111411
741.683659	0.111556
741.881022	0.111362
742.078367	0.111379
742.275694	0.111299
742.473002	0.111123
742.670293	0.110941
742.867565	0.110894
743.064819	0.110677
743.262054	0.110687
743.459272	0.110531
743.656471	0.110560
743.853652	0.110483
744.050815	0.110362
744.247959	0.110518
744.445085	0.110427
744.642194	0.110302
744.839283	0.110329
745.036355	0.110372
745.233408	0.110500
745.430444	0.110439
745.627461	0.110105
745.824459	0.110342
746.021440	0.110076
746.218402	0.109918
746.415346	0.109790
746.612272	0.109617
746.809180	0.109558
747.006069	0.109217
747.202940	0.109022
747.399793	0.109234
747.596628	0.108921
747.793444	0.108995
747.990243	0.109006
748.187023	0.108937
748.383784	0.109039
748.580528	0.108773
748.777253	0.108787
748.973960	0.109003
749.170649	0.108795
749.367320	0.108716
749.563973	0.108573
749.760607	0.108528
749.957223	0.108606
750.153821	0.108359
750.350400	0.108391
750.546962	0.108335
750.743505	0.108115
750.940030	0.108204
751.136536	0.108266
751.333025	0.108373
751.529495	0.108454
751.725947	0.108371
751.922381	0.108524
752.118796	0.108270
752.315194	0.108282
752.511573	0.108325
752.707934	0.108202
752.904276	0.108079
753.100601	0.107847
753.296907	0.107585
753.493195	0.107618
753.689465	0.107557
753.885716	0.107592
754.081949	0.107576
754.278164	0.107531
754.474361	0.107420
754.670540	0.107291
754.866700	0.107286
755.062843	0.107473
755.258967	0.107409
755.455072	0.107452
755.651160	0.107697
755.847229	0.107671
756.043280	0.107594
756.239313	0.107740
756.435328	0.107835
756.631324	0.107871
756.827302	0.107588
757.023262	0.107234
757.219204	0.107003
757.415127	0.106729
757.611033	0.106621
757.806920	0.106403
758.002788	0.106279
758.198639	0.106228
758.394471	0.105965
758.590286	0.105920
758.786081	0.106068
758.981859	0.105847
759.177619	0.105842
759.373360	0.105710
759.569083	0.105538
759.764788	0.105286
759.960474	0.105039
760.156143	0.104859
760.351793	0.104832
760.547425	0.104405
760.743038	0.104302
760.938634	0.104223
761.134211	0.104082
761.329770	0.104083
761.525311	0.104312
761.720833	0.104390
761.916338	0.104782
762.111824	0.104821
762.307292	0.105153
762.502741	0.105439
762.698173	0.105288
762.893586	0.105445
763.088981	0.105770
763.284358	0.105472
763.479716	0.105353
763.675057	0.104952
763.870379	0.104814
764.065683	0.104565
764.260968	0.104444
764.456236	0.104292
764.651485	0.104064
764.846716	0.103738
765.041929	0.103826
765.237123	0.103786
765.432299	0.103753
765.627457	0.103795
765.822597	0.103650
766.017719	0.103462
766.212822	0.103579
766.407907	0.103423
766.602974	0.103454
766.798023	0.103218
766.993054	0.103158
767.188066	0.102918
767.383060	0.102725
767.578036	0.102905
767.772993	0.102692
767.967933	0.102355
768.162854	0.102388
768.357757	0.102137
768.552642	0.102144
768.747508	0.102145
768.942356	0.102444
769.137186	0.102224
769.331998	0.102164
769.526792	0.102379
769.721567	0.102469
769.916324	0.102395
770.111063	0.102482
770.305784	0.102289
770.500486	0.102041
770.695171	0.101912
770.889837	0.101884
771.084484	0.101771
771.279114	0.101831
771.473725	0.101847
771.668318	0.101963
771.862893	0.101743
772.057450	0.101764
772.251988	0.101771
772.446509	0.101667
772.641011	0.101957
772.835494	0.101868
773.029960	0.101621
773.224407	0.101562
773.418836	0.101480
773.613247	0.101658
773.807640	0.101656
774.002014	0.101634
774.196370	0.101657
774.390708	0.101282
774.585028	0.101472
774.779330	0.101575
774.973613	0.101547
775.167878	0.101433
775.362125	0.101367
775.556354	0.101484
775.750564	0.101544
775.944756	0.101543
776.138930	0.101868
776.333086	0.101745
776.527223	0.101764
776.721343	0.101981
776.915444	0.102222
777.109526	0.102352
777.303591	0.102270
777.497637	0.102351
777.691666	0.102208
777.885676	0.102289
778.079667	0.102346
778.273641	0.102420
778.467596	0.102446
778.661533	0.102487
778.855452	0.102438
779.049352	0.102637
779.243235	0.102709
779.437099	0.102882
779.630945	0.102885
779.824773	0.102870
780.018582	0.102895
780.212373	0.102696
780.406146	0.102718
780.599901	0.102766
780.793638	0.102721
780.987356	0.103052
781.181056	0.103111
781.374738	0.103053
781.568402	0.103069
781.762047	0.103073
781.955674	0.103206
782.149283	0.103035
782.342874	0.102867
782.536447	0.102992
782.730001	0.102595
782.923537	0.102710
783.117055	0.102501
783.310555	0.102528
783.504036	0.102401
783.697499	0.102550
783.890944	0.102465
784.084371	0.102784
784.277780	0.102691
784.471170	0.102725
784.664542	0.102512
784.857896	0.102733
785.051231	0.102575
785.244549	0.102749
785.437848	0.102660
785.631129	0.102896
785.824392	0.102621
786.017636	0.102488
786.210863	0.102599
786.404071	0.102779
786.597260	0.102700
786.790432	0.102925
786.983585	0.102929
787.176721	0.103047
787.369838	0.102982
787.562936	0.103160
787.756017	0.103180
787.949079	0.103279
788.142123	0.103224
788.335149	0.103570
788.528156	0.103713
788.721146	0.103827
788.914117	0.103634
789.107070	0.103674
789.300005	0.103735
789.492921	0.104005
789.685819	0.103894
789.878699	0.104280
790.071561	0.103998
790.264405	0.103950
790.457230	0.103887
790.650037	0.104179
790.842826	0.104482
791.035597	0.104571
791.228349	0.104548
791.421084	0.104851
791.613800	0.104660
791.806497	0.104842
791.999177	0.105043
792.191838	0.104918
792.384481	0.104860
792.577106	0.104885
792.769713	0.105062
792.962301	0.105168
793.154871	0.105186
793.347423	0.105271
793.539957	0.105219
793.732473	0.105167
793.924970	0.105338
794.117449	0.105417
794.309910	0.105537
794.502353	0.105362
794.694777	0.105274
794.887183	0.105278
795.079571	0.105341
795.271941	0.105487
795.464293	0.105453
795.656626	0.105682
795.848941	0.105995
796.041238	0.106067
796.233516	0.106417
796.425777	0.106882
796.618019	0.106883
796.810243	0.106998
797.002449	0.107150
797.194636	0.107704
797.386805	0.107884
797.578956	0.107930
797.771089	0.107976
797.963204	0.107836
798.155300	0.107908
798.347378	0.108129
798.539438	0.108080
798.731480	0.108323
798.923503	0.108193
799.115509	0.108160
799.307496	0.108257
799.499465	0.107989
799.691415	0.108145
799.883348	0.107789
800.075262	0.107857
800.267158	0.108183
800.459035	0.108042
800.650895	0.107875
800.842736	0.108004
801.034559	0.108059
801.226364	0.108450
801.418150	0.108546
801.609919	0.108841
801.801669	0.108783
801.993401	0.108894
802.185114	0.109138
802.376810	0.109485
802.568487	0.109569
802.760146	0.109650
802.951787	0.109756
803.143409	0.110072
803.335014	0.110309
803.526600	0.110551
803.718168	0.110612
803.909717	0.110721
804.101249	0.110675
804.292762	0.110659
804.484257	0.110897
804.675734	0.111068
804.867192	0.111070
805.058632	0.111080
805.250054	0.111207
805.441458	0.111378
805.632844	0.111454
805.824211	0.111688
806.015561	0.112039
806.206891	0.111943
806.398204	0.111833
806.589499	0.111874
806.780775	0.112100
806.972033	0.112003
807.163273	0.111972
807.354495	0.112226
807.545698	0.112365
807.736883	0.112482
807.928050	0.112719
808.119199	0.113111
808.310329	0.113309
808.501441	0.113259
808.692535	0.113664
808.883611	0.114135
809.074669	0.114291
809.265708	0.114436
809.456729	0.114635
809.647732	0.114788
809.838717	0.115055
810.029683	0.115454
810.220632	0.115736
810.411562	0.116080
810.602474	0.115807
810.793367	0.115861
810.984242	0.116128
811.175100	0.116156
811.365938	0.116356
811.556759	0.116365
811.747562	0.116148
811.938346	0.116667
812.129112	0.116531
812.319860	0.116976
812.510589	0.117126
812.701300	0.117212
812.891994	0.117498
813.082668	0.117734
813.273325	0.117890
813.463964	0.118268
813.654584	0.118118
813.845186	0.118276
814.035769	0.118449
814.226335	0.118653
814.416882	0.118690
814.607411	0.118443
814.797922	0.118420
814.988415	0.118729
815.178889	0.118547
815.369345	0.118857
815.559783	0.118819
815.750203	0.118965
815.940605	0.119063
816.130988	0.119272
816.321353	0.119591
816.511700	0.119688
816.702028	0.119583
816.892339	0.119856
817.082631	0.119876
817.272905	0.120077
817.463161	0.120151
817.653398	0.120161
817.843617	0.120452
818.033819	0.120642
818.224001	0.120744
818.414166	0.120854
818.604312	0.121158
818.794440	0.121374
818.984550	0.121698
819.174642	0.121949
819.364716	0.122302
819.554771	0.122171
819.744808	0.122210
819.934827	0.122449
820.124827	0.122725
820.314810	0.122694
820.504774	0.122582
820.694720	0.122910
820.884647	0.123037
821.074557	0.123160
821.264448	0.123552
821.454321	0.123872
821.644176	0.124142
821.834012	0.124407
822.023831	0.124626
822.213631	0.125101
822.403413	0.125105
822.593176	0.125422
822.782922	0.125717
822.972649	0.125925
823.162358	0.125907
823.352049	0.126186
823.541721	0.126392
823.731376	0.126748
823.921012	0.126849
824.110629	0.127141
824.300229	0.127388
824.489811	0.127606
824.679374	0.128018
824.868919	0.128659
825.058445	0.129055
825.247954	0.129302
825.437444	0.129372
825.626916	0.129867
825.816370	0.130000
826.005806	0.130019
826.195223	0.130425
826.384622	0.130404
826.574003	0.130651
826.763366	0.130346
826.952711	0.130434
827.142037	0.130977
827.331345	0.131016
827.520635	0.131298
827.709906	0.131321
827.899160	0.131254
828.088395	0.131293
828.277612	0.131351
828.466810	0.131395
828.655991	0.131524
828.845153	0.131362
829.034297	0.131326
829.223423	0.131347
829.412531	0.131487
829.601620	0.131543
829.790691	0.131931
829.979744	0.131729
830.168779	0.132069
830.357795	0.132028
830.546793	0.132262
830.735773	0.132366
830.924735	0.132595
831.113679	0.132799
831.302604	0.133275
831.491511	0.133350
831.680400	0.133766
831.869271	0.133937
832.058123	0.134441
832.246957	0.134570
832.435773	0.134713
832.624571	0.134814
832.813351	0.135041
833.002112	0.134999
833.190855	0.135080
833.379580	0.135033
833.568287	0.135400
833.756975	0.135209
833.945645	0.135313
834.134297	0.135744
834.322931	0.135867
834.511547	0.136097
834.700144	0.136210
834.888723	0.136224
835.077284	0.136870
835.265826	0.137109
835.454351	0.137615
835.642857	0.137887
835.831345	0.138015
836.019815	0.138220
836.208266	0.138833
836.396699	0.139111
836.585114	0.139550
836.773511	0.139798
836.961890	0.139891
837.150250	0.140290
837.338592	0.140613
837.526916	0.140813
837.715222	0.141361
837.903510	0.141300
838.091779	0.141706
838.280030	0.142073
838.468263	0.142154
838.656477	0.142359
838.844674	0.142419
839.032852	0.142842
839.221012	0.143093
839.409153	0.143192
839.597277	0.143346
839.785382	0.143362
839.973469	0.143628
840.161538	0.143921
840.349589	0.144303
840.537621	0.144746
840.725635	0.145020
840.913631	0.145499
841.101609	0.145868
841.289568	0.146409
841.477509	0.146968
841.665432	0.147371
841.853337	0.147673
842.041224	0.148174
842.229092	0.148458
842.416942	0.148493
842.604774	0.148641
842.792588	0.148805
842.980383	0.148561
843.168160	0.148555
843.355919	0.148687
843.543660	0.148846
843.731382	0.148973
843.919087	0.149133
844.106773	0.149619
844.294441	0.150040
844.482090	0.150412
844.669722	0.150923
844.857335	0.151327
845.044930	0.151467
845.232507	0.151752
845.420065	0.151638
845.607605	0.151811
845.795127	0.151698
845.982631	0.151937
846.170117	0.152186
846.357584	0.152449
846.545033	0.152436
846.732464	0.152732
846.919877	0.153210
847.107272	0.153931
847.294648	0.154031
847.482006	0.154340
847.669346	0.154478
847.856667	0.154700
848.043971	0.154728
848.231256	0.155021
848.418523	0.155246
848.605771	0.155293
848.793002	0.155301
848.980214	0.155708
849.167408	0.156055
849.354584	0.156280
849.541742	0.156506
849.728881	0.157111
849.916002	0.157085
850.103105	0.157162
850.290190	0.157337
850.477256	0.157658
850.664304	0.157661
850.851334	0.157843
851.038346	0.157752
851.225340	0.157818
851.412315	0.157803
851.599272	0.158217
851.786211	0.158435
851.973132	0.158289
852.160034	0.158351
852.346918	0.158566
852.533784	0.158716
852.720632	0.159044
852.907462	0.159357
853.094273	0.159196
853.281066	0.159652
853.467841	0.160067
853.654598	0.160435
853.841336	0.160741
854.028056	0.161129
854.214758	0.161400
854.401442	0.161761
854.588107	0.161966
854.774755	0.162569
854.961384	0.162621
855.147995	0.162744
855.334587	0.163119
855.521162	0.163140
855.707718	0.163456
855.894256	0.163681
856.080775	0.163915
856.267277	0.164185
856.453760	0.164581
856.640225	0.165010
856.826672	0.165151
857.013101	0.165395
857.199511	0.165795
857.385903	0.165777
857.572277	0.166061
857.758633	0.166202
857.944970	0.166313
858.131290	0.166149
858.317591	0.165905
858.503873	0.166255
858.690138	0.166699
858.876384	0.166647
859.062612	0.166922
859.248822	0.167060
859.435014	0.167216
859.621188	0.167580
859.807343	0.168212
859.993480	0.168627
860.179599	0.168983
860.365699	0.169214
860.551781	0.169692
860.737846	0.169878
860.923891	0.170177
861.109919	0.170341
861.295929	0.170907
861.481920	0.171254
861.667893	0.171978
861.853848	0.172259
862.039784	0.172309
862.225702	0.172603
862.411603	0.172903
862.597484	0.172981
862.783348	0.173861
862.969193	0.173326
863.155021	0.173480
863.340830	0.173311
863.526620	0.173204
863.712393	0.173432
863.898147	0.173595
864.083883	0.173838
864.269601	0.174126
864.455301	0.173731
864.640982	0.174219
864.826645	0.174056
865.012290	0.174206
865.197917	0.174364
865.383526	0.173963
865.569116	0.173899
865.754688	0.173835
865.940242	0.173640
866.125777	0.173868
866.311295	0.173887
866.496794	0.174098
866.682275	0.174201
866.867737	0.174157
867.053182	0.175025
867.238608	0.175366
867.424016	0.175410
867.609406	0.175826
867.794778	0.176020
867.980131	0.176196
868.165466	0.176388
868.350783	0.176670
868.536082	0.177116
868.721362	0.177294
868.906625	0.177512
869.091869	0.178048
869.277094	0.178556
869.462302	0.178816
869.647491	0.179213
869.832662	0.179476
870.017815	0.179811
870.202950	0.179861
870.388066	0.179815
870.573165	0.180002
870.758245	0.180208
870.943306	0.179958
871.128350	0.179883
871.313375	0.179669
871.498382	0.179397
871.683371	0.179461
871.868342	0.179529
872.053294	0.179608
872.238229	0.179645
872.423144	0.179439
872.608042	0.179780
872.792922	0.180020
872.977783	0.180255
873.162626	0.180637
873.347451	0.180486
873.532258	0.180862
873.717046	0.181411
873.901816	0.181765
874.086568	0.182404
874.271302	0.182664
874.456017	0.182905
874.640715	0.183220
874.825394	0.183382
875.010055	0.183756
875.194697	0.183691
875.379322	0.183321
875.563928	0.183229
875.748516	0.183229
875.933085	0.183403
876.117637	0.183513
876.302170	0.183807
876.486685	0.184044
876.671182	0.184302
876.855661	0.184596
877.040121	0.184631
877.224563	0.184791
877.408987	0.184877
877.593393	0.184610
877.777780	0.184579
877.962150	0.184534
878.146501	0.184537
878.330833	0.184452
878.515148	0.184710
878.699444	0.184757
878.883722	0.184569
879.067982	0.184680
879.252224	0.184736
879.436447	0.184898
879.620653	0.184739
879.804840	0.184760
879.989008	0.184947
880.173159	0.184686
880.357291	0.184899
880.541405	0.184847
880.725501	0.184797
880.909579	0.185256
881.093638	0.185284
881.277680	0.185398
881.461703	0.185367
881.645707	0.185282
881.829694	0.185536
882.013662	0.185769
882.197612	0.185850
882.381544	0.185339
882.565458	0.185236
882.749353	0.185126
882.933230	0.185344
883.117089	0.185400
883.300930	0.185469
883.484753	0.185289
883.668557	0.184940
883.852343	0.185581
884.036111	0.186020
884.219861	0.186260
884.403592	0.186444
884.587305	0.186503
884.771000	0.186708
884.954677	0.186721
885.138335	0.187011
885.321976	0.187165
885.505598	0.187119
885.689201	0.187206
885.872787	0.186904
886.056354	0.186980
886.239904	0.187293
886.423434	0.187443
886.606947	0.187904
886.790442	0.187661
886.973918	0.187605
887.157376	0.187348
887.340816	0.187686
887.524237	0.187816
887.707641	0.188145
887.891026	0.187967
888.074393	0.187908
888.257741	0.187632
888.441072	0.188158
888.624384	0.188701
888.807678	0.189037
888.990954	0.188910
889.174211	0.189117
889.357451	0.188834
889.540672	0.188429
889.723875	0.188418
889.907059	0.188334
890.090226	0.188078
890.273374	0.188469
890.456504	0.188255
890.639616	0.188448
890.822709	0.188350
891.005785	0.188559
891.188842	0.188805
891.371881	0.188806
891.554901	0.188780
891.737904	0.188950
891.920888	0.188227
892.103854	0.188843
892.286802	0.189090
892.469731	0.188912
892.652643	0.188595
892.835536	0.189073
893.018410	0.189472
893.201267	0.189256
893.384106	0.189125
893.566926	0.189288
893.749728	0.188832
893.932511	0.188660
894.115277	0.188903
894.298024	0.189486
894.480753	0.188926
894.663464	0.188883
894.846157	0.188816
895.028831	0.188937
895.211487	0.188830
895.394125	0.188525
895.576745	0.188318
895.759346	0.188546
895.941930	0.188040
896.124495	0.188068
896.307041	0.188158
896.489570	0.188734
896.672080	0.188607
896.854573	0.188581
897.037046	0.189036
897.219502	0.188774
897.401940	0.188421
897.584359	0.188079
897.766760	0.188180
897.949143	0.187590
898.131507	0.187057
898.313854	0.187023
898.496182	0.186796
898.678492	0.186364
898.860783	0.186331
899.043057	0.185995
899.225312	0.186235
899.407549	0.185999
899.589768	0.186338
899.771968	0.186039
899.954151	0.185766
900.136315	0.185670
900.318461	0.185876
900.500588	0.185748
900.682698	0.185773
900.864789	0.185435
901.046862	0.185469
901.228917	0.184983
901.410953	0.185152
901.592971	0.185035
901.774972	0.185174
901.956953	0.184934
902.138917	0.184778
902.320862	0.184435
902.502790	0.184280
902.684699	0.184035
902.866589	0.183828
903.048462	0.183652
903.230316	0.183472
903.412152	0.183272
903.593970	0.182962
903.775770	0.182935
903.957551	0.182856
904.139314	0.182829
904.321059	0.182457
904.502786	0.182154
904.684494	0.181741
904.866185	0.181322
905.047857	0.181200
905.229510	0.180826
905.411146	0.180063
905.592763	0.180058
905.774363	0.179613
905.955943	0.179763
906.137506	0.179530
906.319051	0.179076
906.500577	0.179088
906.682085	0.178594
906.863575	0.178505
907.045046	0.178394
907.226500	0.177840
907.407935	0.177934
907.589352	0.177866
907.770750	0.178009
907.952131	0.178401
908.133493	0.178004
908.314837	0.177983
908.496163	0.177645
908.677470	0.177693
908.858760	0.177700
909.040031	0.177533
909.221284	0.176799
909.402518	0.175957
909.583735	0.175748
909.764933	0.175593
909.946113	0.175871
910.127275	0.175760
910.308418	0.175312
910.489544	0.174618
910.670651	0.174224
910.851740	0.174033
911.032810	0.174160
911.213863	0.173634
911.394897	0.173651
911.575913	0.172128
911.756911	0.171364
911.937890	0.171061
912.118851	0.170900
912.299794	0.170239
912.480719	0.170024
912.661626	0.170013
912.842514	0.169670
913.023384	0.169099
913.204236	0.169340
913.385070	0.169400
913.565886	0.169612
913.746683	0.169691
913.927462	0.169806
914.108223	0.169509
914.288965	0.168823
914.469690	0.168794
914.650396	0.168648
914.831084	0.168386
915.011754	0.167769
915.192405	0.167187
915.373038	0.167171
915.553653	0.166162
915.734250	0.165544
915.914829	0.164782
916.095389	0.164163
916.275931	0.163892
916.456455	0.163103
916.636961	0.162758
916.817448	0.162416
916.997917	0.161247
917.178368	0.161076
917.358801	0.160924
917.539216	0.160859
917.719612	0.160591
917.899990	0.159993
918.080350	0.160231
918.260692	0.159971
918.441015	0.159532
918.621320	0.159863
918.801607	0.159762
918.981876	0.159165
919.162127	0.158655
919.342359	0.158461
919.522573	0.158158
919.702769	0.157702
919.882947	0.157049
920.063106	0.156842
920.243247	0.156251
920.423370	0.156061
920.603475	0.155573
920.783562	0.155378
920.963630	0.154694
921.143680	0.153591
921.323712	0.152924
921.503725	0.152756
921.683721	0.152060
921.863698	0.151707
922.043657	0.151394
922.223598	0.151522
922.403520	0.151220
922.583424	0.150946
922.763311	0.150594
922.943178	0.150232
923.123028	0.149611
923.302859	0.149265
923.482673	0.148774
923.662467	0.147828
923.842244	0.147029
924.022003	0.146610
924.201743	0.146582
924.381465	0.146702
924.561169	0.146217
924.740854	0.145819
924.920522	0.145852
925.100171	0.144882
925.279802	0.145098
925.459414	0.144528
925.639009	0.144541
925.818585	0.143206
925.998143	0.143155
926.177683	0.142501
926.357205	0.142452
926.536708	0.141856
926.716193	0.141720
926.895660	0.140957
927.075109	0.141019
927.254539	0.139860
927.433951	0.139646
927.613345	0.138784
927.792721	0.138315
927.972079	0.137886
928.151418	0.136725
928.330739	0.135874
928.510042	0.135439
928.689327	0.134862
928.868593	0.134815
929.047841	0.134013
929.227071	0.133122
929.406283	0.132763
929.585476	0.132035
929.764652	0.131684
929.943809	0.131724
930.122948	0.130826
930.302068	0.130427
930.481171	0.129012
930.660255	0.128607
930.839321	0.128283
931.018369	0.128080
931.197398	0.127376
931.376409	0.127330
931.555402	0.126934
931.734377	0.126188
931.913334	0.125156
932.092272	0.125406
932.271192	0.125405
932.450094	0.124759
932.628978	0.123639
932.807844	0.122926
932.986691	0.122663
933.165520	0.121409
933.344331	0.121788
933.523123	0.121837
933.701898	0.121095
933.880654	0.120024
934.059392	0.120576
934.238111	0.120865
934.416813	0.120796
934.595496	0.119255
934.774161	0.118980
934.952808	0.118290
935.131437	0.117663
935.310047	0.116640
935.488639	0.116005
935.667213	0.114916
935.845769	0.113773
936.024306	0.113310
936.202825	0.112653
936.381326	0.112265
936.559809	0.111730
936.738274	0.110810
936.916720	0.110545
937.095148	0.110121
937.273558	0.109971
937.451950	0.109481
937.630323	0.108579
937.808678	0.108758
937.987015	0.107742
938.165334	0.107473
938.343635	0.106059
938.521917	0.105459
938.700181	0.104429
938.878427	0.103116
939.056655	0.101778
939.234864	0.100436
939.413055	0.100149
939.591228	0.099547
939.769383	0.098987
939.947519	0.099008
940.125638	0.098208
940.303738	0.098830
940.481820	0.097737
940.659883	0.097748
940.837929	0.098491
941.015956	0.097500
941.193965	0.097790
941.371955	0.096214
941.549928	0.095319
941.727882	0.094764
941.905818	0.093715
942.083736	0.093349
942.261636	0.091910
942.439517	0.091249
942.617380	0.090388
942.795225	0.088923
942.973052	0.088677
943.150860	0.088695
943.328651	0.089714
943.506423	0.089013
943.684176	0.088738
943.861912	0.089996
944.039629	0.089493
944.217328	0.088703
944.395009	0.088881
944.572672	0.088485
944.750317	0.087745
944.927943	0.086965
945.105551	0.086143
945.283141	0.085659
945.460712	0.084510
945.638265	0.084610
945.815801	0.084666
945.993317	0.084709
946.170816	0.083777
946.348297	0.084237
946.525759	0.084391
946.703203	0.085483
946.880629	0.085542
947.058036	0.085340
947.235425	0.083022
947.412797	0.082299
947.590149	0.082023
947.767484	0.081105
947.944800	0.079113
948.122099	0.076839
948.299379	0.075597
948.476640	0.074211
948.653884	0.073258
948.831109	0.072770
949.008316	0.072910
949.185505	0.072372
949.362676	0.072498
949.539828	0.072518
949.716962	0.072130
949.894078	0.071234
950.071176	0.071207
950.248256	0.071805
950.425317	0.071624
950.602360	0.070729
950.779385	0.069555
950.956391	0.068477
951.133380	0.069818
951.310350	0.069412
951.487302	0.069213
951.664235	0.069731
951.841151	0.067269
952.018048	0.067933
952.194927	0.067527
952.371788	0.065878
952.548631	0.066575
952.725455	0.064362
952.902261	0.063369
953.079049	0.064280
953.255819	0.063260
953.432570	0.065279
953.609303	0.065180
953.786018	0.064593
953.962715	0.067238
954.139394	0.066580
954.316054	0.066898
954.492696	0.067325
954.669320	0.065099
954.845926	0.064411
955.022513	0.062214
955.199083	0.061772
955.375634	0.061628
955.552166	0.059512
955.728681	0.059745
955.905177	0.060196
956.081655	0.061513
956.258115	0.064064
956.434557	0.064463
956.610980	0.066874
956.787385	0.067072
956.963772	0.066693
957.140141	0.067559
957.316492	0.067143
957.492824	0.066316
957.669138	0.065738
957.845434	0.063094
958.021712	0.062395
958.197971	0.061240
958.374212	0.062178
958.550435	0.062080
958.726640	0.060226
958.902826	0.060067
959.078995	0.061492
959.255145	0.064107
959.431277	0.064758
959.607390	0.065692
959.783486	0.065946
959.959563	0.063497
960.135622	0.062975
960.311662	0.063734
960.487685	0.063985
960.663689	0.060946
960.839675	0.058799
961.015643	0.058345
961.191593	0.058320
961.367524	0.059083
961.543437	0.061719
961.719332	0.062402
961.895209	0.061981
962.071067	0.063240
962.246907	0.065065
962.422730	0.064246
962.598533	0.065292
962.774319	0.064427
962.950086	0.064038
963.125835	0.063912
963.301566	0.064003
963.477279	0.065180
963.652973	0.065360
963.828650	0.064672
964.004308	0.064102
964.179947	0.064169
964.355569	0.063926
964.531172	0.063659
964.706757	0.062225
964.882324	0.064054
965.057873	0.064873
965.233403	0.061704
965.408916	0.061237
965.584410	0.061004
965.759885	0.057822
965.935343	0.057173
966.110782	0.058001
966.286203	0.059077
966.461606	0.059383
966.636991	0.058955
966.812357	0.059687
966.987705	0.061749
967.163035	0.061518
967.338347	0.062778
967.513641	0.064364
967.688916	0.061462
967.864173	0.060774
968.039412	0.058455
968.214632	0.060166
968.389835	0.060583
968.565019	0.060226
968.740185	0.060360
968.915333	0.061708
969.090462	0.061091
969.265573	0.063119
969.440667	0.062566
969.615741	0.063308
969.790798	0.059289
969.965836	0.058831
970.140856	0.057083
970.315858	0.057877
970.490842	0.058212
970.665808	0.058424
970.840755	0.058726
971.015684	0.059208
971.190595	0.059369
971.365487	0.061757
971.540362	0.062366
971.715218	0.065093
971.890056	0.067942
972.064875	0.066738
972.239677	0.065594
972.414460	0.065789
972.589225	0.064914
972.763972	0.066238
972.938700	0.064778
973.113411	0.064751
973.288103	0.065828
973.462777	0.062282
973.637432	0.065488
973.812070	0.065879
973.986689	0.063581
974.161290	0.064962
974.335873	0.063068
974.510437	0.063130
974.684984	0.063447
974.859512	0.059505
975.034022	0.060008
975.208513	0.057735
975.382987	0.059948
975.557442	0.059601
975.731879	0.058919
975.906298	0.060089
976.080698	0.061140
976.255080	0.061226
976.429445	0.062958
976.603790	0.063853
976.778118	0.063133
976.952427	0.059786
977.126719	0.061727
977.300992	0.061158
977.475246	0.060403
977.649483	0.060856
977.823701	0.062004
977.997901	0.060493
978.172083	0.058361
978.346247	0.058298
978.520392	0.058485
978.694519	0.059643
978.868628	0.057891
979.042719	0.059062
979.216791	0.060745
979.390845	0.059056
979.564882	0.060224
979.738899	0.062286
979.912899	0.062827
980.086880	0.065194
980.260843	0.065306
980.434788	0.068702
980.608715	0.068167
980.782623	0.065245
980.956514	0.065051
981.130386	0.065396
981.304240	0.064432
981.478075	0.065170
981.651892	0.065448
981.825692	0.064857
981.999472	0.060791
982.173235	0.058839
982.346980	0.059302
982.520706	0.059991
982.694414	0.060919
982.868104	0.060069
983.041775	0.058696
983.215428	0.057118
983.389064	0.056713
983.562680	0.057321
983.736279	0.058183
983.909860	0.057992
984.083422	0.056937
984.256966	0.056093
984.430491	0.057418
984.603999	0.056935
984.777488	0.056504
984.950959	0.057298
985.124412	0.059363
985.297847	0.059910
985.471263	0.058058
985.644661	0.057504
985.818041	0.059028
985.991403	0.057383
986.164747	0.058412
986.338072	0.057868
986.511379	0.056143
986.684668	0.055791
986.857938	0.055573
987.031191	0.057750
987.204425	0.059331
987.377641	0.058148
987.550839	0.057169
987.724018	0.057592
987.897179	0.059379
988.070322	0.059680
988.243447	0.059115
988.416554	0.058609
988.589642	0.059092
988.762712	0.058967
988.935764	0.058677
989.108798	0.061802
989.281813	0.063770
989.454811	0.063649
989.627790	0.064314
989.800751	0.064584
989.973693	0.064827
990.146617	0.064328
990.319524	0.064486
990.492412	0.063935
990.665281	0.062902
990.838133	0.060450
991.010966	0.059135
991.183781	0.056540
991.356578	0.058154
991.529356	0.058730
991.702117	0.056667
991.874859	0.055922
992.047583	0.056261
992.220288	0.056137
992.392976	0.055180
992.565645	0.055805
992.738296	0.056986
992.910929	0.056724
993.083543	0.056778
993.256139	0.059052
993.428718	0.059017
993.601277	0.060162
993.773819	0.060521
993.946342	0.060742
994.118848	0.060585
994.291335	0.059695
994.463803	0.059703
994.636254	0.060341
994.808686	0.061986
994.981100	0.062780
995.153496	0.062531
995.325874	0.063034
995.498233	0.063211
995.670574	0.062981
995.842897	0.065720
996.015202	0.063734
996.187488	0.063293
996.359757	0.062685
996.532007	0.061889
996.704239	0.060749
996.876452	0.059247
997.048648	0.059055
997.220825	0.060275
997.392984	0.060535
997.565124	0.060948
997.737247	0.058859
997.909351	0.059387
998.081437	0.060680
998.253505	0.060045
998.425554	0.060428
998.597586	0.061203
998.769599	0.060781
998.941594	0.060834
999.113571	0.061766
999.285529	0.064196
999.457469	0.061234
999.629391	0.060990
999.801295	0.062005
999.973181	0.062315
1000.145048	0.060307
1000.316897	0.061950
1000.488728	0.059149
1000.660541	0.058138
1000.832335	0.057198
1001.004111	0.058243
1001.175869	0.057538
1001.347609	0.057347
1001.519331	0.057280
1001.691034	0.059577
1001.862719	0.056679
1002.034386	0.058224
1002.206035	0.057984
1002.377665	0.056803
1002.549277	0.056508
1002.720871	0.055806
1002.892447	0.054452
1003.064004	0.053306
1003.235544	0.051576
1003.407065	0.053107
1003.578568	0.054236
1003.750052	0.054556
1003.921519	0.054902
1004.092967	0.054620
1004.264397	0.053524
1004.435809	0.054899
1004.607202	0.054178
1004.778577	0.055990
1004.949934	0.055694
1005.121273	0.054320
1005.292594	0.054330
1005.463896	0.056484
1005.635180	0.057446
1005.806446	0.059621
1005.977694	0.058084
1006.148923	0.057661
1006.320135	0.056140
1006.491328	0.054354
1006.662503	0.055452
1006.833659	0.054869
1007.004798	0.053379
1007.175918	0.053916
1007.347020	0.053464
1007.518103	0.055391
1007.689169	0.058369
1007.860216	0.058949
1008.031245	0.059057
1008.202256	0.056837
1008.373248	0.058981
1008.544223	0.057324
1008.715179	0.056137
1008.886117	0.055570
1009.057036	0.056668
1009.227938	0.055507
1009.398821	0.056125
1009.569686	0.057352
1009.740533	0.056570
1009.911361	0.054830
1010.082172	0.056704
1010.252964	0.055807
1010.423738	0.057121
1010.594493	0.056746
1010.765231	0.055419
1010.935950	0.055364
1011.106651	0.055029
1011.277334	0.055369
1011.447998	0.056248
1011.618645	0.056389
1011.789273	0.056642
1011.959882	0.055049
1012.130474	0.052868
1012.301048	0.054111
1012.471603	0.052972
1012.642140	0.051952
1012.812658	0.053260
1012.983159	0.054324
1013.153641	0.055111
1013.324105	0.055755
1013.494551	0.056088
1013.664979	0.057895
1013.835388	0.057607
1014.005779	0.057245
1014.176152	0.057995
1014.346507	0.058855
1014.516843	0.057022
1014.687162	0.055914
1014.857462	0.056568
1015.027744	0.058129
1015.198007	0.058220
1015.368252	0.059031
1015.538480	0.059917
1015.708689	0.059086
1015.878879	0.056259
1016.049052	0.057567
1016.219206	0.058181
1016.389342	0.056091
1016.559460	0.055434
1016.729559	0.053912
1016.899641	0.052739
1017.069704	0.051121
1017.239749	0.051142
1017.409775	0.053329
1017.579784	0.050933
1017.749774	0.050315
1017.919746	0.052021
1018.089700	0.050846
1018.259635	0.049908
1018.429553	0.050183
1018.599452	0.050641
1018.769333	0.051916
1018.939195	0.050368
1019.109040	0.053124
1019.278866	0.053785
1019.448674	0.053873
1019.618464	0.053817
1019.788235	0.054674
1019.957989	0.055958
1020.127724	0.056018
1020.297441	0.054279
1020.467139	0.054614
1020.636820	0.054312
1020.806482	0.053251
1020.976126	0.052963
1021.145752	0.053013
1021.315359	0.054106
1021.484948	0.051940
1021.654519	0.053170
1021.824072	0.054076
1021.993607	0.053968
1022.163123	0.051956
1022.332621	0.051340
1022.502101	0.051835
1022.671563	0.052768
1022.841007	0.051822
1023.010432	0.051843
1023.179839	0.052536
1023.349228	0.053065
1023.518598	0.055169
1023.687951	0.056628
1023.857285	0.057933
1024.026601	0.057769
1024.195899	0.056815
1024.365178	0.057265
1024.534439	0.056665
1024.703682	0.056278
1024.872907	0.055102
1025.042114	0.052613
1025.211302	0.052305
1025.380472	0.051874
1025.549624	0.050905
1025.718758	0.051652
1025.887873	0.050549
1026.056970	0.051023
1026.226049	0.051125
1026.395110	0.051835
1026.564153	0.052466
1026.733177	0.051663
1026.902183	0.050884
1027.071171	0.050277
1027.240141	0.049594
1027.409092	0.050823
1027.578026	0.051147
1027.746940	0.049115
1027.915837	0.048336
1028.084716	0.046828
1028.253576	0.046186
1028.422418	0.046876
1028.591242	0.046170
1028.760048	0.045048
1028.928835	0.045381
1029.097604	0.045940
1029.266355	0.046749
1029.435088	0.048837
1029.603803	0.050377
1029.772499	0.051851
1029.941177	0.050326
1030.109837	0.052572
1030.278478	0.053834
1030.447102	0.051284
1030.615707	0.051564
1030.784294	0.050144
1030.952863	0.048309
1031.121413	0.049490
1031.289945	0.047931
1031.458460	0.050019
1031.626955	0.049458
1031.795433	0.047928
1031.963892	0.050104
1032.132334	0.050058
1032.300756	0.052235
1032.469161	0.052332
1032.637548	0.052621
1032.805916	0.053525
1032.974266	0.053042
1033.142598	0.051927
1033.310911	0.054895
1033.479207	0.053584
1033.647484	0.052623
1033.815743	0.051689
1033.983983	0.052748
1034.152206	0.051311
1034.320410	0.051774
1034.488596	0.050784
1034.656764	0.051454
1034.824914	0.049620
1034.993045	0.049721
1035.161158	0.050984
1035.329253	0.051814
1035.497330	0.051516
1035.665388	0.052897
1035.833428	0.052589
1036.001450	0.054557
1036.169454	0.053683
1036.337440	0.052255
1036.505407	0.051694
1036.673356	0.051231
1036.841287	0.050750
1037.009200	0.050940
1037.177094	0.051385
1037.344970	0.052285
1037.512828	0.051180
1037.680668	0.050567
1037.848489	0.052657
1038.016293	0.052374
1038.184078	0.052644
1038.351845	0.051241
1038.519593	0.051723
1038.687324	0.050494
1038.855036	0.049108
1039.022730	0.048072
1039.190406	0.049859
1039.358063	0.049064
1039.525702	0.048605
1039.693323	0.047217
1039.860926	0.046941
1040.028511	0.045640
1040.196077	0.044408
1040.363625	0.044508
1040.531155	0.045449
1040.698667	0.045163
1040.866161	0.046705
1041.033636	0.049320
1041.201093	0.049157
1041.368532	0.050211
1041.535952	0.049175
1041.703355	0.049770
1041.870739	0.049246
1042.038105	0.047132
1042.205452	0.047642
1042.372782	0.045759
1042.540093	0.044757
1042.707386	0.044810
1042.874661	0.046287
1043.041918	0.048900
1043.209156	0.046209
1043.376376	0.046004
1043.543578	0.046858
1043.710762	0.045296
1043.877927	0.044959
1044.045074	0.043264
1044.212203	0.044624
1044.379314	0.044784
1044.546407	0.044231
1044.713481	0.046639
1044.880537	0.049128
1045.047575	0.050597
1045.214595	0.051845
1045.381596	0.054758
1045.548579	0.055801
1045.715544	0.057268
1045.882491	0.056209
1046.049420	0.054165
1046.216330	0.054444
1046.383222	0.052161
1046.550096	0.052689
1046.716951	0.050903
1046.883789	0.049444
1047.050608	0.050913
1047.217409	0.049928
1047.384192	0.050692
1047.550956	0.051988
1047.717703	0.052997
1047.884431	0.053096
1048.051140	0.052489
1048.217832	0.051791
1048.384505	0.050854
1048.551161	0.051441
1048.717798	0.050259
1048.884416	0.049900
1049.051017	0.050859
1049.217599	0.050992
1049.384163	0.051415
1049.550709	0.050604
1049.717237	0.053708
1049.883746	0.055174
1050.050237	0.054002
1050.216710	0.052972
1050.383165	0.052537
1050.549601	0.051664
1050.716019	0.051483
1050.882420	0.051766
1051.048801	0.053423
1051.215165	0.052431
1051.381510	0.050792
1051.547837	0.050003
1051.714146	0.051932
1051.880437	0.051458
1052.046709	0.051195
1052.212964	0.048688
1052.379200	0.046996
1052.545417	0.045746
1052.711617	0.044999
1052.877798	0.045262
1053.043961	0.044861
1053.210106	0.044872
1053.376233	0.046913
1053.542341	0.047861
1053.708432	0.050009
1053.874504	0.051831
1054.040557	0.052986
1054.206593	0.054764
1054.372610	0.055603
1054.538609	0.055176
1054.704590	0.055696
1054.870553	0.052922
1055.036497	0.053377
1055.202424	0.052730
1055.368331	0.052298
1055.534221	0.049986
1055.700093	0.048336
1055.865946	0.048079
1056.031781	0.047801
1056.197598	0.045362
1056.363397	0.043616
1056.529177	0.042481
1056.694939	0.044627
1056.860683	0.045562
1057.026409	0.048011
1057.192116	0.047513
1057.357806	0.048604
1057.523477	0.050734
1057.689130	0.052301
1057.854764	0.055417
1058.020381	0.052963
1058.185979	0.049711
1058.351559	0.047406
1058.517120	0.044516
1058.682664	0.046630
1058.848189	0.045217
1059.013696	0.042871
1059.179185	0.040428
1059.344656	0.040676
1059.510108	0.041495
1059.675542	0.044921
1059.840958	0.045046
1060.006356	0.045675
1060.171735	0.044835
1060.337096	0.045230
1060.502439	0.046455
1060.667764	0.046806
1060.833071	0.046472
1060.998359	0.048906
1061.163629	0.046929
1061.328881	0.050038
1061.494115	0.047433
1061.659330	0.045041
1061.824527	0.044718
1061.989706	0.045598
1062.154867	0.047821
1062.320010	0.048262
1062.485134	0.046271
1062.650240	0.045437
1062.815328	0.043703
1062.980398	0.047928
1063.145449	0.048913
1063.310482	0.049520
1063.475497	0.050583
1063.640494	0.049795
1063.805473	0.050750
1063.970433	0.051989
1064.135375	0.052447
1064.300299	0.052188
1064.465204	0.051578
1064.630092	0.052974
1064.794961	0.052986
1064.959812	0.052879
1065.124645	0.053051
1065.289459	0.047691
1065.454256	0.048296
1065.619034	0.049106
1065.783793	0.049098
1065.948535	0.048400
1066.113258	0.048063
1066.277964	0.044175
1066.442651	0.041275
1066.607319	0.042778
1066.771970	0.046386
1066.936602	0.044112
1067.101216	0.044007
1067.265812	0.043226
1067.430389	0.045858
1067.594949	0.044256
1067.759490	0.046471
1067.924013	0.048903
1068.088518	0.046754
1068.253004	0.047775
1068.417472	0.049478
1068.581922	0.048205
1068.746354	0.048462
1068.910768	0.047348
1069.075163	0.049383
1069.239540	0.048112
1069.403899	0.048019
1069.568240	0.048949
1069.732562	0.047335
1069.896866	0.048539
1070.061152	0.049975
1070.225420	0.053910
1070.389670	0.052631
1070.553901	0.052312
1070.718114	0.054555
1070.882309	0.055525
1071.046486	0.055701
1071.210644	0.056092
1071.374784	0.054715
1071.538906	0.052283
1071.703010	0.046721
1071.867096	0.046410
1072.031163	0.046864
1072.195212	0.047568
1072.359243	0.046423
1072.523256	0.045947
1072.687250	0.048551
1072.851226	0.048040
1073.015184	0.048789
1073.179124	0.052150
1073.343045	0.052499
1073.506949	0.051608
1073.670834	0.052377
1073.834701	0.050147
1073.998549	0.048656
1074.162380	0.047929
1074.326192	0.046610
1074.489986	0.045243
1074.653761	0.044288
1074.817519	0.042610
1074.981258	0.042204
1075.144979	0.040166
1075.308682	0.042206
1075.472367	0.043998
1075.636033	0.042663
1075.799681	0.044773
1075.963311	0.045080
1076.126923	0.043522
1076.290516	0.044592
1076.454092	0.041943
1076.617649	0.041583
1076.781187	0.040900
1076.944708	0.040467
1077.108210	0.040612
1077.271695	0.041677
1077.435160	0.045080
1077.598608	0.045397
1077.762038	0.047467
1077.925449	0.050098
1078.088842	0.048902
1078.252217	0.047737
1078.415573	0.050061
1078.578912	0.047802
1078.742232	0.046954
1078.905534	0.046988
1079.068817	0.046713
1079.232083	0.043749
1079.395330	0.043946
1079.558559	0.046118
1079.721770	0.048220
1079.884962	0.047212
1080.048136	0.049810
1080.211293	0.048612
1080.374430	0.047621
1080.537550	0.047638
1080.700651	0.045374
1080.863735	0.044644
1081.026800	0.044550
1081.189846	0.044505
1081.352875	0.044656
1081.515885	0.042112
1081.678877	0.043090
1081.841851	0.041867
1082.004807	0.043311
1082.167744	0.045136
1082.330663	0.044096
1082.493564	0.045734
1082.656447	0.046622
1082.819312	0.047004
1082.982158	0.048963
1083.144986	0.049529
1083.307796	0.048728
1083.470587	0.048633
1083.633361	0.049974
1083.796116	0.052890
1083.958853	0.053248
1084.121571	0.051946
1084.284272	0.050841
1084.446954	0.051056
1084.609618	0.049175
1084.772264	0.048046
1084.934892	0.046350
1085.097501	0.046315
1085.260092	0.047825
1085.422665	0.046145
1085.585220	0.044600
1085.747756	0.043983
1085.910274	0.044733
1086.072774	0.044446
1086.235256	0.044193
1086.397720	0.046208
1086.560165	0.046625
1086.722592	0.044268
1086.885001	0.041779
1087.047392	0.043095
1087.209764	0.042377
1087.372119	0.042156
1087.534455	0.042832
1087.696772	0.045073
1087.859072	0.046931
1088.021353	0.047262
1088.183616	0.046452
1088.345861	0.047550
1088.508088	0.048928
1088.670296	0.047615
1088.832486	0.047952
1088.994658	0.047733
1089.156812	0.046396
1089.318948	0.041359
1089.481065	0.040628
1089.643164	0.039159
1089.805245	0.043749
1089.967308	0.040786
1090.129352	0.043065
1090.291378	0.040091
1090.453386	0.040495
1090.615376	0.045716
1090.777347	0.050321
1090.939301	0.052210
1091.101236	0.056063
1091.263153	0.048393
1091.425051	0.046006
1091.586932	0.045800
1091.748794	0.047977
1091.910638	0.046194
1092.072463	0.042033
1092.234271	0.039744
1092.396060	0.035661
1092.557831	0.033647
1092.719584	0.035459
1092.881319	0.039106
1093.043035	0.040206
1093.204733	0.037329
1093.366413	0.039332
1093.528075	0.039866
1093.689718	0.041519
1093.851343	0.047134
1094.012950	0.050030
1094.174539	0.051302
1094.336110	0.053392
1094.497662	0.052538
1094.659196	0.052537
1094.820712	0.052225
1094.982210	0.052212
1095.143689	0.051885
1095.305151	0.050123
1095.466594	0.044599
1095.628018	0.048523
1095.789425	0.046521
1095.950813	0.044462
1096.112183	0.047556
1096.273535	0.047426
1096.434869	0.043754
1096.596184	0.043600
1096.757482	0.042383
1096.918761	0.045883
1097.080021	0.040526
1097.241264	0.041230
1097.402488	0.041203
1097.563694	0.040070
1097.724882	0.039678
1097.886052	0.041188
1098.047203	0.042472
1098.208336	0.041744
1098.369451	0.039528
1098.530548	0.038866
1098.691627	0.037438
1098.852687	0.037380
1099.013729	0.037782
1099.174753	0.037872
1099.335758	0.040383
1099.496746	0.039645
1099.657715	0.040186
1099.818666	0.044345
1099.979599	0.045691
1100.140513	0.046544
1100.301409	0.045655
1100.462287	0.046012
1100.623147	0.044845
1100.783989	0.043753
1100.944812	0.042304
1101.105617	0.039254
1101.266404	0.034156
1101.427173	0.035091
1101.587923	0.032486
1101.748656	0.033671
1101.909370	0.034215
1102.070066	0.035092
1102.230743	0.038247
1102.391403	0.037754
1102.552044	0.038615
1102.712667	0.041868
1102.873271	0.040978
1103.033858	0.043835
1103.194426	0.047550
1103.354976	0.042015
1103.515508	0.043916
1103.676021	0.040202
1103.836517	0.043222
1103.996994	0.046436
1104.157453	0.046814
1104.317893	0.051278
1104.478316	0.050980
1104.638720	0.047109
1104.799106	0.052458
1104.959474	0.049658
1105.119823	0.052016
1105.280155	0.050829
1105.440468	0.052211
1105.600763	0.052232
1105.761039	0.051329
1105.921298	0.049001
1106.081538	0.050998
1106.241760	0.050228
1106.401964	0.053493
1106.562149	0.050543
1106.722316	0.048519
1106.882465	0.048006
1107.042596	0.049552
1107.202709	0.047573
1107.362803	0.047282
1107.522879	0.046943
1107.682937	0.048235
1107.842977	0.045792
1108.002999	0.047527
1108.163002	0.047522
1108.322987	0.046710
1108.482954	0.048177
1108.642902	0.050879
1108.802833	0.052478
1108.962745	0.051054
1109.122639	0.051208
1109.282515	0.053397
1109.442372	0.051766
1109.602211	0.055061
1109.762032	0.053140
1109.921835	0.051071
1110.081620	0.048274
1110.241386	0.045397
1110.401134	0.048365
1110.560864	0.046572
1110.720576	0.044859
1110.880269	0.046739
1111.039945	0.046512
1111.199602	0.047542
1111.359240	0.045509
1111.518861	0.046146
1111.678463	0.048699
1111.838047	0.047277
1111.997613	0.049834
1112.157161	0.048280
1112.316690	0.050251
1112.476202	0.044855
1112.635695	0.041838
1112.795169	0.043984
1112.954626	0.040056
1113.114064	0.045795
1113.273484	0.044949
1113.432886	0.047234
1113.592270	0.049684
1113.751635	0.046281
1113.910983	0.048454
1114.070312	0.050274
1114.229622	0.048885
1114.388915	0.052301
1114.548189	0.049497
1114.707445	0.046122
1114.866683	0.042855
1115.025903	0.046024
1115.185104	0.047260
1115.344287	0.050196
1115.503452	0.052239
1115.662599	0.056087
1115.821727	0.057942
1115.980838	0.056944
1116.139930	0.057422
1116.299004	0.056641
1116.458059	0.053455
1116.617097	0.055305
1116.776116	0.051811
1116.935117	0.048578
1117.094099	0.043271
1117.253064	0.039636
1117.412010	0.042826
1117.570938	0.047995
1117.729848	0.050771
1117.888740	0.052353
1118.047613	0.050100
1118.206468	0.052049
1118.365305	0.054609
1118.524124	0.057062
1118.682924	0.066561
1118.841707	0.061318
1119.000471	0.057814
1119.159216	0.051047
1119.317944	0.046749
1119.476653	0.044453
1119.635344	0.045988
1119.794017	0.048578
1119.952672	0.049261
1120.111308	0.044967
1120.269927	0.045256
1120.428527	0.045100
1120.587108	0.046980
1120.745672	0.051290
1120.904217	0.051943
1121.062744	0.053883
1121.221253	0.053715
1121.379744	0.052480
1121.538216	0.044780
1121.696671	0.046540
1121.855107	0.048408
1122.013524	0.048078
1122.171924	0.050580
1122.330305	0.047422
1122.488668	0.048172
1122.647013	0.045280
1122.805340	0.043394
1122.963648	0.048349
1123.121938	0.046309
1123.280210	0.045757
1123.438464	0.045913
1123.596700	0.046493
1123.754917	0.048775
1123.913116	0.046267
1124.071297	0.043710
1124.229459	0.043704
1124.387604	0.043314
1124.545730	0.047060
1124.703838	0.050088
1124.861928	0.049285
1125.019999	0.045210
1125.178052	0.045222
1125.336088	0.041627
1125.494104	0.045416
1125.652103	0.046029
1125.810083	0.044745
1125.968045	0.041595
1126.125989	0.035585
1126.283915	0.040875
1126.441823	0.037779
1126.599712	0.041824
1126.757583	0.041185
1126.915436	0.043019
1127.073270	0.038654
1127.231087	0.041577
1127.388885	0.043758
1127.546665	0.054778
1127.704426	0.050921
1127.862170	0.048778
1128.019895	0.051857
1128.177602	0.060406
1128.335291	0.054384
1128.492961	0.067022
1128.650614	0.064430
1128.808248	0.065009
1128.965864	0.058619
1129.123461	0.061748
1129.281041	0.070350
1129.438602	0.065924
1129.596145	0.055371
1129.753670	0.064106
1129.911176	0.058676
1130.068665	0.052247
1130.226135	0.052023
1130.383587	0.052437
1130.541020	0.051443
1130.698436	0.045250
1130.855833	0.045720
1131.013212	0.048699
1131.170573	0.046380
1131.327915	0.046072
1131.485239	0.054561
1131.642545	0.048146
1131.799833	0.047391
1131.957103	0.049492
1132.114354	0.048708
1132.271588	0.049445
1132.428803	0.046513
1132.585999	0.047594
1132.743178	0.041736
1132.900338	0.044629
1133.057480	0.055097
1133.214604	0.054614
1133.371710	0.047215
1133.528797	0.055259
1133.685866	0.055527
1133.842917	0.060232
1133.999950	0.057117
1134.156964	0.061639
1134.313960	0.055682
1134.470938	0.047858
1134.627898	0.048871
1134.784840	0.055877
1134.941763	0.054476
1135.098668	0.048496
1135.255555	0.047481
1135.412424	0.050280
1135.569274	0.052258
1135.726107	0.057870
1135.882921	0.057167
1136.039716	0.057983
1136.196494	0.052771
1136.353253	0.056109
1136.509995	0.063436
1136.666717	0.063238
1136.823422	0.065584
1136.980109	0.061744
1137.136777	0.060537
1137.293427	0.060802
1137.450059	0.058435
1137.606672	0.060467
1137.763267	0.061925
1137.919844	0.063795
1138.076403	0.061401
1138.232944	0.059252
1138.389466	0.063871
1138.545971	0.060533
1138.702457	0.070886
1138.858924	0.067989
1139.015374	0.070972
1139.171805	0.057726
1139.328218	0.054529
1139.484613	0.057916
1139.640990	0.053289
1139.797348	0.055135
1139.953688	0.054318
1140.110010	0.048640
1140.266314	0.051530
1140.422600	0.044566
1140.578867	0.047041
1140.735116	0.045547
1140.891347	0.035267
1141.047559	0.043246
1141.203754	0.033914
1141.359930	0.034542
1141.516088	0.034941
1141.672228	0.033982
1141.828349	0.034993
1141.984452	0.029874
1142.140537	0.032285
1142.296604	0.043415
1142.452653	0.033508
1142.608683	0.042889
1142.764695	0.038759
1142.920689	0.043850
1143.076665	0.045027
1143.232622	0.053371
1143.388562	0.065566
1143.544483	0.069774
1143.700385	0.075054
1143.856270	0.075502
1144.012136	0.077646
1144.167985	0.080196
1144.323814	0.069545
1144.479626	0.065995
1144.635420	0.068802
1144.791195	0.064324
1144.946952	0.055856
1145.102691	0.047524
1145.258411	0.058521
1145.414113	0.047637
1145.569798	0.042541
1145.725463	0.042008
1145.881111	0.049785
1146.036741	0.041168
1146.192352	0.036856
1146.347945	0.038260
1146.503519	0.034055
1146.659076	0.025819
1146.814614	0.033149
1146.970134	0.042385
1147.125636	0.043183
1147.281120	0.037536
1147.436585	0.039414
1147.592032	0.054659
1147.747461	0.054719
1147.902872	0.059110
1148.058265	0.056452
1148.213639	0.058299
1148.368995	0.059217
1148.524333	0.065219
1148.679653	0.070967
1148.834954	0.069141
1148.990237	0.061371
1149.145502	0.063961
1149.300749	0.068498
1149.455977	0.064980
1149.611188	0.057640
1149.766380	0.047908
1149.921553	0.047095
1150.076709	0.043800
1150.231846	0.040766
1150.386966	0.036470
1150.542066	0.032555
1150.697149	0.032381
1150.852214	0.031036
1151.007260	0.031297
1151.162288	0.037996
1151.317298	0.037954
1151.472289	0.039267
1151.627263	0.041396
1151.782218	0.050093
1151.937155	0.059765
1152.092073	0.053062
1152.246974	0.067174
1152.401856	0.057715
1152.556720	0.056272
1152.711566	0.047029
1152.866393	0.046349
1153.021203	0.054991
1153.175994	0.039260
1153.330767	0.034526
1153.485521	0.038808
1153.640258	0.031909
1153.794976	0.049621
1153.949676	0.055361
1154.104358	0.062773
1154.259021	0.061291
1154.413667	0.051977
1154.568294	0.060184
1154.722903	0.057761
1154.877493	0.056580
1155.032066	0.067956
1155.186620	0.060299
1155.341156	0.051500
1155.495674	0.051228
1155.650173	0.053439
1155.804654	0.060861
1155.959118	0.060545
1156.113562	0.065545
1156.267989	0.065584
1156.422397	0.048876
1156.576788	0.046272
1156.731160	0.053225
1156.885513	0.054796
1157.039849	0.055399
1157.194166	0.051192
1157.348465	0.043509
1157.502746	0.043948
1157.657009	0.051958
1157.811253	0.053044
1157.965479	0.057565
1158.119687	0.057848
1158.273877	0.054154
1158.428048	0.059482
1158.582201	0.061347
1158.736337	0.072018
1158.890453	0.058329
1159.044552	0.055057
1159.198632	0.058507
1159.352694	0.062515
1159.506738	0.059180
1159.660764	0.063058
1159.814771	0.060071
1159.968761	0.051693
1160.122732	0.041660
1160.276685	0.048529
1160.430619	0.044531
1160.584535	0.055051
1160.738434	0.048048
1160.892313	0.051693
1161.046175	0.056521
1161.200019	0.049342
1161.353844	0.055128
1161.507651	0.065974
1161.661440	0.082405
1161.815210	0.084009
1161.968962	0.063451
1162.122697	0.060961
1162.276412	0.072962
1162.430110	0.063864
1162.583789	0.071319
1162.737451	0.080897
1162.891094	0.081933
1163.044718	0.061897
1163.198325	0.066769
1163.351913	0.071891
1163.505483	0.081693
1163.659035	0.072200
1163.812569	0.062521
1163.966084	0.050749
1164.119581	0.044392
1164.273060	0.045148
1164.426521	0.052547
1164.579964	0.053753
1164.733388	0.066575
1164.886794	0.069343
1165.040182	0.057416
1165.193551	0.058218
1165.346903	0.071833
1165.500236	0.072589
1165.653551	0.065741
1165.806848	0.065804
1165.960126	0.057368
1166.113386	0.063784
1166.266628	0.060098
1166.419852	0.070297
1166.573058	0.074217
1166.726245	0.074391
1166.879414	0.063373
1167.032565	0.059979
1167.185698	0.053296
1167.338812	0.054442
1167.491909	0.041185
1167.644987	0.041859
1167.798046	0.024247
1167.951088	0.034099
1168.104111	0.028491
1168.257117	0.030779
1168.410103	0.027314
1168.563072	0.023016
1168.716023	0.023669
1168.868955	0.026198
1169.021869	0.024930
1169.174765	0.042271
1169.327642	0.019725
1169.480501	0.015454
1169.633343	0.024082
1169.786165	0.013774
1169.938970	0.015886
1170.091757	0.004996
1170.244525	-0.003423
1170.397275	-0.008583
1170.550007	-0.013851
1170.702720	0.000922
1170.855415	0.008310
1171.008092	0.023557
1171.160751	0.062777
1171.313392	0.087985
1171.466014	0.093059
1171.618619	0.277592
1171.771205	0.277592
1171.923772	0.277592
