sample name	sample
index	1499
start time	 05-18-2021  02:25:48 PM


Wavelength (nm)	Absorbance
494.344910	-0.046922
494.563924	-0.046922
494.782919	-0.046922
495.001897	-0.319321
495.220856	0.004688
495.439797	-0.019629
495.658719	0.040881
495.877624	0.022218
496.096510	0.053842
496.315378	-0.023116
496.534227	-0.055386
496.753059	-0.048270
496.971872	-0.076718
497.190667	0.087341
497.409444	0.111408
497.628203	0.113083
497.846943	0.117071
498.065665	0.120066
498.284369	0.119937
498.503055	0.121074
498.721723	0.121730
498.940372	0.122284
499.159003	0.122098
499.377616	0.121544
499.596210	0.121442
499.814787	0.120897
500.033345	0.121012
500.251885	0.122187
500.470406	0.121203
500.688910	0.119867
500.907395	0.120191
501.125862	0.119990
501.344311	0.119596
501.562742	0.119896
501.781154	0.120121
501.999548	0.119635
502.217924	0.118806
502.436282	0.119305
502.654621	0.120760
502.872942	0.120451
503.091245	0.120657
503.309530	0.120533
503.527797	0.120964
503.746045	0.121190
503.964275	0.120452
504.182487	0.120629
504.400681	0.120345
504.618856	0.119350
504.837013	0.119934
505.055152	0.119739
505.273273	0.121175
505.491376	0.120656
505.709460	0.120819
505.927526	0.121076
506.145574	0.121373
506.363604	0.122336
506.581615	0.122456
506.799608	0.121936
507.017583	0.122135
507.235540	0.122428
507.453478	0.121863
507.671399	0.121234
507.889301	0.121417
508.107185	0.120709
508.325050	0.120268
508.542898	0.120833
508.760727	0.121417
508.978538	0.122356
509.196330	0.121407
509.414105	0.121646
509.631861	0.122016
509.849599	0.122416
510.067319	0.122308
510.285021	0.122934
510.502704	0.122881
510.720369	0.122160
510.938016	0.121463
511.155645	0.121595
511.373255	0.121889
511.590848	0.122819
511.808422	0.123120
512.025977	0.123915
512.243515	0.124488
512.461034	0.124075
512.678536	0.124698
512.896018	0.125848
513.113483	0.125619
513.330930	0.125859
513.548358	0.125732
513.765768	0.125111
513.983160	0.124706
514.200533	0.124159
514.417889	0.125038
514.635226	0.124640
514.852545	0.123579
515.069845	0.124715
515.287128	0.125491
515.504392	0.125204
515.721638	0.125362
515.938866	0.126243
516.156075	0.126129
516.373267	0.126838
516.590440	0.128130
516.807594	0.128749
517.024731	0.127702
517.241850	0.127540
517.458950	0.128112
517.676032	0.128157
517.893095	0.128452
518.110141	0.129345
518.327168	0.129234
518.544177	0.128683
518.761168	0.128812
518.978141	0.130059
519.195095	0.130293
519.412031	0.131018
519.628949	0.131227
519.845849	0.132057
520.062731	0.132228
520.279594	0.132673
520.496439	0.132328
520.713266	0.132672
520.930074	0.132562
521.146865	0.132942
521.363637	0.132599
521.580391	0.133294
521.797127	0.132763
522.013844	0.132999
522.230543	0.132926
522.447224	0.133108
522.663887	0.132756
522.880532	0.133566
523.097158	0.134010
523.313766	0.134670
523.530356	0.135126
523.746928	0.135333
523.963481	0.134613
524.180017	0.135075
524.396534	0.136107
524.613032	0.135944
524.829513	0.135427
525.045975	0.135516
525.262420	0.135431
525.478845	0.135894
525.695253	0.135919
525.911643	0.137086
526.128014	0.137656
526.344367	0.137044
526.560702	0.138545
526.777018	0.139062
526.993316	0.139592
527.209597	0.139595
527.425858	0.139633
527.642102	0.140373
527.858328	0.140635
528.074535	0.140204
528.290724	0.140727
528.506894	0.140762
528.723047	0.141291
528.939181	0.141343
529.155297	0.141737
529.371395	0.142113
529.587475	0.142780
529.803536	0.143401
530.019579	0.144104
530.235604	0.144501
530.451611	0.145104
530.667600	0.145620
530.883570	0.145659
531.099522	0.146438
531.315456	0.146467
531.531372	0.146082
531.747269	0.146234
531.963148	0.146141
532.179009	0.146516
532.394852	0.146506
532.610676	0.146566
532.826482	0.146914
533.042271	0.147000
533.258040	0.147429
533.473792	0.147604
533.689525	0.147475
533.905240	0.147960
534.120937	0.148376
534.336616	0.148604
534.552277	0.148677
534.767919	0.149093
534.983543	0.149415
535.199149	0.149565
535.414736	0.150175
535.630306	0.150501
535.845857	0.150822
536.061390	0.151177
536.276904	0.151191
536.492401	0.151939
536.707879	0.152048
536.923339	0.151372
537.138781	0.151953
537.354204	0.152338
537.569610	0.152838
537.784997	0.153341
538.000366	0.153419
538.215716	0.154018
538.431049	0.153800
538.646363	0.154175
538.861659	0.155240
539.076937	0.155332
539.292196	0.155329
539.507438	0.155117
539.722661	0.154629
539.937866	0.155506
540.153052	0.155342
540.368221	0.155609
540.583371	0.155376
540.798503	0.155399
541.013617	0.155492
541.228712	0.155859
541.443789	0.155786
541.658848	0.156237
541.873889	0.155847
542.088912	0.156534
542.303916	0.156773
542.518902	0.157597
542.733870	0.158220
542.948820	0.158350
543.163752	0.158621
543.378665	0.159428
543.593560	0.160029
543.808437	0.160364
544.023295	0.160844
544.238136	0.160805
544.452958	0.160974
544.667762	0.160760
544.882548	0.161046
545.097315	0.161311
545.312064	0.161495
545.526795	0.161289
545.741508	0.161959
545.956203	0.161805
546.170879	0.162404
546.385537	0.162355
546.600177	0.162604
546.814799	0.163079
547.029402	0.163315
547.243988	0.163841
547.458555	0.164290
547.673103	0.164424
547.887634	0.164658
548.102146	0.164645
548.316640	0.165521
548.531116	0.165873
548.745574	0.166104
548.960013	0.166312
549.174435	0.166238
549.388838	0.166296
549.603222	0.166257
549.817589	0.166373
550.031937	0.166848
550.246267	0.166537
550.460579	0.166884
550.674873	0.166716
550.889148	0.166783
551.103405	0.166814
551.317644	0.167170
551.531865	0.167449
551.746068	0.168141
551.960252	0.168340
552.174418	0.168645
552.388566	0.169092
552.602696	0.169531
552.816807	0.169602
553.030900	0.170056
553.244975	0.170415
553.459032	0.170593
553.673070	0.170372
553.887091	0.170048
554.101093	0.170072
554.315077	0.169610
554.529042	0.169162
554.742990	0.169610
554.956919	0.169517
555.170830	0.169507
555.384722	0.169392
555.598597	0.169377
555.812453	0.169399
556.026291	0.169233
556.240111	0.169103
556.453913	0.169626
556.667696	0.169403
556.881461	0.169471
557.095208	0.169617
557.308937	0.169760
557.522647	0.169739
557.736339	0.170253
557.950013	0.170597
558.163669	0.171218
558.377307	0.171419
558.590926	0.171812
558.804527	0.171964
559.018110	0.171947
559.231675	0.172166
559.445221	0.172063
559.658749	0.172789
559.872259	0.172869
560.085751	0.173229
560.299225	0.173443
560.512680	0.173667
560.726117	0.174209
560.939536	0.174826
561.152937	0.175066
561.366319	0.176124
561.579683	0.175417
561.793029	0.175839
562.006357	0.175327
562.219667	0.175861
562.432958	0.175784
562.646231	0.175972
562.859486	0.175464
563.072723	0.175575
563.285941	0.175253
563.499141	0.175740
563.712323	0.175856
563.925487	0.176528
564.138632	0.176480
564.351760	0.176404
564.564869	0.176297
564.777960	0.176555
564.991032	0.176826
565.204087	0.176602
565.417123	0.176992
565.630141	0.177128
565.843140	0.177048
566.056122	0.176891
566.269085	0.177361
566.482030	0.177529
566.694957	0.177654
566.907866	0.177449
567.120756	0.178026
567.333628	0.178089
567.546482	0.178474
567.759318	0.178590
567.972135	0.178806
568.184935	0.178589
568.397716	0.178784
568.610478	0.179145
568.823223	0.179423
569.035949	0.179681
569.248657	0.179674
569.461347	0.179343
569.674019	0.179324
569.886672	0.179436
570.099308	0.179811
570.311925	0.180251
570.524523	0.180452
570.737104	0.180592
570.949666	0.180555
571.162210	0.180786
571.374736	0.181021
571.587244	0.181819
571.799733	0.182169
572.012205	0.182369
572.224658	0.181842
572.437092	0.181793
572.649509	0.181642
572.861907	0.181534
573.074287	0.181272
573.286649	0.181221
573.498993	0.180796
573.711318	0.180838
573.923625	0.181217
574.135914	0.181601
574.348185	0.181614
574.560438	0.182152
574.772672	0.182780
574.984888	0.183059
575.197086	0.183568
575.409266	0.183853
575.621427	0.184215
575.833570	0.184568
576.045695	0.185004
576.257802	0.185576
576.469890	0.185873
576.681961	0.185863
576.894013	0.186185
577.106046	0.186243
577.318062	0.186296
577.530059	0.185984
577.742039	0.185932
577.954000	0.185886
578.165942	0.185839
578.377867	0.186073
578.589773	0.186467
578.801661	0.186112
579.013531	0.186244
579.225382	0.186333
579.437216	0.186934
579.649031	0.186704
579.860828	0.186828
580.072606	0.187175
580.284367	0.186897
580.496109	0.186565
580.707833	0.187136
580.919539	0.187460
581.131227	0.187521
581.342896	0.187427
581.554547	0.187674
581.766180	0.187562
581.977795	0.187319
582.189391	0.187315
582.400969	0.187278
582.612529	0.187532
582.824071	0.187463
583.035595	0.187605
583.247100	0.187588
583.458587	0.188006
583.670056	0.188127
583.881506	0.188460
584.092939	0.188776
584.304353	0.188874
584.515749	0.188874
584.727127	0.188785
584.938486	0.188894
585.149828	0.189078
585.361151	0.188887
585.572456	0.189025
585.783742	0.188582
585.995011	0.188996
586.206261	0.189005
586.417493	0.189110
586.628706	0.189484
586.839902	0.189585
587.051079	0.189845
587.262238	0.189899
587.473379	0.189521
587.684502	0.189674
587.895606	0.189401
588.106692	0.189886
588.317760	0.190150
588.528810	0.189987
588.739841	0.190192
588.950855	0.190009
589.161850	0.190304
589.372827	0.191206
589.583785	0.191684
589.794726	0.191939
590.005648	0.192049
590.216552	0.191906
590.427437	0.191960
590.638305	0.192108
590.849154	0.192176
591.059985	0.192004
591.270798	0.191718
591.481592	0.191710
591.692369	0.192079
591.903127	0.192081
592.113867	0.192426
592.324588	0.192781
592.535292	0.193118
592.745977	0.193550
592.956644	0.193600
593.167293	0.194201
593.377923	0.194612
593.588536	0.194666
593.799130	0.194752
594.009706	0.194871
594.220263	0.195053
594.430803	0.195195
594.641324	0.195270
594.851827	0.195411
595.062312	0.195173
595.272778	0.195511
595.483227	0.195492
595.693657	0.195997
595.904069	0.195980
596.114462	0.196196
596.324838	0.196342
596.535195	0.196741
596.745534	0.197149
596.955855	0.197548
597.166157	0.197259
597.376441	0.197711
597.586707	0.197781
597.796955	0.198072
598.007185	0.198179
598.217396	0.198222
598.427589	0.198339
598.637764	0.198791
598.847921	0.199021
599.058060	0.199652
599.268180	0.199864
599.478282	0.199660
599.688366	0.199993
599.898431	0.200165
600.108479	0.200277
600.318508	0.199866
600.528519	0.199799
600.738511	0.199917
600.948486	0.199583
601.158442	0.199333
601.368380	0.199711
601.578300	0.199503
601.788202	0.199671
601.998085	0.199960
602.207950	0.200328
602.417797	0.200367
602.627626	0.200383
602.837436	0.200631
603.047228	0.201178
603.257002	0.201349
603.466758	0.201723
603.676496	0.201887
603.886215	0.201436
604.095916	0.201713
604.305599	0.201953
604.515264	0.201956
604.724910	0.202280
604.934538	0.202023
605.144148	0.201928
605.353740	0.201895
605.563314	0.202067
605.772869	0.202909
605.982406	0.202782
606.191925	0.202669
606.401425	0.202729
606.610908	0.202742
606.820372	0.203072
607.029818	0.203615
607.239246	0.203937
607.448655	0.203723
607.658047	0.203596
607.867420	0.203856
608.076775	0.204239
608.286111	0.204611
608.495430	0.204597
608.704730	0.204645
608.914012	0.204700
609.123275	0.204906
609.332521	0.205227
609.541748	0.205251
609.750957	0.205408
609.960148	0.205355
610.169321	0.205451
610.378475	0.205650
610.587611	0.205866
610.796729	0.205948
611.005829	0.205811
611.214910	0.206002
611.423974	0.206390
611.633019	0.206818
611.842045	0.206848
612.051054	0.207085
612.260044	0.207383
612.469017	0.207323
612.677970	0.207203
612.886906	0.207353
613.095824	0.207410
613.304723	0.207387
613.513604	0.207186
613.722467	0.207361
613.931311	0.207100
614.140138	0.207380
614.348946	0.207761
614.557736	0.208109
614.766507	0.208417
614.975261	0.208712
615.183996	0.208771
615.392713	0.209230
615.601412	0.209524
615.810092	0.209864
616.018754	0.209691
616.227399	0.209416
616.436024	0.209514
616.644632	0.209704
616.853222	0.209698
617.061793	0.210003
617.270346	0.209561
617.478880	0.209703
617.687397	0.210036
617.895895	0.210395
618.104375	0.210964
618.312837	0.211156
618.521281	0.211160
618.729706	0.211417
618.938113	0.211694
619.146502	0.212178
619.354873	0.212246
619.563226	0.211933
619.771560	0.211990
619.979876	0.211839
620.188174	0.212219
620.396453	0.212141
620.604715	0.212508
620.812958	0.212603
621.021183	0.213152
621.229390	0.213295
621.437578	0.213978
621.645748	0.214305
621.853900	0.214449
622.062034	0.214683
622.270150	0.215336
622.478247	0.215456
622.686326	0.215585
622.894387	0.215549
623.102430	0.216096
623.310454	0.216140
623.518461	0.215965
623.726449	0.216392
623.934418	0.216087
624.142370	0.216015
624.350303	0.215933
624.558218	0.215712
624.766115	0.215863
624.973994	0.215735
625.181855	0.216113
625.389697	0.216461
625.597521	0.216583
625.805327	0.217012
626.013114	0.217234
626.220883	0.217279
626.428634	0.218006
626.636367	0.218299
626.844082	0.218756
627.051778	0.218680
627.259457	0.218661
627.467117	0.218647
627.674758	0.218688
627.882382	0.218544
628.089987	0.218884
628.297574	0.218719
628.505143	0.218447
628.712694	0.218178
628.920226	0.218259
629.127740	0.218608
629.335236	0.218813
629.542714	0.218940
629.750174	0.219027
629.957615	0.219042
630.165038	0.218977
630.372443	0.219263
630.579829	0.219490
630.787198	0.219582
630.994548	0.219732
631.201880	0.219756
631.409194	0.219763
631.616489	0.220224
631.823766	0.220239
632.031025	0.220851
632.238266	0.220978
632.445489	0.221263
632.652693	0.221223
632.859879	0.221056
633.067047	0.221037
633.274197	0.221368
633.481329	0.221377
633.688442	0.221348
633.895537	0.221321
634.102614	0.221487
634.309672	0.221530
634.516713	0.221865
634.723735	0.221964
634.930739	0.222262
635.137724	0.222307
635.344692	0.222223
635.551641	0.222562
635.758572	0.222728
635.965485	0.222786
636.172379	0.222682
636.379256	0.222732
636.586114	0.223174
636.792954	0.223412
636.999775	0.223439
637.206579	0.223873
637.413364	0.224029
637.620131	0.224032
637.826880	0.224173
638.033610	0.224503
638.240323	0.224717
638.447017	0.224527
638.653692	0.224752
638.860350	0.224920
639.066990	0.225011
639.273611	0.225315
639.480214	0.225425
639.686798	0.225682
639.893365	0.225672
640.099913	0.225940
640.306443	0.226389
640.512955	0.226650
640.719449	0.226886
640.925924	0.227115
641.132381	0.227234
641.338820	0.227592
641.545241	0.227657
641.751644	0.228080
641.958028	0.228290
642.164394	0.228256
642.370742	0.228321
642.577071	0.228514
642.783383	0.228621
642.989676	0.228773
643.195951	0.228671
643.402207	0.228763
643.608446	0.228833
643.814666	0.228864
644.020868	0.229166
644.227052	0.229320
644.433218	0.229730
644.639365	0.229882
644.845494	0.230064
645.051605	0.230508
645.257698	0.231122
645.463772	0.231186
645.669828	0.231339
645.875866	0.231395
646.081886	0.231531
646.287888	0.231719
646.493871	0.231736
646.699836	0.231859
646.905783	0.231625
647.111712	0.231505
647.317622	0.231861
647.523514	0.232066
647.729388	0.232584
647.935244	0.232897
648.141082	0.232967
648.346901	0.233393
648.552702	0.233840
648.758485	0.234465
648.964250	0.234652
649.169996	0.234704
649.375724	0.234813
649.581434	0.234787
649.787126	0.234834
649.992800	0.235086
650.198455	0.235389
650.404092	0.235246
650.609711	0.235275
650.815311	0.235330
651.020894	0.235651
651.226458	0.235824
651.432004	0.235846
651.637532	0.235988
651.843041	0.235598
652.048532	0.235378
652.254006	0.235752
652.459460	0.235786
652.664897	0.236182
652.870315	0.236234
653.075716	0.236570
653.281097	0.237001
653.486461	0.237291
653.691807	0.237868
653.897134	0.237948
654.102443	0.237935
654.307734	0.238306
654.513006	0.238365
654.718261	0.238717
654.923497	0.238765
655.128715	0.238658
655.333915	0.238558
655.539096	0.238648
655.744259	0.239304
655.949404	0.239494
656.154531	0.239669
656.359640	0.239776
656.564730	0.239999
656.769802	0.240540
656.974856	0.241008
657.179892	0.241270
657.384909	0.241705
657.589908	0.241700
657.794889	0.241863
657.999852	0.242346
658.204797	0.242643
658.409723	0.242875
658.614631	0.242742
658.819521	0.243019
659.024393	0.243026
659.229246	0.243134
659.434081	0.243393
659.638898	0.243926
659.843697	0.243597
660.048478	0.243615
660.253240	0.243704
660.457984	0.243869
660.662710	0.243968
660.867417	0.244263
661.072107	0.244378
661.276778	0.244362
661.481431	0.244334
661.686066	0.244467
661.890682	0.244800
662.095281	0.245027
662.299861	0.245146
662.504422	0.245428
662.708966	0.245892
662.913491	0.246128
663.117999	0.246459
663.322488	0.246553
663.526958	0.246860
663.731411	0.247261
663.935845	0.247331
664.140261	0.247662
664.344659	0.247661
664.549038	0.247561
664.753400	0.247716
664.957743	0.247959
665.162068	0.248020
665.366375	0.248378
665.570663	0.248264
665.774933	0.248563
665.979185	0.248692
666.183419	0.249049
666.387635	0.249596
666.591832	0.249634
666.796011	0.250060
667.000172	0.250413
667.204315	0.250569
667.408439	0.250980
667.612545	0.251115
667.816634	0.251232
668.020703	0.251124
668.224755	0.251099
668.428788	0.251292
668.632803	0.251323
668.836800	0.251616
669.040779	0.251767
669.244739	0.252033
669.448681	0.252062
669.652605	0.252323
669.856511	0.252756
670.060399	0.253094
670.264268	0.253169
670.468119	0.253240
670.671952	0.253537
670.875767	0.253931
671.079563	0.254136
671.283341	0.254572
671.487101	0.255204
671.690843	0.255459
671.894567	0.255735
672.098272	0.256341
672.301959	0.256536
672.505628	0.256507
672.709278	0.256599
672.912911	0.256784
673.116525	0.256866
673.320121	0.256576
673.523699	0.256616
673.727258	0.256702
673.930799	0.256626
674.134322	0.256814
674.337827	0.257170
674.541314	0.257530
674.744782	0.257626
674.948232	0.257827
675.151664	0.258122
675.355078	0.258363
675.558474	0.258373
675.761851	0.258515
675.965210	0.258914
676.168551	0.259006
676.371873	0.258982
676.575178	0.258979
676.778464	0.258989
676.981732	0.259043
677.184981	0.259264
677.388213	0.259765
677.591426	0.260005
677.794621	0.260111
677.997798	0.260424
678.200956	0.260589
678.404097	0.260947
678.607219	0.261339
678.810323	0.261719
679.013408	0.261879
679.216476	0.261849
679.419525	0.261994
679.622556	0.262173
679.825569	0.262395
680.028563	0.262491
680.231540	0.262536
680.434498	0.262700
680.637438	0.262897
680.840359	0.263103
681.043263	0.263501
681.246148	0.263705
681.449015	0.263866
681.651864	0.264039
681.854694	0.264432
682.057506	0.264788
682.260301	0.265065
682.463076	0.265367
682.665834	0.265619
682.868573	0.265860
683.071295	0.265884
683.273998	0.266078
683.476682	0.266126
683.679349	0.266183
683.881997	0.266076
684.084627	0.266137
684.287239	0.266119
684.489833	0.266087
684.692408	0.265927
684.894965	0.266530
685.097504	0.266487
685.300025	0.266619
685.502527	0.266828
685.705012	0.267009
685.907478	0.267191
686.109925	0.267070
686.312355	0.267302
686.514766	0.267561
686.717159	0.267464
686.919534	0.267494
687.121891	0.267581
687.324230	0.267651
687.526550	0.267961
687.728852	0.267986
687.931136	0.268316
688.133401	0.268460
688.335649	0.268565
688.537878	0.268656
688.740089	0.269097
688.942281	0.269331
689.144456	0.269419
689.346612	0.269712
689.548750	0.270067
689.750870	0.270095
689.952971	0.270111
690.155055	0.270010
690.357120	0.270029
690.559167	0.269962
690.761195	0.269851
690.963206	0.269923
691.165198	0.269727
691.367172	0.269604
691.569128	0.269858
691.771065	0.270008
691.972984	0.270295
692.174885	0.270564
692.376768	0.270784
692.578633	0.271090
692.780479	0.271345
692.982308	0.271454
693.184118	0.271757
693.385909	0.271862
693.587683	0.271972
693.789438	0.272257
693.991175	0.272350
694.192894	0.272664
694.394595	0.272739
694.596277	0.272820
694.797941	0.272886
694.999587	0.272932
695.201215	0.273197
695.402824	0.273263
695.604416	0.273427
695.805989	0.273644
696.007543	0.273588
696.209080	0.273702
696.410598	0.273891
696.612099	0.274372
696.813580	0.274575
697.015044	0.274433
697.216490	0.274768
697.417917	0.274729
697.619326	0.275031
697.820717	0.275374
698.022089	0.275773
698.223444	0.275901
698.424780	0.275916
698.626098	0.275851
698.827397	0.276230
699.028679	0.276493
699.229942	0.276607
699.431187	0.276699
699.632414	0.276830
699.833622	0.276782
700.034813	0.277091
700.235985	0.277238
700.437139	0.277710
700.638274	0.277773
700.839392	0.277993
701.040491	0.278317
701.241572	0.278406
701.442635	0.278535
701.643679	0.278489
701.844706	0.278250
702.045714	0.278216
702.246704	0.278422
702.447675	0.278595
702.648629	0.278410
702.849564	0.278450
703.050481	0.278423
703.251380	0.278375
703.452260	0.278585
703.653122	0.278853
703.853966	0.279118
704.054792	0.278610
704.255600	0.278483
704.456389	0.278545
704.657160	0.278398
704.857913	0.278417
705.058648	0.278263
705.259365	0.278162
705.460063	0.278383
705.660743	0.278157
705.861405	0.278145
706.062048	0.278187
706.262674	0.278069
706.463281	0.278228
706.663870	0.278201
706.864441	0.278315
707.064993	0.278318
707.265527	0.277893
707.466043	0.278133
707.666541	0.278528
707.867021	0.278574
708.067482	0.278546
708.267925	0.278411
708.468350	0.278336
708.668757	0.278278
708.869145	0.278355
709.069516	0.278476
709.269868	0.278233
709.470201	0.277910
709.670517	0.277820
709.870814	0.278018
710.071093	0.278289
710.271354	0.278470
710.471597	0.278518
710.671821	0.278814
710.872028	0.278938
711.072216	0.279080
711.272385	0.279312
711.472537	0.279512
711.672670	0.279238
711.872785	0.279236
712.072882	0.279533
712.272961	0.279612
712.473021	0.279752
712.673063	0.279824
712.873087	0.280210
713.073093	0.280357
713.273081	0.280450
713.473050	0.280780
713.673001	0.280483
713.872934	0.280303
714.072849	0.280278
714.272745	0.279978
714.472623	0.279928
714.672483	0.279575
714.872325	0.279498
715.072148	0.279484
715.271954	0.279176
715.471741	0.279328
715.671509	0.279246
715.871260	0.279312
716.070992	0.279249
716.270707	0.279231
716.470403	0.279128
716.670080	0.279077
716.869740	0.278875
717.069381	0.279184
717.269004	0.279118
717.468609	0.279000
717.668195	0.278711
717.867764	0.278628
718.067314	0.278534
718.266846	0.278594
718.466360	0.278721
718.665855	0.278681
718.865332	0.278476
719.064791	0.278297
719.264232	0.278229
719.463655	0.278341
719.663059	0.278241
719.862445	0.278135
720.061813	0.277821
720.261163	0.277422
720.460494	0.277428
720.659807	0.277243
720.859102	0.277162
721.058379	0.277208
721.257638	0.277023
721.456878	0.276913
721.656100	0.276852
721.855304	0.276825
722.054490	0.276997
722.253657	0.276855
722.452806	0.276905
722.651937	0.277063
722.851050	0.277025
723.050145	0.277097
723.249221	0.277033
723.448279	0.276960
723.647319	0.276886
723.846340	0.276698
724.045344	0.276281
724.244329	0.276017
724.443296	0.275596
724.642245	0.275328
724.841175	0.275238
725.040088	0.274987
725.238982	0.274867
725.437857	0.274898
725.636715	0.274586
725.835554	0.274738
726.034376	0.274897
726.233179	0.274713
726.431963	0.274429
726.630730	0.274224
726.829478	0.274229
727.028208	0.274127
727.226920	0.273899
727.425614	0.273740
727.624289	0.273576
727.822946	0.273361
728.021585	0.273380
728.220206	0.273338
728.418808	0.273045
728.617392	0.273020
728.815958	0.272808
729.014506	0.272888
729.213036	0.272791
729.411547	0.272840
729.610040	0.272377
729.808515	0.272562
730.006972	0.272461
730.205410	0.272092
730.403831	0.271874
730.602233	0.271502
730.800616	0.271037
730.998982	0.270778
731.197329	0.270562
731.395658	0.270667
731.593969	0.270153
731.792262	0.270085
731.990536	0.270320
732.188793	0.270241
732.387031	0.270038
732.585250	0.270065
732.783452	0.270067
732.981635	0.270046
733.179800	0.269898
733.377947	0.269985
733.576076	0.269723
733.774186	0.269701
733.972278	0.269588
734.170352	0.269660
734.368408	0.269415
734.566446	0.269073
734.764465	0.268757
734.962466	0.268503
735.160449	0.268179
735.358413	0.268309
735.556360	0.267811
735.754288	0.267702
735.952198	0.267306
736.150090	0.267167
736.347963	0.267278
736.545818	0.267142
736.743655	0.267289
736.941474	0.267172
737.139275	0.266623
737.337057	0.266730
737.534821	0.266499
737.732567	0.266590
737.930295	0.266186
738.128005	0.265921
738.325696	0.265798
738.523369	0.265514
738.721024	0.265520
738.918660	0.265605
739.116279	0.265382
739.313879	0.265227
739.511461	0.265069
739.709024	0.265351
739.906570	0.265523
740.104097	0.265132
740.301606	0.264894
740.499097	0.264617
740.696569	0.264582
740.894024	0.264592
741.091460	0.264423
741.288878	0.264370
741.486277	0.264104
741.683659	0.263907
741.881022	0.263764
742.078367	0.263542
742.275694	0.263372
742.473002	0.263254
742.670293	0.262908
742.867565	0.262686
743.064819	0.262422
743.262054	0.261897
743.459272	0.261588
743.656471	0.261464
743.853652	0.261432
744.050815	0.261127
744.247959	0.260856
744.445085	0.260839
744.642194	0.260645
744.839283	0.260482
745.036355	0.260808
745.233408	0.260689
745.430444	0.260418
745.627461	0.260247
745.824459	0.260098
746.021440	0.259949
746.218402	0.259855
746.415346	0.259802
746.612272	0.259847
746.809180	0.259636
747.006069	0.259477
747.202940	0.259470
747.399793	0.259506
747.596628	0.259767
747.793444	0.259549
747.990243	0.259253
748.187023	0.259331
748.383784	0.259084
748.580528	0.258825
748.777253	0.258653
748.973960	0.258640
749.170649	0.258214
749.367320	0.257661
749.563973	0.257377
749.760607	0.257135
749.957223	0.256727
750.153821	0.256474
750.350400	0.256281
750.546962	0.256197
750.743505	0.255834
750.940030	0.256029
751.136536	0.256010
751.333025	0.255883
751.529495	0.255493
751.725947	0.255315
751.922381	0.255002
752.118796	0.254899
752.315194	0.254507
752.511573	0.254484
752.707934	0.254006
752.904276	0.253934
753.100601	0.253790
753.296907	0.254147
753.493195	0.253863
753.689465	0.254003
753.885716	0.253773
754.081949	0.253568
754.278164	0.253433
754.474361	0.253210
754.670540	0.252813
754.866700	0.252473
755.062843	0.252045
755.258967	0.251889
755.455072	0.251560
755.651160	0.251414
755.847229	0.251500
756.043280	0.251472
756.239313	0.251221
756.435328	0.251167
756.631324	0.251183
756.827302	0.250994
757.023262	0.250970
757.219204	0.250737
757.415127	0.250688
757.611033	0.250228
757.806920	0.249867
758.002788	0.249744
758.198639	0.249513
758.394471	0.249214
758.590286	0.249171
758.786081	0.248767
758.981859	0.248637
759.177619	0.248638
759.373360	0.248558
759.569083	0.248587
759.764788	0.248527
759.960474	0.248577
760.156143	0.248605
760.351793	0.248264
760.547425	0.248451
760.743038	0.248401
760.938634	0.248005
761.134211	0.248172
761.329770	0.248102
761.525311	0.248224
761.720833	0.248227
761.916338	0.247886
762.111824	0.247748
762.307292	0.247603
762.502741	0.247579
762.698173	0.247582
762.893586	0.247200
763.088981	0.247014
763.284358	0.246808
763.479716	0.246465
763.675057	0.246620
763.870379	0.246881
764.065683	0.246781
764.260968	0.246564
764.456236	0.246483
764.651485	0.246401
764.846716	0.246320
765.041929	0.246125
765.237123	0.246065
765.432299	0.245835
765.627457	0.245570
765.822597	0.245419
766.017719	0.245614
766.212822	0.245398
766.407907	0.245249
766.602974	0.245056
766.798023	0.244955
766.993054	0.244716
767.188066	0.244355
767.383060	0.244327
767.578036	0.244330
767.772993	0.244029
767.967933	0.244230
768.162854	0.244472
768.357757	0.244499
768.552642	0.244536
768.747508	0.244652
768.942356	0.245075
769.137186	0.244844
769.331998	0.244693
769.526792	0.244579
769.721567	0.244476
769.916324	0.244164
770.111063	0.244151
770.305784	0.244043
770.500486	0.243723
770.695171	0.243396
770.889837	0.243323
771.084484	0.243094
771.279114	0.243096
771.473725	0.242785
771.668318	0.242570
771.862893	0.242488
772.057450	0.242315
772.251988	0.242373
772.446509	0.242619
772.641011	0.242787
772.835494	0.242935
773.029960	0.242872
773.224407	0.243177
773.418836	0.243656
773.613247	0.243569
773.807640	0.243552
774.002014	0.243729
774.196370	0.243432
774.390708	0.243138
774.585028	0.243136
774.779330	0.243223
774.973613	0.242909
775.167878	0.242634
775.362125	0.242612
775.556354	0.242731
775.750564	0.242366
775.944756	0.242271
776.138930	0.242441
776.333086	0.242467
776.527223	0.242265
776.721343	0.242441
776.915444	0.242445
777.109526	0.242228
777.303591	0.242205
777.497637	0.242355
777.691666	0.242675
777.885676	0.242541
778.079667	0.242501
778.273641	0.242637
778.467596	0.242611
778.661533	0.242501
778.855452	0.242714
779.049352	0.242686
779.243235	0.242804
779.437099	0.242501
779.630945	0.242634
779.824773	0.242827
780.018582	0.242822
780.212373	0.242637
780.406146	0.242807
780.599901	0.242865
780.793638	0.242956
780.987356	0.242939
781.181056	0.243020
781.374738	0.242927
781.568402	0.242584
781.762047	0.242519
781.955674	0.242648
782.149283	0.242531
782.342874	0.242675
782.536447	0.242788
782.730001	0.243124
782.923537	0.243323
783.117055	0.243511
783.310555	0.243885
783.504036	0.243877
783.697499	0.243777
783.890944	0.243998
784.084371	0.244062
784.277780	0.243905
784.471170	0.243661
784.664542	0.243411
784.857896	0.243657
785.051231	0.243671
785.244549	0.244092
785.437848	0.244320
785.631129	0.244308
785.824392	0.244442
786.017636	0.244532
786.210863	0.244581
786.404071	0.245008
786.597260	0.245144
786.790432	0.245159
786.983585	0.245228
787.176721	0.245519
787.369838	0.245702
787.562936	0.245551
787.756017	0.245584
787.949079	0.245919
788.142123	0.246141
788.335149	0.245974
788.528156	0.246202
788.721146	0.246206
788.914117	0.246157
789.107070	0.246369
789.300005	0.246356
789.492921	0.246467
789.685819	0.246632
789.878699	0.246442
790.071561	0.246711
790.264405	0.246647
790.457230	0.246861
790.650037	0.247183
790.842826	0.247116
791.035597	0.247217
791.228349	0.247413
791.421084	0.247378
791.613800	0.247734
791.806497	0.247843
791.999177	0.248200
792.191838	0.248246
792.384481	0.248116
792.577106	0.248523
792.769713	0.248851
792.962301	0.249183
793.154871	0.249449
793.347423	0.249588
793.539957	0.249966
793.732473	0.250139
793.924970	0.250288
794.117449	0.250422
794.309910	0.250397
794.502353	0.250629
794.694777	0.250340
794.887183	0.250647
795.079571	0.250710
795.271941	0.250564
795.464293	0.250679
795.656626	0.250809
795.848941	0.251094
796.041238	0.251153
796.233516	0.251460
796.425777	0.251800
796.618019	0.251750
796.810243	0.251996
797.002449	0.252059
797.194636	0.252123
797.386805	0.252273
797.578956	0.252148
797.771089	0.252137
797.963204	0.252032
798.155300	0.252328
798.347378	0.252512
798.539438	0.252799
798.731480	0.253069
798.923503	0.253307
799.115509	0.253711
799.307496	0.254196
799.499465	0.254674
799.691415	0.254891
799.883348	0.255054
800.075262	0.255337
800.267158	0.255209
800.459035	0.255369
800.650895	0.255559
800.842736	0.255634
801.034559	0.255739
801.226364	0.255981
801.418150	0.256163
801.609919	0.256497
801.801669	0.256600
801.993401	0.256822
802.185114	0.257211
802.376810	0.257244
802.568487	0.257366
802.760146	0.257730
802.951787	0.257915
803.143409	0.258128
803.335014	0.258218
803.526600	0.258666
803.718168	0.258856
803.909717	0.258757
804.101249	0.259135
804.292762	0.259640
804.484257	0.259683
804.675734	0.259841
804.867192	0.260143
805.058632	0.260660
805.250054	0.260728
805.441458	0.261363
805.632844	0.261869
805.824211	0.261969
806.015561	0.261994
806.206891	0.262433
806.398204	0.262845
806.589499	0.263055
806.780775	0.263198
806.972033	0.263515
807.163273	0.263847
807.354495	0.264178
807.545698	0.264506
807.736883	0.264808
807.928050	0.264904
808.119199	0.264969
808.310329	0.265357
808.501441	0.265645
808.692535	0.265620
808.883611	0.265469
809.074669	0.265699
809.265708	0.266181
809.456729	0.266438
809.647732	0.266810
809.838717	0.267283
810.029683	0.267881
810.220632	0.268006
810.411562	0.268620
810.602474	0.269318
810.793367	0.269706
810.984242	0.269895
811.175100	0.270140
811.365938	0.270526
811.556759	0.270714
811.747562	0.270632
811.938346	0.271219
812.129112	0.271410
812.319860	0.271312
812.510589	0.271238
812.701300	0.271670
812.891994	0.271972
813.082668	0.272165
813.273325	0.272705
813.463964	0.273057
813.654584	0.273314
813.845186	0.273747
814.035769	0.274427
814.226335	0.275010
814.416882	0.275210
814.607411	0.275536
814.797922	0.276223
814.988415	0.276516
815.178889	0.276967
815.369345	0.277319
815.559783	0.277666
815.750203	0.277888
815.940605	0.278292
816.130988	0.278893
816.321353	0.279250
816.511700	0.279351
816.702028	0.279694
816.892339	0.279786
817.082631	0.279901
817.272905	0.280066
817.463161	0.280420
817.653398	0.280506
817.843617	0.280682
818.033819	0.280705
818.224001	0.281000
818.414166	0.280854
818.604312	0.281307
818.794440	0.281774
818.984550	0.281901
819.174642	0.281922
819.364716	0.282529
819.554771	0.282657
819.744808	0.283256
819.934827	0.283432
820.124827	0.284108
820.314810	0.284624
820.504774	0.284828
820.694720	0.285459
820.884647	0.285885
821.074557	0.285848
821.264448	0.286257
821.454321	0.286546
821.644176	0.286958
821.834012	0.287050
822.023831	0.287029
822.213631	0.287197
822.403413	0.287375
822.593176	0.287861
822.782922	0.288172
822.972649	0.288619
823.162358	0.288859
823.352049	0.288979
823.541721	0.289275
823.731376	0.289594
823.921012	0.290331
824.110629	0.290501
824.300229	0.290664
824.489811	0.291417
824.679374	0.291528
824.868919	0.291983
825.058445	0.292444
825.247954	0.293132
825.437444	0.293549
825.626916	0.293677
825.816370	0.294255
826.005806	0.294777
826.195223	0.295189
826.384622	0.295681
826.574003	0.296094
826.763366	0.296791
826.952711	0.297106
827.142037	0.297570
827.331345	0.298150
827.520635	0.298496
827.709906	0.299171
827.899160	0.299151
828.088395	0.299666
828.277612	0.300271
828.466810	0.300380
828.655991	0.300899
828.845153	0.301423
829.034297	0.301791
829.223423	0.302370
829.412531	0.302520
829.601620	0.303016
829.790691	0.303034
829.979744	0.303525
830.168779	0.304142
830.357795	0.304289
830.546793	0.304533
830.735773	0.304937
830.924735	0.305197
831.113679	0.305541
831.302604	0.306227
831.491511	0.306895
831.680400	0.307184
831.869271	0.307469
832.058123	0.308180
832.246957	0.308779
832.435773	0.309182
832.624571	0.309393
832.813351	0.310072
833.002112	0.310836
833.190855	0.311505
833.379580	0.312034
833.568287	0.312896
833.756975	0.313043
833.945645	0.313611
834.134297	0.314245
834.322931	0.315083
834.511547	0.315284
834.700144	0.315495
834.888723	0.315766
835.077284	0.316117
835.265826	0.316290
835.454351	0.317080
835.642857	0.317497
835.831345	0.317718
836.019815	0.318359
836.208266	0.318828
836.396699	0.319294
836.585114	0.319805
836.773511	0.320532
836.961890	0.320930
837.150250	0.321209
837.338592	0.321751
837.526916	0.322728
837.715222	0.323230
837.903510	0.323885
838.091779	0.323965
838.280030	0.324424
838.468263	0.324722
838.656477	0.325148
838.844674	0.325567
839.032852	0.325993
839.221012	0.326017
839.409153	0.326226
839.597277	0.326814
839.785382	0.327354
839.973469	0.327914
840.161538	0.328490
840.349589	0.329328
840.537621	0.329968
840.725635	0.330359
840.913631	0.331009
841.101609	0.331482
841.289568	0.331869
841.477509	0.332484
841.665432	0.333095
841.853337	0.333101
842.041224	0.333321
842.229092	0.333741
842.416942	0.334295
842.604774	0.334901
842.792588	0.335515
842.980383	0.335979
843.168160	0.336577
843.355919	0.337111
843.543660	0.337825
843.731382	0.338225
843.919087	0.338629
844.106773	0.339126
844.294441	0.339246
844.482090	0.340010
844.669722	0.340319
844.857335	0.340630
845.044930	0.340648
845.232507	0.341454
845.420065	0.342006
845.607605	0.342848
845.795127	0.343316
845.982631	0.344027
846.170117	0.344043
846.357584	0.344950
846.545033	0.345618
846.732464	0.346480
846.919877	0.346656
847.107272	0.347256
847.294648	0.347456
847.482006	0.348262
847.669346	0.348921
847.856667	0.349759
848.043971	0.350254
848.231256	0.350372
848.418523	0.350840
848.605771	0.351352
848.793002	0.351666
848.980214	0.352457
849.167408	0.352368
849.354584	0.352547
849.541742	0.352964
849.728881	0.353466
849.916002	0.354259
850.103105	0.354525
850.290190	0.355291
850.477256	0.356243
850.664304	0.356509
850.851334	0.357063
851.038346	0.357356
851.225340	0.357706
851.412315	0.357847
851.599272	0.358630
851.786211	0.359327
851.973132	0.359650
852.160034	0.359762
852.346918	0.360267
852.533784	0.360960
852.720632	0.361476
852.907462	0.362095
853.094273	0.362386
853.281066	0.362450
853.467841	0.362355
853.654598	0.362885
853.841336	0.363372
854.028056	0.364049
854.214758	0.364059
854.401442	0.364624
854.588107	0.364680
854.774755	0.365164
854.961384	0.365709
855.147995	0.366763
855.334587	0.367173
855.521162	0.367304
855.707718	0.367498
855.894256	0.368398
856.080775	0.368850
856.267277	0.369546
856.453760	0.370041
856.640225	0.370634
856.826672	0.370985
857.013101	0.371220
857.199511	0.371525
857.385903	0.372042
857.572277	0.372515
857.758633	0.372926
857.944970	0.373365
858.131290	0.373796
858.317591	0.374057
858.503873	0.374028
858.690138	0.374170
858.876384	0.374523
859.062612	0.374520
859.248822	0.374621
859.435014	0.374933
859.621188	0.375208
859.807343	0.375789
859.993480	0.376183
860.179599	0.376751
860.365699	0.377169
860.551781	0.377846
860.737846	0.378492
860.923891	0.378808
861.109919	0.378839
861.295929	0.379217
861.481920	0.379392
861.667893	0.379510
861.853848	0.379726
862.039784	0.380368
862.225702	0.380891
862.411603	0.381693
862.597484	0.381898
862.783348	0.382568
862.969193	0.382880
863.155021	0.383547
863.340830	0.384151
863.526620	0.384574
863.712393	0.385008
863.898147	0.385238
864.083883	0.384950
864.269601	0.385495
864.455301	0.385898
864.640982	0.386034
864.826645	0.385754
865.012290	0.385877
865.197917	0.386741
865.383526	0.386713
865.569116	0.387194
865.754688	0.387531
865.940242	0.387927
866.125777	0.387913
866.311295	0.388482
866.496794	0.389177
866.682275	0.389244
866.867737	0.389274
867.053182	0.389848
867.238608	0.390083
867.424016	0.390294
867.609406	0.390674
867.794778	0.391219
867.980131	0.391397
868.165466	0.391523
868.350783	0.392498
868.536082	0.392069
868.721362	0.392519
868.906625	0.392826
869.091869	0.393172
869.277094	0.393022
869.462302	0.393179
869.647491	0.393246
869.832662	0.393972
870.017815	0.393929
870.202950	0.394530
870.388066	0.394303
870.573165	0.393960
870.758245	0.394704
870.943306	0.395313
871.128350	0.395990
871.313375	0.396602
871.498382	0.396415
871.683371	0.396743
871.868342	0.397049
872.053294	0.397376
872.238229	0.398113
872.423144	0.398278
872.608042	0.398604
872.792922	0.398660
872.977783	0.398679
873.162626	0.398659
873.347451	0.398913
873.532258	0.399273
873.717046	0.399787
873.901816	0.399920
874.086568	0.399927
874.271302	0.399961
874.456017	0.399995
874.640715	0.399950
874.825394	0.400302
875.010055	0.400475
875.194697	0.400412
875.379322	0.400579
875.563928	0.400653
875.748516	0.400656
875.933085	0.400846
876.117637	0.401499
876.302170	0.402219
876.486685	0.402852
876.671182	0.402687
876.855661	0.402773
877.040121	0.403049
877.224563	0.403342
877.408987	0.403980
877.593393	0.404091
877.777780	0.403690
877.962150	0.404026
878.146501	0.404039
878.330833	0.404234
878.515148	0.405192
878.699444	0.405455
878.883722	0.406068
879.067982	0.405960
879.252224	0.405678
879.436447	0.406055
879.620653	0.405766
879.804840	0.405910
879.989008	0.406061
880.173159	0.406027
880.357291	0.406038
880.541405	0.405688
880.725501	0.405327
880.909579	0.406181
881.093638	0.406404
881.277680	0.406848
881.461703	0.406930
881.645707	0.407246
881.829694	0.407689
882.013662	0.407857
882.197612	0.408247
882.381544	0.408049
882.565458	0.407502
882.749353	0.407452
882.933230	0.407440
883.117089	0.407763
883.300930	0.407269
883.484753	0.406824
883.668557	0.406637
883.852343	0.406863
884.036111	0.407666
884.219861	0.408141
884.403592	0.408273
884.587305	0.408262
884.771000	0.408316
884.954677	0.408833
885.138335	0.409169
885.321976	0.409465
885.505598	0.409351
885.689201	0.409625
885.872787	0.409750
886.056354	0.410308
886.239904	0.410550
886.423434	0.410533
886.606947	0.410665
886.790442	0.410650
886.973918	0.410699
887.157376	0.410442
887.340816	0.409917
887.524237	0.409480
887.707641	0.408560
887.891026	0.407902
888.074393	0.407741
888.257741	0.408207
888.441072	0.407755
888.624384	0.407236
888.807678	0.407329
888.990954	0.407826
889.174211	0.408140
889.357451	0.408162
889.540672	0.408503
889.723875	0.408370
889.907059	0.407749
890.090226	0.407639
890.273374	0.407523
890.456504	0.407419
890.639616	0.406807
890.822709	0.406843
891.005785	0.407020
891.188842	0.407160
891.371881	0.406737
891.554901	0.406987
891.737904	0.407072
891.920888	0.407204
892.103854	0.407032
892.286802	0.407084
892.469731	0.406782
892.652643	0.406503
892.835536	0.406077
893.018410	0.406777
893.201267	0.406941
893.384106	0.407136
893.566926	0.407656
893.749728	0.408159
893.932511	0.408168
894.115277	0.408115
894.298024	0.408422
894.480753	0.408497
894.663464	0.407734
894.846157	0.406904
895.028831	0.406783
895.211487	0.406475
895.394125	0.405856
895.576745	0.405817
895.759346	0.405933
895.941930	0.405353
896.124495	0.404990
896.307041	0.404850
896.489570	0.404797
896.672080	0.404521
896.854573	0.404083
897.037046	0.403776
897.219502	0.403246
897.401940	0.402674
897.584359	0.402640
897.766760	0.402697
897.949143	0.402405
898.131507	0.401919
898.313854	0.401696
898.496182	0.401744
898.678492	0.401913
898.860783	0.401832
899.043057	0.401388
899.225312	0.401336
899.407549	0.400749
899.589768	0.400953
899.771968	0.400700
899.954151	0.399731
900.136315	0.399243
900.318461	0.398752
900.500588	0.398211
900.682698	0.398206
900.864789	0.397596
901.046862	0.397414
901.228917	0.396847
901.410953	0.397102
901.592971	0.397131
901.774972	0.396412
901.956953	0.395813
902.138917	0.395549
902.320862	0.394792
902.502790	0.394420
902.684699	0.394047
902.866589	0.393495
903.048462	0.392648
903.230316	0.391768
903.412152	0.391845
903.593970	0.391381
903.775770	0.391287
903.957551	0.390879
904.139314	0.390505
904.321059	0.390182
904.502786	0.389888
904.684494	0.389543
904.866185	0.389984
905.047857	0.388594
905.229510	0.388589
905.411146	0.387824
905.592763	0.387567
905.774363	0.386949
905.955943	0.386565
906.137506	0.386772
906.319051	0.386724
906.500577	0.385784
906.682085	0.385567
906.863575	0.385402
907.045046	0.385038
907.226500	0.384967
907.407935	0.384465
907.589352	0.383923
907.770750	0.382969
907.952131	0.381667
908.133493	0.381802
908.314837	0.381653
908.496163	0.380821
908.677470	0.380205
908.858760	0.379850
909.040031	0.380082
909.221284	0.379396
909.402518	0.378926
909.583735	0.378713
909.764933	0.377707
909.946113	0.377634
910.127275	0.377370
910.308418	0.377298
910.489544	0.376917
910.670651	0.376254
910.851740	0.375550
911.032810	0.374807
911.213863	0.374568
911.394897	0.374244
911.575913	0.373731
911.756911	0.372469
911.937890	0.372031
912.118851	0.371110
912.299794	0.369933
912.480719	0.370214
912.661626	0.369238
912.842514	0.368740
913.023384	0.368769
913.204236	0.367875
913.385070	0.367868
913.565886	0.366753
913.746683	0.366060
913.927462	0.366319
914.108223	0.364830
914.288965	0.364949
914.469690	0.364094
914.650396	0.362592
914.831084	0.361811
915.011754	0.360785
915.192405	0.360621
915.373038	0.359862
915.553653	0.358630
915.734250	0.358220
915.914829	0.357104
916.095389	0.356252
916.275931	0.355608
916.456455	0.354850
916.636961	0.353386
916.817448	0.352073
916.997917	0.351018
917.178368	0.349466
917.358801	0.347939
917.539216	0.346909
917.719612	0.346033
917.899990	0.345051
918.080350	0.343833
918.260692	0.343312
918.441015	0.342642
918.621320	0.342264
918.801607	0.342038
918.981876	0.341849
919.162127	0.340959
919.342359	0.340599
919.522573	0.339206
919.702769	0.339082
919.882947	0.338572
920.063106	0.337484
920.243247	0.336727
920.423370	0.336001
920.603475	0.335646
920.783562	0.335142
920.963630	0.333912
921.143680	0.333585
921.323712	0.332524
921.503725	0.331647
921.683721	0.331199
921.863698	0.330130
922.043657	0.329839
922.223598	0.328716
922.403520	0.328032
922.583424	0.326932
922.763311	0.326369
922.943178	0.325878
923.123028	0.325634
923.302859	0.325381
923.482673	0.325222
923.662467	0.324578
923.842244	0.322962
924.022003	0.321554
924.201743	0.321256
924.381465	0.320546
924.561169	0.319627
924.740854	0.318702
924.920522	0.317353
925.100171	0.316082
925.279802	0.314255
925.459414	0.314006
925.639009	0.313903
925.818585	0.313468
925.998143	0.312465
926.177683	0.311657
926.357205	0.310394
926.536708	0.309254
926.716193	0.308091
926.895660	0.306903
927.075109	0.305890
927.254539	0.304566
927.433951	0.302681
927.613345	0.301792
927.792721	0.300397
927.972079	0.299450
928.151418	0.298575
928.330739	0.297809
928.510042	0.296572
928.689327	0.295647
928.868593	0.294698
929.047841	0.293873
929.227071	0.292686
929.406283	0.291841
929.585476	0.290553
929.764652	0.289311
929.943809	0.288035
930.122948	0.287857
930.302068	0.287262
930.481171	0.285843
930.660255	0.284370
930.839321	0.283443
931.018369	0.282120
931.197398	0.281647
931.376409	0.281173
931.555402	0.280284
931.734377	0.278917
931.913334	0.277601
932.092272	0.277412
932.271192	0.277349
932.450094	0.276410
932.628978	0.276273
932.807844	0.274355
932.986691	0.272855
933.165520	0.271859
933.344331	0.271100
933.523123	0.269367
933.701898	0.268541
933.880654	0.267664
934.059392	0.266778
934.238111	0.264846
934.416813	0.264871
934.595496	0.263605
934.774161	0.261705
934.952808	0.261301
935.131437	0.260466
935.310047	0.259239
935.488639	0.257819
935.667213	0.256395
935.845769	0.255413
936.024306	0.253595
936.202825	0.252804
936.381326	0.251597
936.559809	0.249036
936.738274	0.247997
936.916720	0.246137
937.095148	0.245224
937.273558	0.243576
937.451950	0.241614
937.630323	0.240181
937.808678	0.239193
937.987015	0.238657
938.165334	0.238948
938.343635	0.237753
938.521917	0.236268
938.700181	0.235247
938.878427	0.234657
939.056655	0.234175
939.234864	0.234074
939.413055	0.233569
939.591228	0.233726
939.769383	0.232079
939.947519	0.231515
940.125638	0.232345
940.303738	0.231070
940.481820	0.230204
940.659883	0.229514
940.837929	0.227630
941.015956	0.226760
941.193965	0.224051
941.371955	0.222982
941.549928	0.221935
941.727882	0.219426
941.905818	0.218914
942.083736	0.217829
942.261636	0.217102
942.439517	0.215265
942.617380	0.212682
942.795225	0.211583
942.973052	0.209864
943.150860	0.208693
943.328651	0.207393
943.506423	0.205154
943.684176	0.204272
943.861912	0.202145
944.039629	0.201934
944.217328	0.200941
944.395009	0.200354
944.572672	0.200077
944.750317	0.198742
944.927943	0.197625
945.105551	0.196236
945.283141	0.194809
945.460712	0.194201
945.638265	0.192992
945.815801	0.192738
945.993317	0.191716
946.170816	0.189394
946.348297	0.188201
946.525759	0.187325
946.703203	0.185015
946.880629	0.183543
947.058036	0.182145
947.235425	0.180768
947.412797	0.178722
947.590149	0.177743
947.767484	0.177718
947.944800	0.174361
948.122099	0.174516
948.299379	0.175449
948.476640	0.173942
948.653884	0.173355
948.831109	0.173749
949.008316	0.173484
949.185505	0.170631
949.362676	0.168996
949.539828	0.170682
949.716962	0.167082
949.894078	0.166175
950.071176	0.165392
950.248256	0.163289
950.425317	0.160299
950.602360	0.158584
950.779385	0.160960
950.956391	0.159050
951.133380	0.156048
951.310350	0.154846
951.487302	0.155069
951.664235	0.157054
951.841151	0.156856
952.018048	0.158583
952.194927	0.158483
952.371788	0.156291
952.548631	0.156954
952.725455	0.157311
952.902261	0.158959
953.079049	0.156443
953.255819	0.153954
953.432570	0.152322
953.609303	0.148883
953.786018	0.148422
953.962715	0.147027
954.139394	0.145288
954.316054	0.145673
954.492696	0.145005
954.669320	0.143377
954.845926	0.141766
955.022513	0.142869
955.199083	0.144029
955.375634	0.143462
955.552166	0.144900
955.728681	0.145962
955.905177	0.144735
956.081655	0.143187
956.258115	0.142836
956.434557	0.143781
956.610980	0.142948
956.787385	0.143329
956.963772	0.141345
957.140141	0.138567
957.316492	0.138694
957.492824	0.138384
957.669138	0.138817
957.845434	0.137977
958.021712	0.137792
958.197971	0.135157
958.374212	0.133545
958.550435	0.131443
958.726640	0.132992
958.902826	0.130745
959.078995	0.129181
959.255145	0.129178
959.431277	0.129098
959.607390	0.124819
959.783486	0.127369
959.959563	0.125630
960.135622	0.125281
960.311662	0.124636
960.487685	0.124048
960.663689	0.125810
960.839675	0.123415
961.015643	0.125381
961.191593	0.128234
961.367524	0.126913
961.543437	0.126434
961.719332	0.128010
961.895209	0.128001
962.071067	0.130346
962.246907	0.130194
962.422730	0.132418
962.598533	0.131655
962.774319	0.128959
962.950086	0.127911
963.125835	0.129056
963.301566	0.130817
963.477279	0.129248
963.652973	0.127257
963.828650	0.126968
964.004308	0.126440
964.179947	0.125461
964.355569	0.124738
964.531172	0.124797
964.706757	0.124878
964.882324	0.121473
965.057873	0.121920
965.233403	0.121175
965.408916	0.119750
965.584410	0.119414
965.759885	0.118676
965.935343	0.121771
966.110782	0.121658
966.286203	0.122481
966.461606	0.124573
966.636991	0.124916
966.812357	0.125157
966.987705	0.126542
967.163035	0.124360
967.338347	0.125053
967.513641	0.125334
967.688916	0.126236
967.864173	0.124874
968.039412	0.124913
968.214632	0.120734
968.389835	0.121853
968.565019	0.121458
968.740185	0.122156
968.915333	0.121210
969.090462	0.119855
969.265573	0.117418
969.440667	0.116602
969.615741	0.116266
969.790798	0.120713
969.965836	0.118824
970.140856	0.117614
970.315858	0.117185
970.490842	0.118426
970.665808	0.119155
970.840755	0.120616
971.015684	0.122067
971.190595	0.122621
971.365487	0.121063
971.540362	0.124948
971.715218	0.126152
971.890056	0.126594
972.064875	0.124762
972.239677	0.123198
972.414460	0.124190
972.589225	0.125078
972.763972	0.126016
972.938700	0.126127
973.113411	0.125023
973.288103	0.127764
973.462777	0.129176
973.637432	0.129445
973.812070	0.129405
973.986689	0.129015
974.161290	0.129713
974.335873	0.128034
974.510437	0.127758
974.684984	0.126252
974.859512	0.121938
975.034022	0.121551
975.208513	0.122556
975.382987	0.123167
975.557442	0.123888
975.731879	0.123019
975.906298	0.121806
976.080698	0.122555
976.255080	0.121930
976.429445	0.124390
976.603790	0.125919
976.778118	0.124459
976.952427	0.125866
977.126719	0.124992
977.300992	0.124620
977.475246	0.127534
977.649483	0.128327
977.823701	0.128698
977.997901	0.126693
978.172083	0.122184
978.346247	0.123562
978.520392	0.123589
978.694519	0.123361
978.868628	0.122073
979.042719	0.121448
979.216791	0.119579
979.390845	0.119533
979.564882	0.119834
979.738899	0.124464
979.912899	0.123666
980.086880	0.123721
980.260843	0.124320
980.434788	0.126708
980.608715	0.124677
980.782623	0.126499
980.956514	0.125573
981.130386	0.125320
981.304240	0.122389
981.478075	0.123259
981.651892	0.122508
981.825692	0.122002
981.999472	0.120460
982.173235	0.122039
982.346980	0.120899
982.520706	0.120726
982.694414	0.122190
982.868104	0.125217
983.041775	0.127120
983.215428	0.127507
983.389064	0.129260
983.562680	0.129581
983.736279	0.129602
983.909860	0.127676
984.083422	0.129304
984.256966	0.128394
984.430491	0.125747
984.603999	0.124123
984.777488	0.122600
984.950959	0.122258
985.124412	0.120536
985.297847	0.119099
985.471263	0.121642
985.644661	0.120082
985.818041	0.120717
985.991403	0.120946
986.164747	0.118909
986.338072	0.119148
986.511379	0.118634
986.684668	0.121538
986.857938	0.122489
987.031191	0.120129
987.204425	0.119321
987.377641	0.118725
987.550839	0.118446
987.724018	0.120622
987.897179	0.119884
988.070322	0.117963
988.243447	0.114047
988.416554	0.114735
988.589642	0.117342
988.762712	0.120108
988.935764	0.121187
989.108798	0.122159
989.281813	0.121122
989.454811	0.121416
989.627790	0.122412
989.800751	0.123485
989.973693	0.121333
990.146617	0.121900
990.319524	0.120197
990.492412	0.119914
990.665281	0.118885
990.838133	0.117051
991.010966	0.119092
991.183781	0.120958
991.356578	0.122078
991.529356	0.121220
991.702117	0.119188
991.874859	0.120061
992.047583	0.119907
992.220288	0.121405
992.392976	0.124543
992.565645	0.122395
992.738296	0.119987
992.910929	0.119457
993.083543	0.120458
993.256139	0.119459
993.428718	0.119471
993.601277	0.118779
993.773819	0.116349
993.946342	0.115268
994.118848	0.114963
994.291335	0.115983
994.463803	0.115317
994.636254	0.115145
994.808686	0.116437
994.981100	0.117952
995.153496	0.117810
995.325874	0.117944
995.498233	0.119465
995.670574	0.119306
995.842897	0.118221
996.015202	0.117878
996.187488	0.117707
996.359757	0.117190
996.532007	0.116828
996.704239	0.116919
996.876452	0.117249
997.048648	0.115980
997.220825	0.116846
997.392984	0.117945
997.565124	0.118207
997.737247	0.119308
997.909351	0.118843
998.081437	0.116669
998.253505	0.116642
998.425554	0.116342
998.597586	0.117442
998.769599	0.118780
998.941594	0.119600
999.113571	0.119115
999.285529	0.119175
999.457469	0.120452
999.629391	0.119823
999.801295	0.120663
999.973181	0.120788
1000.145048	0.118905
1000.316897	0.117623
1000.488728	0.116774
1000.660541	0.118012
1000.832335	0.116536
1001.004111	0.115943
1001.175869	0.115058
1001.347609	0.114527
1001.519331	0.115269
1001.691034	0.114444
1001.862719	0.114739
1002.034386	0.115384
1002.206035	0.115913
1002.377665	0.118690
1002.549277	0.118111
1002.720871	0.119799
1002.892447	0.118669
1003.064004	0.116829
1003.235544	0.118114
1003.407065	0.118353
1003.578568	0.116550
1003.750052	0.116495
1003.921519	0.114265
1004.092967	0.115924
1004.264397	0.116481
1004.435809	0.116977
1004.607202	0.118290
1004.778577	0.117581
1004.949934	0.115761
1005.121273	0.117572
1005.292594	0.118029
1005.463896	0.118710
1005.635180	0.116433
1005.806446	0.115415
1005.977694	0.115481
1006.148923	0.115740
1006.320135	0.115395
1006.491328	0.117067
1006.662503	0.116254
1006.833659	0.116305
1007.004798	0.115802
1007.175918	0.116555
1007.347020	0.115723
1007.518103	0.115401
1007.689169	0.116771
1007.860216	0.119075
1008.031245	0.120254
1008.202256	0.117842
1008.373248	0.115792
1008.544223	0.113884
1008.715179	0.114488
1008.886117	0.115503
1009.057036	0.115651
1009.227938	0.115209
1009.398821	0.114006
1009.569686	0.110864
1009.740533	0.112118
1009.911361	0.112937
1010.082172	0.115704
1010.252964	0.113588
1010.423738	0.116566
1010.594493	0.115860
1010.765231	0.114439
1010.935950	0.113944
1011.106651	0.116068
1011.277334	0.116666
1011.447998	0.117181
1011.618645	0.116986
1011.789273	0.117786
1011.959882	0.113957
1012.130474	0.116960
1012.301048	0.118217
1012.471603	0.118701
1012.642140	0.118837
1012.812658	0.118601
1012.983159	0.116998
1013.153641	0.115360
1013.324105	0.116889
1013.494551	0.117672
1013.664979	0.115197
1013.835388	0.112505
1014.005779	0.111228
1014.176152	0.109591
1014.346507	0.109812
1014.516843	0.110505
1014.687162	0.111468
1014.857462	0.110413
1015.027744	0.110414
1015.198007	0.111746
1015.368252	0.113194
1015.538480	0.113519
1015.708689	0.113766
1015.878879	0.113139
1016.049052	0.113248
1016.219206	0.114641
1016.389342	0.113881
1016.559460	0.114296
1016.729559	0.113195
1016.899641	0.114521
1017.069704	0.114194
1017.239749	0.114352
1017.409775	0.113490
1017.579784	0.115950
1017.749774	0.114832
1017.919746	0.116426
1018.089700	0.114498
1018.259635	0.113969
1018.429553	0.112402
1018.599452	0.112474
1018.769333	0.112316
1018.939195	0.113147
1019.109040	0.111570
1019.278866	0.108758
1019.448674	0.108888
1019.618464	0.111195
1019.788235	0.112464
1019.957989	0.112041
1020.127724	0.111246
1020.297441	0.111790
1020.467139	0.112087
1020.636820	0.111223
1020.806482	0.113120
1020.976126	0.112559
1021.145752	0.111680
1021.315359	0.110495
1021.484948	0.111612
1021.654519	0.112485
1021.824072	0.112445
1021.993607	0.112310
1022.163123	0.111371
1022.332621	0.112373
1022.502101	0.112963
1022.671563	0.111986
1022.841007	0.111523
1023.010432	0.109849
1023.179839	0.111125
1023.349228	0.111883
1023.518598	0.111434
1023.687951	0.112074
1023.857285	0.110757
1024.026601	0.109194
1024.195899	0.110581
1024.365178	0.110730
1024.534439	0.111930
1024.703682	0.110185
1024.872907	0.109393
1025.042114	0.109094
1025.211302	0.107232
1025.380472	0.105715
1025.549624	0.107727
1025.718758	0.108379
1025.887873	0.107993
1026.056970	0.107476
1026.226049	0.106300
1026.395110	0.104371
1026.564153	0.104467
1026.733177	0.105663
1026.902183	0.108298
1027.071171	0.106845
1027.240141	0.106790
1027.409092	0.108954
1027.578026	0.108003
1027.746940	0.111563
1027.915837	0.112821
1028.084716	0.113871
1028.253576	0.115771
1028.422418	0.114432
1028.591242	0.113486
1028.760048	0.110927
1028.928835	0.109755
1029.097604	0.110152
1029.266355	0.107794
1029.435088	0.107749
1029.603803	0.108289
1029.772499	0.106208
1029.941177	0.107115
1030.109837	0.107740
1030.278478	0.109031
1030.447102	0.107350
1030.615707	0.109037
1030.784294	0.109135
1030.952863	0.108380
1031.121413	0.106438
1031.289945	0.105202
1031.458460	0.105840
1031.626955	0.106479
1031.795433	0.106283
1031.963892	0.107153
1032.132334	0.105647
1032.300756	0.107389
1032.469161	0.107850
1032.637548	0.108402
1032.805916	0.110919
1032.974266	0.108892
1033.142598	0.109314
1033.310911	0.110375
1033.479207	0.109273
1033.647484	0.109004
1033.815743	0.108348
1033.983983	0.109207
1034.152206	0.109133
1034.320410	0.108799
1034.488596	0.109759
1034.656764	0.106012
1034.824914	0.106097
1034.993045	0.107915
1035.161158	0.108934
1035.329253	0.106506
1035.497330	0.104351
1035.665388	0.103262
1035.833428	0.102299
1036.001450	0.103629
1036.169454	0.106085
1036.337440	0.104985
1036.505407	0.104795
1036.673356	0.106211
1036.841287	0.108289
1037.009200	0.109030
1037.177094	0.110707
1037.344970	0.110475
1037.512828	0.109133
1037.680668	0.109047
1037.848489	0.109437
1038.016293	0.108642
1038.184078	0.106793
1038.351845	0.105104
1038.519593	0.105590
1038.687324	0.105321
1038.855036	0.104705
1039.022730	0.103224
1039.190406	0.104386
1039.358063	0.103159
1039.525702	0.103308
1039.693323	0.101658
1039.860926	0.105578
1040.028511	0.104346
1040.196077	0.103877
1040.363625	0.105020
1040.531155	0.106366
1040.698667	0.106485
1040.866161	0.107201
1041.033636	0.108585
1041.201093	0.111023
1041.368532	0.108318
1041.535952	0.109278
1041.703355	0.108631
1041.870739	0.107828
1042.038105	0.107540
1042.205452	0.105531
1042.372782	0.105704
1042.540093	0.104280
1042.707386	0.104430
1042.874661	0.104208
1043.041918	0.103500
1043.209156	0.103275
1043.376376	0.103334
1043.543578	0.102737
1043.710762	0.102392
1043.877927	0.101167
1044.045074	0.102009
1044.212203	0.101534
1044.379314	0.100375
1044.546407	0.100546
1044.713481	0.101119
1044.880537	0.101602
1045.047575	0.103372
1045.214595	0.103990
1045.381596	0.104358
1045.548579	0.103886
1045.715544	0.103002
1045.882491	0.104921
1046.049420	0.105562
1046.216330	0.104302
1046.383222	0.105104
1046.550096	0.102684
1046.716951	0.103951
1046.883789	0.105834
1047.050608	0.105110
1047.217409	0.105824
1047.384192	0.105438
1047.550956	0.107036
1047.717703	0.108371
1047.884431	0.106352
1048.051140	0.108106
1048.217832	0.107963
1048.384505	0.105694
1048.551161	0.106466
1048.717798	0.104205
1048.884416	0.104506
1049.051017	0.104439
1049.217599	0.105108
1049.384163	0.105300
1049.550709	0.105611
1049.717237	0.105387
1049.883746	0.106811
1050.050237	0.106308
1050.216710	0.107368
1050.383165	0.106603
1050.549601	0.103734
1050.716019	0.101812
1050.882420	0.102168
1051.048801	0.101089
1051.215165	0.100706
1051.381510	0.097860
1051.547837	0.099802
1051.714146	0.099731
1051.880437	0.098828
1052.046709	0.098204
1052.212964	0.098963
1052.379200	0.099899
1052.545417	0.099837
1052.711617	0.098399
1052.877798	0.099347
1053.043961	0.096853
1053.210106	0.098230
1053.376233	0.099522
1053.542341	0.100061
1053.708432	0.100971
1053.874504	0.100449
1054.040557	0.099922
1054.206593	0.100742
1054.372610	0.100237
1054.538609	0.099745
1054.704590	0.098517
1054.870553	0.098371
1055.036497	0.100483
1055.202424	0.100179
1055.368331	0.100772
1055.534221	0.102776
1055.700093	0.102959
1055.865946	0.104697
1056.031781	0.106066
1056.197598	0.106965
1056.363397	0.107492
1056.529177	0.108351
1056.694939	0.107846
1056.860683	0.107324
1057.026409	0.106040
1057.192116	0.108739
1057.357806	0.109868
1057.523477	0.107541
1057.689130	0.107291
1057.854764	0.104853
1058.020381	0.102741
1058.185979	0.102641
1058.351559	0.102270
1058.517120	0.102150
1058.682664	0.100612
1058.848189	0.097367
1059.013696	0.099029
1059.179185	0.100008
1059.344656	0.102849
1059.510108	0.105001
1059.675542	0.104512
1059.840958	0.107255
1060.006356	0.109404
1060.171735	0.107787
1060.337096	0.108554
1060.502439	0.109115
1060.667764	0.106919
1060.833071	0.107979
1060.998359	0.107970
1061.163629	0.111387
1061.328881	0.110154
1061.494115	0.107029
1061.659330	0.109146
1061.824527	0.109764
1061.989706	0.110512
1062.154867	0.112313
1062.320010	0.108639
1062.485134	0.106849
1062.650240	0.104600
1062.815328	0.103361
1062.980398	0.104646
1063.145449	0.102676
1063.310482	0.103402
1063.475497	0.101920
1063.640494	0.101463
1063.805473	0.102445
1063.970433	0.105172
1064.135375	0.106393
1064.300299	0.107658
1064.465204	0.108310
1064.630092	0.109245
1064.794961	0.110714
1064.959812	0.112211
1065.124645	0.111910
1065.289459	0.111204
1065.454256	0.110121
1065.619034	0.110389
1065.783793	0.109359
1065.948535	0.107708
1066.113258	0.107820
1066.277964	0.104916
1066.442651	0.104878
1066.607319	0.105099
1066.771970	0.109208
1066.936602	0.107077
1067.101216	0.105191
1067.265812	0.108061
1067.430389	0.110553
1067.594949	0.109384
1067.759490	0.108060
1067.924013	0.108307
1068.088518	0.107498
1068.253004	0.105234
1068.417472	0.104326
1068.581922	0.105366
1068.746354	0.103645
1068.910768	0.101903
1069.075163	0.102641
1069.239540	0.103882
1069.403899	0.103935
1069.568240	0.105013
1069.732562	0.105797
1069.896866	0.107942
1070.061152	0.108274
1070.225420	0.106553
1070.389670	0.107331
1070.553901	0.106426
1070.718114	0.109238
1070.882309	0.106669
1071.046486	0.106863
1071.210644	0.105772
1071.374784	0.106497
1071.538906	0.107219
1071.703010	0.107539
1071.867096	0.108282
1072.031163	0.109051
1072.195212	0.108841
1072.359243	0.110018
1072.523256	0.110421
1072.687250	0.109971
1072.851226	0.107311
1073.015184	0.104954
1073.179124	0.105874
1073.343045	0.105475
1073.506949	0.107270
1073.670834	0.104590
1073.834701	0.104869
1073.998549	0.102945
1074.162380	0.101888
1074.326192	0.105431
1074.489986	0.107043
1074.653761	0.105336
1074.817519	0.103882
1074.981258	0.103496
1075.144979	0.105848
1075.308682	0.103920
1075.472367	0.103848
1075.636033	0.104903
1075.799681	0.101894
1075.963311	0.101921
1076.126923	0.102988
1076.290516	0.103819
1076.454092	0.103186
1076.617649	0.104700
1076.781187	0.105430
1076.944708	0.108359
1077.108210	0.109596
1077.271695	0.110947
1077.435160	0.110988
1077.598608	0.114105
1077.762038	0.113856
1077.925449	0.111391
1078.088842	0.108605
1078.252217	0.111340
1078.415573	0.111259
1078.578912	0.112093
1078.742232	0.112380
1078.905534	0.114659
1079.068817	0.113020
1079.232083	0.114668
1079.395330	0.116515
1079.558559	0.117618
1079.721770	0.114246
1079.884962	0.111748
1080.048136	0.110529
1080.211293	0.109370
1080.374430	0.107641
1080.537550	0.107329
1080.700651	0.107902
1080.863735	0.109299
1081.026800	0.109295
1081.189846	0.111481
1081.352875	0.114405
1081.515885	0.113561
1081.678877	0.115349
1081.841851	0.113432
1082.004807	0.113944
1082.167744	0.115717
1082.330663	0.114502
1082.493564	0.112182
1082.656447	0.113434
1082.819312	0.114850
1082.982158	0.114659
1083.144986	0.115656
1083.307796	0.113943
1083.470587	0.112790
1083.633361	0.111921
1083.796116	0.112311
1083.958853	0.116499
1084.121571	0.117007
1084.284272	0.114321
1084.446954	0.114103
1084.609618	0.112278
1084.772264	0.115950
1084.934892	0.117217
1085.097501	0.114736
1085.260092	0.116120
1085.422665	0.115106
1085.585220	0.115383
1085.747756	0.116671
1085.910274	0.118850
1086.072774	0.120121
1086.235256	0.120741
1086.397720	0.118993
1086.560165	0.122107
1086.722592	0.117439
1086.885001	0.115618
1087.047392	0.112971
1087.209764	0.114444
1087.372119	0.115175
1087.534455	0.114430
1087.696772	0.114465
1087.859072	0.117276
1088.021353	0.115422
1088.183616	0.116812
1088.345861	0.119341
1088.508088	0.121198
1088.670296	0.119742
1088.832486	0.119745
1088.994658	0.119605
1089.156812	0.118919
1089.318948	0.113755
1089.481065	0.115270
1089.643164	0.118975
1089.805245	0.117985
1089.967308	0.118195
1090.129352	0.114262
1090.291378	0.115905
1090.453386	0.118573
1090.615376	0.121276
1090.777347	0.124156
1090.939301	0.120933
1091.101236	0.119502
1091.263153	0.116783
1091.425051	0.120779
1091.586932	0.123671
1091.748794	0.121454
1091.910638	0.119227
1092.072463	0.117868
1092.234271	0.120773
1092.396060	0.123155
1092.557831	0.124169
1092.719584	0.128378
1092.881319	0.122611
1093.043035	0.121757
1093.204733	0.122051
1093.366413	0.118779
1093.528075	0.116444
1093.689718	0.118398
1093.851343	0.116658
1094.012950	0.115606
1094.174539	0.113669
1094.336110	0.116061
1094.497662	0.121633
1094.659196	0.120403
1094.820712	0.122239
1094.982210	0.122999
1095.143689	0.119812
1095.305151	0.121039
1095.466594	0.120441
1095.628018	0.119379
1095.789425	0.117410
1095.950813	0.111284
1096.112183	0.112089
1096.273535	0.112927
1096.434869	0.114110
1096.596184	0.112957
1096.757482	0.108376
1096.918761	0.108201
1097.080021	0.110172
1097.241264	0.112670
1097.402488	0.114030
1097.563694	0.116537
1097.724882	0.119251
1097.886052	0.113757
1098.047203	0.110479
1098.208336	0.113980
1098.369451	0.117096
1098.530548	0.120036
1098.691627	0.116698
1098.852687	0.117055
1099.013729	0.116782
1099.174753	0.114105
1099.335758	0.116039
1099.496746	0.121783
1099.657715	0.122166
1099.818666	0.120098
1099.979599	0.116680
1100.140513	0.118487
1100.301409	0.114219
1100.462287	0.107730
1100.623147	0.108305
1100.783989	0.114231
1100.944812	0.112326
1101.105617	0.111882
1101.266404	0.114550
1101.427173	0.113363
1101.587923	0.110092
1101.748656	0.116158
1101.909370	0.117515
1102.070066	0.120861
1102.230743	0.117092
1102.391403	0.115715
1102.552044	0.118864
1102.712667	0.119390
1102.873271	0.123725
1103.033858	0.123326
1103.194426	0.120004
1103.354976	0.125777
1103.515508	0.123231
1103.676021	0.123365
1103.836517	0.126485
1103.996994	0.121591
1104.157453	0.119257
1104.317893	0.113894
1104.478316	0.114905
1104.638720	0.118167
1104.799106	0.115662
1104.959474	0.113416
1105.119823	0.112219
1105.280155	0.109877
1105.440468	0.111531
1105.600763	0.113138
1105.761039	0.115952
1105.921298	0.121101
1106.081538	0.119444
1106.241760	0.122112
1106.401964	0.124148
1106.562149	0.124804
1106.722316	0.126868
1106.882465	0.127845
1107.042596	0.127135
1107.202709	0.124740
1107.362803	0.128797
1107.522879	0.126657
1107.682937	0.123938
1107.842977	0.123838
1108.002999	0.126053
1108.163002	0.123976
1108.322987	0.121491
1108.482954	0.118053
1108.642902	0.118633
1108.802833	0.111697
1108.962745	0.112966
1109.122639	0.114549
1109.282515	0.116218
1109.442372	0.115754
1109.602211	0.117232
1109.762032	0.119100
1109.921835	0.119953
1110.081620	0.124869
1110.241386	0.129281
1110.401134	0.133761
1110.560864	0.128917
1110.720576	0.127889
1110.880269	0.124919
1111.039945	0.128952
1111.199602	0.128644
1111.359240	0.124465
1111.518861	0.121106
1111.678463	0.116488
1111.838047	0.107916
1111.997613	0.107590
1112.157161	0.103705
1112.316690	0.110518
1112.476202	0.112166
1112.635695	0.113303
1112.795169	0.116085
1112.954626	0.115846
1113.114064	0.119963
1113.273484	0.123164
1113.432886	0.123576
1113.592270	0.128159
1113.751635	0.122860
1113.910983	0.122607
1114.070312	0.127226
1114.229622	0.134526
1114.388915	0.139356
1114.548189	0.134888
1114.707445	0.140594
1114.866683	0.143281
1115.025903	0.138524
1115.185104	0.137303
1115.344287	0.131762
1115.503452	0.129972
1115.662599	0.125810
1115.821727	0.129672
1115.980838	0.130120
1116.139930	0.128585
1116.299004	0.126699
1116.458059	0.132082
1116.617097	0.139018
1116.776116	0.136954
1116.935117	0.133306
1117.094099	0.131953
1117.253064	0.120035
1117.412010	0.119391
1117.570938	0.124315
1117.729848	0.120944
1117.888740	0.121836
1118.047613	0.110531
1118.206468	0.110625
1118.365305	0.110553
1118.524124	0.106828
1118.682924	0.111502
1118.841707	0.113905
1119.000471	0.107779
1119.159216	0.115647
1119.317944	0.115947
1119.476653	0.118574
1119.635344	0.126024
1119.794017	0.129553
1119.952672	0.132671
1120.111308	0.126601
1120.269927	0.123063
1120.428527	0.124814
1120.587108	0.125486
1120.745672	0.123510
1120.904217	0.127185
1121.062744	0.124915
1121.221253	0.120479
1121.379744	0.124787
1121.538216	0.129336
1121.696671	0.132827
1121.855107	0.129626
1122.013524	0.131744
1122.171924	0.128187
1122.330305	0.120496
1122.488668	0.110145
1122.647013	0.115294
1122.805340	0.115627
1122.963648	0.109459
1123.121938	0.112485
1123.280210	0.115529
1123.438464	0.112115
1123.596700	0.121408
1123.754917	0.131342
1123.913116	0.139312
1124.071297	0.136318
1124.229459	0.133552
1124.387604	0.140072
1124.545730	0.134522
1124.703838	0.131760
1124.861928	0.132847
1125.019999	0.130731
1125.178052	0.130303
1125.336088	0.137224
1125.494104	0.131554
1125.652103	0.134558
1125.810083	0.138081
1125.968045	0.146655
1126.125989	0.145417
1126.283915	0.141531
1126.441823	0.141055
1126.599712	0.138731
1126.757583	0.125698
1126.915436	0.127575
1127.073270	0.124167
1127.231087	0.120551
1127.388885	0.121396
1127.546665	0.124618
1127.704426	0.124663
1127.862170	0.123563
1128.019895	0.124033
1128.177602	0.133666
1128.335291	0.139925
1128.492961	0.134286
1128.650614	0.137714
1128.808248	0.132163
1128.965864	0.140470
1129.123461	0.143349
1129.281041	0.145694
1129.438602	0.149277
1129.596145	0.141525
1129.753670	0.134354
1129.911176	0.149790
1130.068665	0.145572
1130.226135	0.156788
1130.383587	0.142531
1130.541020	0.138248
1130.698436	0.131320
1130.855833	0.135320
1131.013212	0.140239
1131.170573	0.137083
1131.327915	0.128492
1131.485239	0.139005
1131.642545	0.123037
1131.799833	0.135709
1131.957103	0.142489
1132.114354	0.144499
1132.271588	0.145446
1132.428803	0.149880
1132.585999	0.154074
1132.743178	0.157480
1132.900338	0.151121
1133.057480	0.152853
1133.214604	0.139806
1133.371710	0.138877
1133.528797	0.136345
1133.685866	0.125104
1133.842917	0.116871
1133.999950	0.128303
1134.156964	0.125467
1134.313960	0.128545
1134.470938	0.130231
1134.627898	0.134524
1134.784840	0.133597
1134.941763	0.136788
1135.098668	0.146124
1135.255555	0.140056
1135.412424	0.131172
1135.569274	0.127533
1135.726107	0.127392
1135.882921	0.135687
1136.039716	0.133672
1136.196494	0.140836
1136.353253	0.144078
1136.509995	0.144036
1136.666717	0.158547
1136.823422	0.153672
1136.980109	0.157494
1137.136777	0.166616
1137.293427	0.163341
1137.450059	0.172501
1137.606672	0.167961
1137.763267	0.156090
1137.919844	0.139400
1138.076403	0.125344
1138.232944	0.129161
1138.389466	0.142437
1138.545971	0.119536
1138.702457	0.116257
1138.858924	0.112797
1139.015374	0.103824
1139.171805	0.101575
1139.328218	0.107075
1139.484613	0.123914
1139.640990	0.131486
1139.797348	0.131896
1139.953688	0.137458
1140.110010	0.131503
1140.266314	0.140279
1140.422600	0.152229
1140.578867	0.175599
1140.735116	0.193310
1140.891347	0.180007
1141.047559	0.171237
1141.203754	0.155892
1141.359930	0.173096
1141.516088	0.182108
1141.672228	0.170815
1141.828349	0.159312
1141.984452	0.154513
1142.140537	0.139197
1142.296604	0.148006
1142.452653	0.160278
1142.608683	0.164605
1142.764695	0.160884
1142.920689	0.155981
1143.076665	0.159256
1143.232622	0.159407
1143.388562	0.155497
1143.544483	0.165499
1143.700385	0.154873
1143.856270	0.141867
1144.012136	0.139097
1144.167985	0.134924
1144.323814	0.132771
1144.479626	0.132640
1144.635420	0.142011
1144.791195	0.150097
1144.946952	0.140364
1145.102691	0.147484
1145.258411	0.154127
1145.414113	0.143260
1145.569798	0.139296
1145.725463	0.152391
1145.881111	0.138822
1146.036741	0.130046
1146.192352	0.120700
1146.347945	0.123186
1146.503519	0.129736
1146.659076	0.133078
1146.814614	0.147382
1146.970134	0.145542
1147.125636	0.132055
1147.281120	0.136521
1147.436585	0.148602
1147.592032	0.144525
1147.747461	0.149321
1147.902872	0.134880
1148.058265	0.128332
1148.213639	0.124468
1148.368995	0.126130
1148.524333	0.133563
1148.679653	0.142112
1148.834954	0.141994
1148.990237	0.142978
1149.145502	0.138080
1149.300749	0.139767
1149.455977	0.135752
1149.611188	0.133567
1149.766380	0.134777
1149.921553	0.136142
1150.076709	0.129050
1150.231846	0.127707
1150.386966	0.127661
1150.542066	0.139795
1150.697149	0.148121
1150.852214	0.160365
1151.007260	0.160232
1151.162288	0.154674
1151.317298	0.143440
1151.472289	0.149788
1151.627263	0.144667
1151.782218	0.146400
1151.937155	0.128875
1152.092073	0.132377
1152.246974	0.122736
1152.401856	0.128291
1152.556720	0.142183
1152.711566	0.144402
1152.866393	0.141500
1153.021203	0.128469
1153.175994	0.135091
1153.330767	0.140975
1153.485521	0.138619
1153.640258	0.133661
1153.794976	0.134930
1153.949676	0.116879
1154.104358	0.121793
1154.259021	0.122360
1154.413667	0.137265
1154.568294	0.113764
1154.722903	0.111854
1154.877493	0.113628
1155.032066	0.117936
1155.186620	0.113088
1155.341156	0.121615
1155.495674	0.116246
1155.650173	0.118107
1155.804654	0.102562
1155.959118	0.112330
1156.113562	0.107179
1156.267989	0.107714
1156.422397	0.096481
1156.576788	0.089496
1156.731160	0.085199
1156.885513	0.082615
1157.039849	0.082864
1157.194166	0.088850
1157.348465	0.102397
1157.502746	0.111896
1157.657009	0.105164
1157.811253	0.127754
1157.965479	0.147550
1158.119687	0.152308
1158.273877	0.169318
1158.428048	0.161198
1158.582201	0.177958
1158.736337	0.188478
1158.890453	0.178632
1159.044552	0.158001
1159.198632	0.136854
1159.352694	0.123774
1159.506738	0.122889
1159.660764	0.116617
1159.814771	0.126101
1159.968761	0.123055
1160.122732	0.104861
1160.276685	0.122512
1160.430619	0.134722
1160.584535	0.148756
1160.738434	0.153085
1160.892313	0.159599
1161.046175	0.152754
1161.200019	0.139967
1161.353844	0.129750
1161.507651	0.128970
1161.661440	0.115150
1161.815210	0.127751
1161.968962	0.110190
1162.122697	0.103762
1162.276412	0.091625
1162.430110	0.103363
1162.583789	0.112259
1162.737451	0.114296
1162.891094	0.107675
1163.044718	0.115989
1163.198325	0.101353
1163.351913	0.118903
1163.505483	0.115335
1163.659035	0.116748
1163.812569	0.092433
1163.966084	0.074378
1164.119581	0.062636
1164.273060	0.066917
1164.426521	0.055793
1164.579964	0.057400
1164.733388	0.054209
1164.886794	0.063018
1165.040182	0.071636
1165.193551	0.098023
1165.346903	0.113812
1165.500236	0.144021
1165.653551	0.142281
1165.806848	0.156861
1165.960126	0.158093
1166.113386	0.140598
1166.266628	0.141538
1166.419852	0.128733
1166.573058	0.110136
1166.726245	0.111291
1166.879414	0.088356
1167.032565	0.097287
1167.185698	0.088622
1167.338812	0.094759
1167.491909	0.123461
1167.644987	0.111799
1167.798046	0.113772
1167.951088	0.126635
1168.104111	0.122216
1168.257117	0.102086
1168.410103	0.090468
1168.563072	0.092108
1168.716023	0.092235
1168.868955	0.072397
1169.021869	0.069223
1169.174765	0.076151
1169.327642	0.064490
1169.480501	0.093482
1169.633343	0.117483
1169.786165	0.130876
1169.938970	0.147347
1170.091757	0.143237
1170.244525	0.149249
1170.397275	0.170381
1170.550007	0.184260
1170.702720	0.203406
1170.855415	0.190263
1171.008092	0.183875
1171.160751	0.165680
1171.313392	0.139268
1171.466014	0.271899
1171.618619	0.037188
1171.771205	0.037188
1171.923772	0.037188
