sample name	sample
index	470
start time	 03-11-2021  12:18:29 PM


Wavelength (nm)	Absorbance
494.344910	-0.237986
494.563924	-0.237986
494.782919	-0.237986
495.001897	-0.042711
495.220856	-0.107100
495.439797	-0.059605
495.658719	0.008434
495.877624	0.009234
496.096510	0.000852
496.315378	0.021770
496.534227	0.016633
496.753059	0.098345
496.971872	0.075748
497.190667	0.159991
497.409444	0.163826
497.628203	0.164611
497.846943	0.169461
498.065665	0.169249
498.284369	0.169360
498.503055	0.170280
498.721723	0.170245
498.940372	0.172282
499.159003	0.172021
499.377616	0.172380
499.596210	0.173209
499.814787	0.171876
500.033345	0.173158
500.251885	0.173959
500.470406	0.175035
500.688910	0.174518
500.907395	0.173922
501.125862	0.174556
501.344311	0.175106
501.562742	0.173992
501.781154	0.175272
501.999548	0.175163
502.217924	0.175355
502.436282	0.175023
502.654621	0.176382
502.872942	0.175508
503.091245	0.175531
503.309530	0.175893
503.527797	0.178205
503.746045	0.178272
503.964275	0.179202
504.182487	0.179477
504.400681	0.179783
504.618856	0.179465
504.837013	0.179956
505.055152	0.180048
505.273273	0.180125
505.491376	0.179312
505.709460	0.179037
505.927526	0.178962
506.145574	0.178822
506.363604	0.178291
506.581615	0.178333
506.799608	0.178878
507.017583	0.178613
507.235540	0.178344
507.453478	0.178167
507.671399	0.178803
507.889301	0.177886
508.107185	0.178152
508.325050	0.178724
508.542898	0.179027
508.760727	0.178359
508.978538	0.179458
509.196330	0.179906
509.414105	0.180504
509.631861	0.180274
509.849599	0.181591
510.067319	0.181833
510.285021	0.182003
510.502704	0.181804
510.720369	0.182724
510.938016	0.182172
511.155645	0.182774
511.373255	0.181985
511.590848	0.181908
511.808422	0.181450
512.025977	0.181480
512.243515	0.182450
512.461034	0.183014
512.678536	0.182851
512.896018	0.182681
513.113483	0.182391
513.330930	0.183724
513.548358	0.184547
513.765768	0.184552
513.983160	0.185367
514.200533	0.185099
514.417889	0.185842
514.635226	0.186607
514.852545	0.187486
515.069845	0.188284
515.287128	0.188766
515.504392	0.189166
515.721638	0.190314
515.938866	0.190051
516.156075	0.190221
516.373267	0.189845
516.590440	0.189656
516.807594	0.189828
517.024731	0.189509
517.241850	0.189328
517.458950	0.189220
517.676032	0.188756
517.893095	0.188983
518.110141	0.188324
518.327168	0.189200
518.544177	0.189670
518.761168	0.189587
518.978141	0.190021
519.195095	0.189828
519.412031	0.190537
519.628949	0.190563
519.845849	0.191481
520.062731	0.192099
520.279594	0.191962
520.496439	0.192028
520.713266	0.192282
520.930074	0.193197
521.146865	0.193243
521.363637	0.192831
521.580391	0.193122
521.797127	0.192641
522.013844	0.193130
522.230543	0.193572
522.447224	0.193773
522.663887	0.193603
522.880532	0.192435
523.097158	0.192732
523.313766	0.193706
523.530356	0.194896
523.746928	0.195075
523.963481	0.196080
524.180017	0.196055
524.396534	0.196231
524.613032	0.197200
524.829513	0.198018
525.045975	0.198510
525.262420	0.198720
525.478845	0.198383
525.695253	0.198310
525.911643	0.198239
526.128014	0.198869
526.344367	0.199344
526.560702	0.199359
526.777018	0.199307
526.993316	0.199692
527.209597	0.199689
527.425858	0.199951
527.642102	0.200706
527.858328	0.200803
528.074535	0.200358
528.290724	0.200801
528.506894	0.201650
528.723047	0.202141
528.939181	0.202229
529.155297	0.202972
529.371395	0.203350
529.587475	0.203696
529.803536	0.204744
530.019579	0.206102
530.235604	0.206356
530.451611	0.205647
530.667600	0.206406
530.883570	0.207038
531.099522	0.207282
531.315456	0.207861
531.531372	0.207588
531.747269	0.207125
531.963148	0.207125
532.179009	0.207094
532.394852	0.208055
532.610676	0.208127
532.826482	0.208146
533.042271	0.207939
533.258040	0.207837
533.473792	0.208329
533.689525	0.208913
533.905240	0.209128
534.120937	0.209734
534.336616	0.210439
534.552277	0.211079
534.767919	0.211544
534.983543	0.211955
535.199149	0.212400
535.414736	0.213400
535.630306	0.213161
535.845857	0.213508
536.061390	0.213560
536.276904	0.213476
536.492401	0.213755
536.707879	0.214169
536.923339	0.214489
537.138781	0.214695
537.354204	0.214612
537.569610	0.215762
537.784997	0.215915
538.000366	0.216558
538.215716	0.216814
538.431049	0.216714
538.646363	0.217460
538.861659	0.218183
539.076937	0.218785
539.292196	0.219428
539.507438	0.218780
539.722661	0.219252
539.937866	0.219662
540.153052	0.219782
540.368221	0.220828
540.583371	0.221028
540.798503	0.220455
541.013617	0.220660
541.228712	0.220157
541.443789	0.221295
541.658848	0.221735
541.873889	0.221869
542.088912	0.222316
542.303916	0.221898
542.518902	0.221567
542.733870	0.222490
542.948820	0.222795
543.163752	0.223427
543.378665	0.223030
543.593560	0.223019
543.808437	0.222751
544.023295	0.222841
544.238136	0.223366
544.452958	0.224034
544.667762	0.224483
544.882548	0.224588
545.097315	0.224761
545.312064	0.225135
545.526795	0.225619
545.741508	0.226673
545.956203	0.227122
546.170879	0.227490
546.385537	0.228019
546.600177	0.227683
546.814799	0.228216
547.029402	0.228867
547.243988	0.229021
547.458555	0.229219
547.673103	0.229393
547.887634	0.229582
548.102146	0.229555
548.316640	0.229463
548.531116	0.230290
548.745574	0.230266
548.960013	0.230749
549.174435	0.230997
549.388838	0.230733
549.603222	0.230802
549.817589	0.231024
550.031937	0.230921
550.246267	0.231358
550.460579	0.231400
550.674873	0.231998
550.889148	0.232264
551.103405	0.232858
551.317644	0.233216
551.531865	0.233294
551.746068	0.233388
551.960252	0.234232
552.174418	0.234247
552.388566	0.234740
552.602696	0.234551
552.816807	0.234258
553.030900	0.234491
553.244975	0.234456
553.459032	0.234854
553.673070	0.235180
553.887091	0.234896
554.101093	0.234994
554.315077	0.234777
554.529042	0.235228
554.742990	0.235287
554.956919	0.235193
555.170830	0.235819
555.384722	0.235969
555.598597	0.236186
555.812453	0.236738
556.026291	0.237089
556.240111	0.237550
556.453913	0.237515
556.667696	0.238062
556.881461	0.238590
557.095208	0.239035
557.308937	0.239707
557.522647	0.239720
557.736339	0.239701
557.950013	0.239936
558.163669	0.239997
558.377307	0.240198
558.590926	0.240442
558.804527	0.240833
559.018110	0.241034
559.231675	0.241254
559.445221	0.241675
559.658749	0.241855
559.872259	0.242210
560.085751	0.242031
560.299225	0.242569
560.512680	0.242847
560.726117	0.242657
560.939536	0.242789
561.152937	0.242771
561.366319	0.243070
561.579683	0.243464
561.793029	0.243761
562.006357	0.244313
562.219667	0.244361
562.432958	0.244576
562.646231	0.244791
562.859486	0.244984
563.072723	0.245060
563.285941	0.245216
563.499141	0.245673
563.712323	0.245681
563.925487	0.245931
564.138632	0.246094
564.351760	0.246161
564.564869	0.246166
564.777960	0.246389
564.991032	0.246882
565.204087	0.247503
565.417123	0.247314
565.630141	0.247784
565.843140	0.247948
566.056122	0.248087
566.269085	0.248347
566.482030	0.248684
566.694957	0.248999
566.907866	0.249084
567.120756	0.248729
567.333628	0.248794
567.546482	0.248381
567.759318	0.248701
567.972135	0.248837
568.184935	0.248960
568.397716	0.248980
568.610478	0.249445
568.823223	0.249400
569.035949	0.249725
569.248657	0.250375
569.461347	0.250714
569.674019	0.250616
569.886672	0.251253
570.099308	0.251349
570.311925	0.251858
570.524523	0.251533
570.737104	0.251782
570.949666	0.252330
571.162210	0.252292
571.374736	0.252777
571.587244	0.253206
571.799733	0.253194
572.012205	0.253569
572.224658	0.253649
572.437092	0.254091
572.649509	0.254461
572.861907	0.254306
573.074287	0.254345
573.286649	0.254204
573.498993	0.254114
573.711318	0.253926
573.923625	0.253994
574.135914	0.254111
574.348185	0.254197
574.560438	0.254390
574.772672	0.254497
574.984888	0.254986
575.197086	0.255330
575.409266	0.255749
575.621427	0.256284
575.833570	0.256569
576.045695	0.256783
576.257802	0.256858
576.469890	0.256751
576.681961	0.257134
576.894013	0.257174
577.106046	0.257151
577.318062	0.257201
577.530059	0.257305
577.742039	0.257515
577.954000	0.257479
578.165942	0.257523
578.377867	0.257617
578.589773	0.257903
578.801661	0.258208
579.013531	0.258683
579.225382	0.258884
579.437216	0.259091
579.649031	0.259433
579.860828	0.259910
580.072606	0.260129
580.284367	0.260080
580.496109	0.260112
580.707833	0.259940
580.919539	0.260626
581.131227	0.260875
581.342896	0.260743
581.554547	0.260733
581.766180	0.260903
581.977795	0.261172
582.189391	0.261320
582.400969	0.261618
582.612529	0.262044
582.824071	0.261396
583.035595	0.261623
583.247100	0.262012
583.458587	0.262034
583.670056	0.262302
583.881506	0.262702
584.092939	0.263217
584.304353	0.263488
584.515749	0.263883
584.727127	0.264750
584.938486	0.264924
585.149828	0.265296
585.361151	0.265556
585.572456	0.265665
585.783742	0.265635
585.995011	0.266013
586.206261	0.266043
586.417493	0.266079
586.628706	0.265947
586.839902	0.266123
587.051079	0.266075
587.262238	0.266355
587.473379	0.266670
587.684502	0.266684
587.895606	0.267122
588.106692	0.267775
588.317760	0.267665
588.528810	0.267883
588.739841	0.268071
588.950855	0.268381
589.161850	0.268663
589.372827	0.269109
589.583785	0.269748
589.794726	0.269868
590.005648	0.269973
590.216552	0.270586
590.427437	0.270689
590.638305	0.271236
590.849154	0.271618
591.059985	0.271744
591.270798	0.271532
591.481592	0.271728
591.692369	0.271834
591.903127	0.271474
592.113867	0.271667
592.324588	0.271552
592.535292	0.271414
592.745977	0.271578
592.956644	0.271539
593.167293	0.271922
593.377923	0.271762
593.588536	0.272019
593.799130	0.272481
594.009706	0.272557
594.220263	0.273024
594.430803	0.273504
594.641324	0.273484
594.851827	0.273685
595.062312	0.273856
595.272778	0.274382
595.483227	0.274212
595.693657	0.273943
595.904069	0.274018
596.114462	0.274423
596.324838	0.274676
596.535195	0.275069
596.745534	0.275536
596.955855	0.275591
597.166157	0.275872
597.376441	0.276169
597.586707	0.276708
597.796955	0.277380
598.007185	0.277471
598.217396	0.277667
598.427589	0.277358
598.637764	0.277284
598.847921	0.277672
599.058060	0.277517
599.268180	0.277543
599.478282	0.277724
599.688366	0.277515
599.898431	0.277529
600.108479	0.277315
600.318508	0.278054
600.528519	0.278360
600.738511	0.278679
600.948486	0.279033
601.158442	0.279379
601.368380	0.279658
601.578300	0.279957
601.788202	0.280372
601.998085	0.280917
602.207950	0.280961
602.417797	0.281164
602.627626	0.281009
602.837436	0.281213
603.047228	0.281481
603.257002	0.281753
603.466758	0.282017
603.676496	0.282139
603.886215	0.282178
604.095916	0.282248
604.305599	0.282566
604.515264	0.282941
604.724910	0.283212
604.934538	0.283368
605.144148	0.283119
605.353740	0.283047
605.563314	0.283180
605.772869	0.283118
605.982406	0.283296
606.191925	0.283509
606.401425	0.283466
606.610908	0.283526
606.820372	0.283435
607.029818	0.283930
607.239246	0.284473
607.448655	0.284575
607.658047	0.284478
607.867420	0.284572
608.076775	0.284306
608.286111	0.284779
608.495430	0.284755
608.704730	0.285394
608.914012	0.285369
609.123275	0.285489
609.332521	0.285463
609.541748	0.285756
609.750957	0.286266
609.960148	0.286726
610.169321	0.286844
610.378475	0.287325
610.587611	0.287402
610.796729	0.287679
611.005829	0.287669
611.214910	0.287928
611.423974	0.288483
611.633019	0.288694
611.842045	0.288755
612.051054	0.288862
612.260044	0.288956
612.469017	0.289182
612.677970	0.289342
612.886906	0.289831
613.095824	0.290301
613.304723	0.290094
613.513604	0.290201
613.722467	0.290624
613.931311	0.290775
614.140138	0.290951
614.348946	0.291106
614.557736	0.291300
614.766507	0.291169
614.975261	0.291009
615.183996	0.291227
615.392713	0.291097
615.601412	0.290958
615.810092	0.290972
616.018754	0.290874
616.227399	0.290761
616.436024	0.291029
616.644632	0.291085
616.853222	0.291100
617.061793	0.291645
617.270346	0.291817
617.478880	0.291853
617.687397	0.291935
617.895895	0.292421
618.104375	0.292500
618.312837	0.292795
618.521281	0.293184
618.729706	0.293577
618.938113	0.293322
619.146502	0.293598
619.354873	0.294057
619.563226	0.294360
619.771560	0.294313
619.979876	0.294485
620.188174	0.294238
620.396453	0.294277
620.604715	0.294601
620.812958	0.295032
621.021183	0.295113
621.229390	0.295368
621.437578	0.295685
621.645748	0.295777
621.853900	0.296172
622.062034	0.296606
622.270150	0.296661
622.478247	0.296658
622.686326	0.296725
622.894387	0.296921
623.102430	0.297028
623.310454	0.297147
623.518461	0.297702
623.726449	0.298110
623.934418	0.298434
624.142370	0.298841
624.350303	0.298976
624.558218	0.299169
624.766115	0.299627
624.973994	0.299869
625.181855	0.300094
625.389697	0.299894
625.597521	0.299615
625.805327	0.299497
626.013114	0.299484
626.220883	0.299580
626.428634	0.299805
626.636367	0.299614
626.844082	0.299569
627.051778	0.299472
627.259457	0.299768
627.467117	0.300199
627.674758	0.300256
627.882382	0.300355
628.089987	0.300502
628.297574	0.300699
628.505143	0.301053
628.712694	0.301081
628.920226	0.301445
629.127740	0.301887
629.335236	0.301863
629.542714	0.302287
629.750174	0.302363
629.957615	0.302710
630.165038	0.302785
630.372443	0.302751
630.579829	0.303264
630.787198	0.303598
630.994548	0.303412
631.201880	0.303680
631.409194	0.303691
631.616489	0.303819
631.823766	0.303931
632.031025	0.304092
632.238266	0.304453
632.445489	0.304241
632.652693	0.303952
632.859879	0.303900
633.067047	0.304114
633.274197	0.304346
633.481329	0.304735
633.688442	0.305108
633.895537	0.305314
634.102614	0.305394
634.309672	0.305976
634.516713	0.306391
634.723735	0.307055
634.930739	0.307237
635.137724	0.307567
635.344692	0.307675
635.551641	0.307601
635.758572	0.307976
635.965485	0.308131
636.172379	0.307837
636.379256	0.307858
636.586114	0.307836
636.792954	0.308216
636.999775	0.308564
637.206579	0.308635
637.413364	0.308638
637.620131	0.308383
637.826880	0.308640
638.033610	0.308956
638.240323	0.309332
638.447017	0.309416
638.653692	0.309238
638.860350	0.309243
639.066990	0.309473
639.273611	0.309807
639.480214	0.310274
639.686798	0.310530
639.893365	0.310859
640.099913	0.311005
640.306443	0.311296
640.512955	0.311639
640.719449	0.311839
640.925924	0.312251
641.132381	0.312581
641.338820	0.312826
641.545241	0.313040
641.751644	0.313157
641.958028	0.313551
642.164394	0.313846
642.370742	0.314153
642.577071	0.314262
642.783383	0.314296
642.989676	0.314443
643.195951	0.314744
643.402207	0.314707
643.608446	0.315063
643.814666	0.314880
644.020868	0.314790
644.227052	0.314677
644.433218	0.314517
644.639365	0.314845
644.845494	0.315149
645.051605	0.314953
645.257698	0.315272
645.463772	0.315258
645.669828	0.315385
645.875866	0.315718
646.081886	0.315721
646.287888	0.315754
646.493871	0.315937
646.699836	0.316030
646.905783	0.316250
647.111712	0.316422
647.317622	0.316605
647.523514	0.316932
647.729388	0.317124
647.935244	0.317650
648.141082	0.318348
648.346901	0.318279
648.552702	0.318641
648.758485	0.318952
648.964250	0.319202
649.169996	0.319526
649.375724	0.319864
649.581434	0.320168
649.787126	0.320236
649.992800	0.320546
650.198455	0.320853
650.404092	0.320838
650.609711	0.321232
650.815311	0.321301
651.020894	0.321393
651.226458	0.321507
651.432004	0.321568
651.637532	0.321994
651.843041	0.321732
652.048532	0.321913
652.254006	0.322042
652.459460	0.322053
652.664897	0.322052
652.870315	0.322020
653.075716	0.322224
653.281097	0.322643
653.486461	0.322627
653.691807	0.323206
653.897134	0.323351
654.102443	0.323903
654.307734	0.324014
654.513006	0.324636
654.718261	0.325443
654.923497	0.325688
655.128715	0.325639
655.333915	0.325836
655.539096	0.325771
655.744259	0.326471
655.949404	0.326468
656.154531	0.326616
656.359640	0.326639
656.564730	0.326625
656.769802	0.326854
656.974856	0.327174
657.179892	0.327307
657.384909	0.327413
657.589908	0.327060
657.794889	0.327322
657.999852	0.327675
658.204797	0.327790
658.409723	0.327873
658.614631	0.327852
658.819521	0.327775
659.024393	0.328148
659.229246	0.328405
659.434081	0.328876
659.638898	0.329054
659.843697	0.329220
660.048478	0.329596
660.253240	0.330006
660.457984	0.330563
660.662710	0.330992
660.867417	0.331344
661.072107	0.331515
661.276778	0.331634
661.481431	0.331853
661.686066	0.332180
661.890682	0.332159
662.095281	0.331970
662.299861	0.331790
662.504422	0.331916
662.708966	0.332000
662.913491	0.332496
663.117999	0.332686
663.322488	0.332868
663.526958	0.332912
663.731411	0.333370
663.935845	0.333920
664.140261	0.334383
664.344659	0.334510
664.549038	0.334571
664.753400	0.334839
664.957743	0.335319
665.162068	0.335633
665.366375	0.336005
665.570663	0.336131
665.774933	0.336107
665.979185	0.336218
666.183419	0.336398
666.387635	0.336901
666.591832	0.337180
666.796011	0.337253
667.000172	0.337313
667.204315	0.337310
667.408439	0.337537
667.612545	0.337802
667.816634	0.338311
668.020703	0.338518
668.224755	0.338727
668.428788	0.338847
668.632803	0.339101
668.836800	0.339267
669.040779	0.339935
669.244739	0.340081
669.448681	0.340394
669.652605	0.340534
669.856511	0.341027
670.060399	0.340980
670.264268	0.341022
670.468119	0.341005
670.671952	0.340960
670.875767	0.340625
671.079563	0.340874
671.283341	0.340961
671.487101	0.341128
671.690843	0.341217
671.894567	0.341560
672.098272	0.341812
672.301959	0.342025
672.505628	0.342597
672.709278	0.343487
672.912911	0.343808
673.116525	0.344101
673.320121	0.344267
673.523699	0.344537
673.727258	0.344914
673.930799	0.345249
674.134322	0.345832
674.337827	0.346022
674.541314	0.345761
674.744782	0.345922
674.948232	0.346019
675.151664	0.346098
675.355078	0.346035
675.558474	0.346039
675.761851	0.346255
675.965210	0.346277
676.168551	0.346445
676.371873	0.346849
676.575178	0.346913
676.778464	0.347272
676.981732	0.347505
677.184981	0.348170
677.388213	0.348651
677.591426	0.348967
677.794621	0.349010
677.997798	0.349234
678.200956	0.349164
678.404097	0.349417
678.607219	0.349762
678.810323	0.350021
679.013408	0.350146
679.216476	0.350205
679.419525	0.350022
679.622556	0.350180
679.825569	0.350402
680.028563	0.350706
680.231540	0.351064
680.434498	0.351015
680.637438	0.351196
680.840359	0.351184
681.043263	0.351216
681.246148	0.351650
681.449015	0.351948
681.651864	0.352305
681.854694	0.352665
682.057506	0.352681
682.260301	0.353184
682.463076	0.353504
682.665834	0.353715
682.868573	0.354075
683.071295	0.354339
683.273998	0.354599
683.476682	0.354849
683.679349	0.354871
683.881997	0.355054
684.084627	0.355025
684.287239	0.355084
684.489833	0.355418
684.692408	0.355714
684.894965	0.355692
685.097504	0.356013
685.300025	0.356044
685.502527	0.356485
685.705012	0.357001
685.907478	0.357364
686.109925	0.357613
686.312355	0.357891
686.514766	0.358037
686.717159	0.358196
686.919534	0.358296
687.121891	0.358510
687.324230	0.358807
687.526550	0.358773
687.728852	0.358760
687.931136	0.358947
688.133401	0.358900
688.335649	0.358962
688.537878	0.359022
688.740089	0.359302
688.942281	0.359265
689.144456	0.359085
689.346612	0.359427
689.548750	0.359841
689.750870	0.360225
689.952971	0.360602
690.155055	0.360996
690.357120	0.361667
690.559167	0.362008
690.761195	0.362221
690.963206	0.362559
691.165198	0.362834
691.367172	0.363035
691.569128	0.362833
691.771065	0.363173
691.972984	0.363141
692.174885	0.363096
692.376768	0.363063
692.578633	0.363544
692.780479	0.363689
692.982308	0.363791
693.184118	0.363855
693.385909	0.364236
693.587683	0.364184
693.789438	0.364507
693.991175	0.364630
694.192894	0.364873
694.394595	0.365186
694.596277	0.365430
694.797941	0.365427
694.999587	0.365759
695.201215	0.365727
695.402824	0.365800
695.604416	0.365883
695.805989	0.366035
696.007543	0.366018
696.209080	0.365899
696.410598	0.365909
696.612099	0.365999
696.813580	0.365967
697.015044	0.366138
697.216490	0.366636
697.417917	0.366831
697.619326	0.366873
697.820717	0.367245
698.022089	0.367398
698.223444	0.367584
698.424780	0.367860
698.626098	0.368191
698.827397	0.368450
699.028679	0.368396
699.229942	0.368347
699.431187	0.368565
699.632414	0.368529
699.833622	0.368634
700.034813	0.368918
700.235985	0.368852
700.437139	0.368889
700.638274	0.369035
700.839392	0.369114
701.040491	0.369558
701.241572	0.369778
701.442635	0.370025
701.643679	0.370251
701.844706	0.370369
702.045714	0.370622
702.246704	0.370824
702.447675	0.371039
702.648629	0.371229
702.849564	0.371043
703.050481	0.371257
703.251380	0.371368
703.452260	0.371154
703.653122	0.371180
703.853966	0.371254
704.054792	0.371296
704.255600	0.371341
704.456389	0.371415
704.657160	0.371639
704.857913	0.371741
705.058648	0.371762
705.259365	0.371923
705.460063	0.371627
705.660743	0.371688
705.861405	0.371506
706.062048	0.371338
706.262674	0.371385
706.463281	0.371353
706.663870	0.371176
706.864441	0.371137
707.064993	0.371042
707.265527	0.371295
707.466043	0.371571
707.666541	0.371795
707.867021	0.372287
708.067482	0.372525
708.267925	0.372483
708.468350	0.372613
708.668757	0.372651
708.869145	0.373019
709.069516	0.373325
709.269868	0.373405
709.470201	0.373579
709.670517	0.373446
709.870814	0.373363
710.071093	0.373599
710.271354	0.373859
710.471597	0.373921
710.671821	0.374186
710.872028	0.374054
711.072216	0.373950
711.272385	0.373830
711.472537	0.373722
711.672670	0.373705
711.872785	0.373697
712.072882	0.373663
712.272961	0.373670
712.473021	0.373599
712.673063	0.373510
712.873087	0.373504
713.073093	0.373501
713.273081	0.373755
713.473050	0.373608
713.673001	0.373861
713.872934	0.374052
714.072849	0.374407
714.272745	0.374602
714.472623	0.374944
714.672483	0.375160
714.872325	0.375383
715.072148	0.375407
715.271954	0.375544
715.471741	0.375356
715.671509	0.375104
715.871260	0.374895
716.070992	0.374459
716.270707	0.374436
716.470403	0.374152
716.670080	0.374190
716.869740	0.374106
717.069381	0.373932
717.269004	0.373863
717.468609	0.373746
717.668195	0.373733
717.867764	0.373790
718.067314	0.373552
718.266846	0.373680
718.466360	0.373266
718.665855	0.373372
718.865332	0.373327
719.064791	0.373138
719.264232	0.372973
719.463655	0.373041
719.663059	0.372926
719.862445	0.373001
720.061813	0.372686
720.261163	0.372741
720.460494	0.372717
720.659807	0.372979
720.859102	0.373239
721.058379	0.373415
721.257638	0.373034
721.456878	0.373104
721.656100	0.373028
721.855304	0.373353
722.054490	0.373242
722.253657	0.373023
722.452806	0.372806
722.651937	0.372690
722.851050	0.372808
723.050145	0.373077
723.249221	0.372904
723.448279	0.372958
723.647319	0.372920
723.846340	0.373153
724.045344	0.373117
724.244329	0.372800
724.443296	0.372708
724.642245	0.372534
724.841175	0.372235
725.040088	0.372244
725.238982	0.372056
725.437857	0.371956
725.636715	0.371644
725.835554	0.371345
726.034376	0.371533
726.233179	0.371535
726.431963	0.371500
726.630730	0.371574
726.829478	0.371630
727.028208	0.371428
727.226920	0.371058
727.425614	0.371201
727.624289	0.371230
727.822946	0.371379
728.021585	0.371164
728.220206	0.370914
728.418808	0.370691
728.617392	0.370501
728.815958	0.370499
729.014506	0.370340
729.213036	0.370274
729.411547	0.370085
729.610040	0.369945
729.808515	0.370035
730.006972	0.369825
730.205410	0.369742
730.403831	0.369897
730.602233	0.369850
730.800616	0.369697
730.998982	0.369469
731.197329	0.369505
731.395658	0.369308
731.593969	0.368803
731.792262	0.368864
731.990536	0.368801
732.188793	0.368715
732.387031	0.368548
732.585250	0.368857
732.783452	0.368502
732.981635	0.368230
733.179800	0.367715
733.377947	0.368011
733.576076	0.367731
733.774186	0.367659
733.972278	0.367142
734.170352	0.367066
734.368408	0.366579
734.566446	0.366304
734.764465	0.366182
734.962466	0.366061
735.160449	0.365662
735.358413	0.365468
735.556360	0.365195
735.754288	0.364809
735.952198	0.364420
736.150090	0.364216
736.347963	0.364193
736.545818	0.363899
736.743655	0.363868
736.941474	0.363617
737.139275	0.363485
737.337057	0.363270
737.534821	0.363155
737.732567	0.363086
737.930295	0.363177
738.128005	0.363235
738.325696	0.363424
738.523369	0.363352
738.721024	0.363091
738.918660	0.363088
739.116279	0.362786
739.313879	0.362804
739.511461	0.362691
739.709024	0.362392
739.906570	0.362253
740.104097	0.361868
740.301606	0.361705
740.499097	0.361748
740.696569	0.361531
740.894024	0.361600
741.091460	0.361470
741.288878	0.361332
741.486277	0.361136
741.683659	0.360830
741.881022	0.360766
742.078367	0.360582
742.275694	0.360389
742.473002	0.360197
742.670293	0.360117
742.867565	0.359863
743.064819	0.359546
743.262054	0.359475
743.459272	0.359408
743.656471	0.359382
743.853652	0.359395
744.050815	0.359030
744.247959	0.359129
744.445085	0.358711
744.642194	0.358660
744.839283	0.358446
745.036355	0.358382
745.233408	0.358337
745.430444	0.358034
745.627461	0.357569
745.824459	0.357851
746.021440	0.357804
746.218402	0.357620
746.415346	0.357521
746.612272	0.357402
746.809180	0.357310
747.006069	0.356953
747.202940	0.356852
747.399793	0.357050
747.596628	0.356907
747.793444	0.356278
747.990243	0.356254
748.187023	0.355957
748.383784	0.355781
748.580528	0.355152
748.777253	0.355031
748.973960	0.354409
749.170649	0.353652
749.367320	0.352900
749.563973	0.352829
749.760607	0.352756
749.957223	0.352527
750.153821	0.352425
750.350400	0.352463
750.546962	0.351913
750.743505	0.351952
750.940030	0.352065
751.136536	0.352296
751.333025	0.352437
751.529495	0.352109
751.725947	0.352066
751.922381	0.351901
752.118796	0.351912
752.315194	0.352057
752.511573	0.352023
752.707934	0.352184
752.904276	0.352126
753.100601	0.351516
753.296907	0.351222
753.493195	0.351108
753.689465	0.350904
753.885716	0.350575
754.081949	0.350438
754.278164	0.350317
754.474361	0.350106
754.670540	0.349643
754.866700	0.349764
755.062843	0.349657
755.258967	0.349355
755.455072	0.349222
755.651160	0.349077
755.847229	0.349021
756.043280	0.348852
756.239313	0.348478
756.435328	0.348727
756.631324	0.348427
756.827302	0.348519
757.023262	0.348682
757.219204	0.348842
757.415127	0.348799
757.611033	0.348352
757.806920	0.348132
758.002788	0.348135
758.198639	0.347577
758.394471	0.347414
758.590286	0.347327
758.786081	0.347037
758.981859	0.346522
759.177619	0.346242
759.373360	0.346368
759.569083	0.346267
759.764788	0.345859
759.960474	0.345992
760.156143	0.345953
760.351793	0.345581
760.547425	0.345135
760.743038	0.345073
760.938634	0.345049
761.134211	0.344833
761.329770	0.344717
761.525311	0.344850
761.720833	0.344547
761.916338	0.344413
762.111824	0.344427
762.307292	0.344830
762.502741	0.344911
762.698173	0.344596
762.893586	0.344335
763.088981	0.344155
763.284358	0.343995
763.479716	0.343571
763.675057	0.343285
763.870379	0.342904
764.065683	0.342589
764.260968	0.342215
764.456236	0.342040
764.651485	0.341969
764.846716	0.342122
765.041929	0.341864
765.237123	0.342038
765.432299	0.342263
765.627457	0.342158
765.822597	0.341816
766.017719	0.341952
766.212822	0.342051
766.407907	0.342345
766.602974	0.341903
766.798023	0.341668
766.993054	0.341594
767.188066	0.341198
767.383060	0.341278
767.578036	0.341354
767.772993	0.340903
767.967933	0.340710
768.162854	0.340349
768.357757	0.340095
768.552642	0.340153
768.747508	0.340163
768.942356	0.340145
769.137186	0.339979
769.331998	0.339724
769.526792	0.339628
769.721567	0.339313
769.916324	0.339236
770.111063	0.339326
770.305784	0.339188
770.500486	0.338802
770.695171	0.338646
770.889837	0.338530
771.084484	0.338556
771.279114	0.338452
771.473725	0.338735
771.668318	0.338320
771.862893	0.338154
772.057450	0.338061
772.251988	0.337944
772.446509	0.337772
772.641011	0.337417
772.835494	0.337166
773.029960	0.336942
773.224407	0.336830
773.418836	0.337048
773.613247	0.336804
773.807640	0.336742
774.002014	0.336832
774.196370	0.336867
774.390708	0.336886
774.585028	0.336750
774.779330	0.337240
774.973613	0.337014
775.167878	0.336658
775.362125	0.337036
775.556354	0.336752
775.750564	0.336538
775.944756	0.336081
776.138930	0.336266
776.333086	0.336202
776.527223	0.335490
776.721343	0.335138
776.915444	0.335109
777.109526	0.334671
777.303591	0.334718
777.497637	0.334627
777.691666	0.334992
777.885676	0.334914
778.079667	0.334738
778.273641	0.334994
778.467596	0.335141
778.661533	0.335101
778.855452	0.334897
779.049352	0.334847
779.243235	0.334768
779.437099	0.334879
779.630945	0.334894
779.824773	0.335196
780.018582	0.335440
780.212373	0.335661
780.406146	0.335667
780.599901	0.335942
780.793638	0.335914
780.987356	0.335835
781.181056	0.335626
781.374738	0.335432
781.568402	0.335457
781.762047	0.335321
781.955674	0.335369
782.149283	0.335382
782.342874	0.335403
782.536447	0.335560
782.730001	0.335866
782.923537	0.335802
783.117055	0.335951
783.310555	0.335857
783.504036	0.335704
783.697499	0.335459
783.890944	0.335390
784.084371	0.335464
784.277780	0.335625
784.471170	0.335382
784.664542	0.335346
784.857896	0.335207
785.051231	0.335117
785.244549	0.335232
785.437848	0.335129
785.631129	0.335439
785.824392	0.335263
786.017636	0.335117
786.210863	0.335140
786.404071	0.335189
786.597260	0.335174
786.790432	0.335330
786.983585	0.335380
787.176721	0.335661
787.369838	0.335404
787.562936	0.335532
787.756017	0.335451
787.949079	0.335394
788.142123	0.335338
788.335149	0.335242
788.528156	0.335306
788.721146	0.335220
788.914117	0.335289
789.107070	0.335099
789.300005	0.335032
789.492921	0.335094
789.685819	0.335180
789.878699	0.335481
790.071561	0.335665
790.264405	0.335639
790.457230	0.335568
790.650037	0.335288
790.842826	0.335649
791.035597	0.335813
791.228349	0.336000
791.421084	0.336307
791.613800	0.336306
791.806497	0.336320
791.999177	0.336392
792.191838	0.336625
792.384481	0.336713
792.577106	0.336835
792.769713	0.336792
792.962301	0.336855
793.154871	0.336740
793.347423	0.336788
793.539957	0.336852
793.732473	0.336781
793.924970	0.336896
794.117449	0.337079
794.309910	0.337034
794.502353	0.337335
794.694777	0.337360
794.887183	0.337607
795.079571	0.337669
795.271941	0.337616
795.464293	0.337658
795.656626	0.337639
795.848941	0.337599
796.041238	0.337690
796.233516	0.337518
796.425777	0.337406
796.618019	0.337312
796.810243	0.337492
797.002449	0.337783
797.194636	0.338085
797.386805	0.338146
797.578956	0.338196
797.771089	0.338256
797.963204	0.338305
798.155300	0.338380
798.347378	0.338355
798.539438	0.338405
798.731480	0.338483
798.923503	0.338428
799.115509	0.338591
799.307496	0.338843
799.499465	0.339315
799.691415	0.339783
799.883348	0.340070
800.075262	0.340419
800.267158	0.340283
800.459035	0.340611
800.650895	0.340581
800.842736	0.340756
801.034559	0.341153
801.226364	0.341044
801.418150	0.340826
801.609919	0.341299
801.801669	0.341657
801.993401	0.342058
802.185114	0.342058
802.376810	0.342682
802.568487	0.342721
802.760146	0.342612
802.951787	0.342708
803.143409	0.343102
803.335014	0.343083
803.526600	0.342989
803.718168	0.342957
803.909717	0.343183
804.101249	0.342955
804.292762	0.343345
804.484257	0.343536
804.675734	0.343675
804.867192	0.343730
805.058632	0.343651
805.250054	0.344203
805.441458	0.344791
805.632844	0.344938
805.824211	0.345294
806.015561	0.345519
806.206891	0.346004
806.398204	0.346325
806.589499	0.346932
806.780775	0.347141
806.972033	0.347181
807.163273	0.346981
807.354495	0.347037
807.545698	0.347000
807.736883	0.347203
807.928050	0.347184
808.119199	0.347652
808.310329	0.347503
808.501441	0.347972
808.692535	0.347978
808.883611	0.348356
809.074669	0.348826
809.265708	0.349208
809.456729	0.349284
809.647732	0.349742
809.838717	0.349617
810.029683	0.350094
810.220632	0.350400
810.411562	0.351000
810.602474	0.351090
810.793367	0.351339
810.984242	0.351713
811.175100	0.351561
811.365938	0.351730
811.556759	0.352154
811.747562	0.352331
811.938346	0.352684
812.129112	0.352735
812.319860	0.353165
812.510589	0.353550
812.701300	0.353917
812.891994	0.354473
813.082668	0.354613
813.273325	0.354996
813.463964	0.355556
813.654584	0.355381
813.845186	0.355564
814.035769	0.355726
814.226335	0.355754
814.416882	0.355781
814.607411	0.356182
814.797922	0.356588
814.988415	0.356787
815.178889	0.356964
815.369345	0.357501
815.559783	0.357812
815.750203	0.357761
815.940605	0.358179
816.130988	0.358419
816.321353	0.358626
816.511700	0.358911
816.702028	0.358722
816.892339	0.358428
817.082631	0.358625
817.272905	0.358876
817.463161	0.359426
817.653398	0.359559
817.843617	0.359966
818.033819	0.360246
818.224001	0.360258
818.414166	0.360762
818.604312	0.361306
818.794440	0.361347
818.984550	0.361619
819.174642	0.361932
819.364716	0.362383
819.554771	0.362675
819.744808	0.362963
819.934827	0.363006
820.124827	0.363249
820.314810	0.363436
820.504774	0.363884
820.694720	0.363929
820.884647	0.364018
821.074557	0.364147
821.264448	0.364376
821.454321	0.364390
821.644176	0.365141
821.834012	0.365647
822.023831	0.366081
822.213631	0.366348
822.403413	0.366611
822.593176	0.367158
822.782922	0.367467
822.972649	0.368033
823.162358	0.368708
823.352049	0.368792
823.541721	0.368850
823.731376	0.369258
823.921012	0.369619
824.110629	0.370182
824.300229	0.370331
824.489811	0.370699
824.679374	0.370871
824.868919	0.370922
825.058445	0.371316
825.247954	0.371735
825.437444	0.371975
825.626916	0.372114
825.816370	0.372041
826.005806	0.372552
826.195223	0.372712
826.384622	0.373249
826.574003	0.373821
826.763366	0.374095
826.952711	0.374118
827.142037	0.374474
827.331345	0.374830
827.520635	0.375390
827.709906	0.375382
827.899160	0.375802
828.088395	0.375724
828.277612	0.376010
828.466810	0.376797
828.655991	0.377397
828.845153	0.377630
829.034297	0.378209
829.223423	0.378527
829.412531	0.379311
829.601620	0.379481
829.790691	0.379868
829.979744	0.380261
830.168779	0.380250
830.357795	0.380674
830.546793	0.381097
830.735773	0.381359
830.924735	0.381672
831.113679	0.381823
831.302604	0.382449
831.491511	0.382958
831.680400	0.383073
831.869271	0.383495
832.058123	0.384021
832.246957	0.384444
832.435773	0.384679
832.624571	0.385201
832.813351	0.385718
833.002112	0.385948
833.190855	0.386372
833.379580	0.387067
833.568287	0.387438
833.756975	0.387642
833.945645	0.387872
834.134297	0.388229
834.322931	0.388666
834.511547	0.388779
834.700144	0.389041
834.888723	0.389169
835.077284	0.389368
835.265826	0.389546
835.454351	0.390271
835.642857	0.390498
835.831345	0.391242
836.019815	0.391615
836.208266	0.392432
836.396699	0.393013
836.585114	0.393844
836.773511	0.394169
836.961890	0.394731
837.150250	0.394803
837.338592	0.395340
837.526916	0.395425
837.715222	0.396142
837.903510	0.396373
838.091779	0.397022
838.280030	0.397183
838.468263	0.397512
838.656477	0.397982
838.844674	0.398435
839.032852	0.398747
839.221012	0.399433
839.409153	0.399844
839.597277	0.400189
839.785382	0.400234
839.973469	0.400610
840.161538	0.401258
840.349589	0.401614
840.537621	0.402041
840.725635	0.402626
840.913631	0.402820
841.101609	0.402655
841.289568	0.403201
841.477509	0.403565
841.665432	0.403631
841.853337	0.404245
842.041224	0.404538
842.229092	0.404694
842.416942	0.405143
842.604774	0.405477
842.792588	0.406061
842.980383	0.406299
843.168160	0.406799
843.355919	0.407663
843.543660	0.407737
843.731382	0.408191
843.919087	0.408988
844.106773	0.409621
844.294441	0.410017
844.482090	0.410379
844.669722	0.410782
844.857335	0.411291
845.044930	0.411334
845.232507	0.411895
845.420065	0.413173
845.607605	0.413398
845.795127	0.413510
845.982631	0.414155
846.170117	0.414794
846.357584	0.415269
846.545033	0.416073
846.732464	0.416796
846.919877	0.417048
847.107272	0.416756
847.294648	0.417143
847.482006	0.417061
847.669346	0.417725
847.856667	0.418397
848.043971	0.418995
848.231256	0.419107
848.418523	0.419418
848.605771	0.419944
848.793002	0.420056
848.980214	0.420533
849.167408	0.421214
849.354584	0.421525
849.541742	0.421928
849.728881	0.422292
849.916002	0.422533
850.103105	0.423062
850.290190	0.423472
850.477256	0.423413
850.664304	0.423956
850.851334	0.424548
851.038346	0.424997
851.225340	0.425296
851.412315	0.425797
851.599272	0.426497
851.786211	0.426530
851.973132	0.426801
852.160034	0.427727
852.346918	0.428172
852.533784	0.428340
852.720632	0.428698
852.907462	0.428731
853.094273	0.428851
853.281066	0.429038
853.467841	0.429647
853.654598	0.430297
853.841336	0.431100
854.028056	0.430917
854.214758	0.431823
854.401442	0.431960
854.588107	0.432432
854.774755	0.433091
854.961384	0.433607
855.147995	0.434408
855.334587	0.434848
855.521162	0.435265
855.707718	0.436243
855.894256	0.436270
856.080775	0.436774
856.267277	0.437449
856.453760	0.437546
856.640225	0.438113
856.826672	0.438026
857.013101	0.438389
857.199511	0.438716
857.385903	0.439114
857.572277	0.439707
857.758633	0.439889
857.944970	0.440240
858.131290	0.440647
858.317591	0.440736
858.503873	0.441565
858.690138	0.442019
858.876384	0.442467
859.062612	0.442810
859.248822	0.443034
859.435014	0.443458
859.621188	0.443704
859.807343	0.444091
859.993480	0.444510
860.179599	0.444768
860.365699	0.444886
860.551781	0.445215
860.737846	0.445732
860.923891	0.446396
861.109919	0.446955
861.295929	0.447484
861.481920	0.448325
861.667893	0.448700
861.853848	0.448646
862.039784	0.449179
862.225702	0.449341
862.411603	0.449542
862.597484	0.449456
862.783348	0.450196
862.969193	0.450223
863.155021	0.450288
863.340830	0.450762
863.526620	0.451415
863.712393	0.451809
863.898147	0.452498
864.083883	0.453075
864.269601	0.453792
864.455301	0.453977
864.640982	0.454373
864.826645	0.454797
865.012290	0.454778
865.197917	0.455058
865.383526	0.455703
865.569116	0.455871
865.754688	0.456221
865.940242	0.456728
866.125777	0.456968
866.311295	0.456854
866.496794	0.456989
866.682275	0.457019
866.867737	0.457298
867.053182	0.456826
867.238608	0.457309
867.424016	0.457211
867.609406	0.457431
867.794778	0.457380
867.980131	0.458164
868.165466	0.458387
868.350783	0.459016
868.536082	0.459396
868.721362	0.459915
868.906625	0.459473
869.091869	0.459908
869.277094	0.459959
869.462302	0.460102
869.647491	0.460367
869.832662	0.460933
870.017815	0.461650
870.202950	0.461594
870.388066	0.462236
870.573165	0.462736
870.758245	0.462775
870.943306	0.463022
871.128350	0.463626
871.313375	0.464052
871.498382	0.464013
871.683371	0.464097
871.868342	0.464279
872.053294	0.464078
872.238229	0.464236
872.423144	0.464868
872.608042	0.464952
872.792922	0.465000
872.977783	0.465106
873.162626	0.465356
873.347451	0.465226
873.532258	0.465971
873.717046	0.466327
873.901816	0.466694
874.086568	0.466454
874.271302	0.467028
874.456017	0.467169
874.640715	0.467390
874.825394	0.467365
875.010055	0.467647
875.194697	0.467270
875.379322	0.467382
875.563928	0.467615
875.748516	0.467844
875.933085	0.467657
876.117637	0.467811
876.302170	0.468423
876.486685	0.468465
876.671182	0.468162
876.855661	0.468740
877.040121	0.468736
877.224563	0.469194
877.408987	0.469698
877.593393	0.470424
877.777780	0.470760
877.962150	0.470201
878.146501	0.470648
878.330833	0.471301
878.515148	0.471654
878.699444	0.472013
878.883722	0.472342
879.067982	0.472296
879.252224	0.472003
879.436447	0.472067
879.620653	0.472847
879.804840	0.473180
879.989008	0.473459
880.173159	0.473473
880.357291	0.473686
880.541405	0.473345
880.725501	0.473199
880.909579	0.473283
881.093638	0.473526
881.277680	0.473619
881.461703	0.473715
881.645707	0.473786
881.829694	0.473960
882.013662	0.474143
882.197612	0.474639
882.381544	0.475069
882.565458	0.475093
882.749353	0.475236
882.933230	0.475046
883.117089	0.474961
883.300930	0.475052
883.484753	0.474752
883.668557	0.474353
883.852343	0.473599
884.036111	0.473054
884.219861	0.473323
884.403592	0.473132
884.587305	0.473589
884.771000	0.473605
884.954677	0.473849
885.138335	0.474111
885.321976	0.474492
885.505598	0.474907
885.689201	0.475765
885.872787	0.475478
886.056354	0.475953
886.239904	0.476080
886.423434	0.476678
886.606947	0.476469
886.790442	0.476440
886.973918	0.476712
887.157376	0.476705
887.340816	0.476300
887.524237	0.476679
887.707641	0.476660
887.891026	0.476187
888.074393	0.475708
888.257741	0.476209
888.441072	0.476457
888.624384	0.476242
888.807678	0.476406
888.990954	0.476708
889.174211	0.476970
889.357451	0.476850
889.540672	0.476637
889.723875	0.476246
889.907059	0.475598
890.090226	0.475390
890.273374	0.475529
890.456504	0.475822
890.639616	0.475499
890.822709	0.474675
891.005785	0.474377
891.188842	0.474584
891.371881	0.475304
891.554901	0.475302
891.737904	0.475414
891.920888	0.474964
892.103854	0.474671
892.286802	0.474958
892.469731	0.475199
892.652643	0.475246
892.835536	0.475419
893.018410	0.474894
893.201267	0.475138
893.384106	0.474455
893.566926	0.474446
893.749728	0.474022
893.932511	0.473282
894.115277	0.472752
894.298024	0.472191
894.480753	0.471987
894.663464	0.472038
894.846157	0.471660
895.028831	0.471710
895.211487	0.472205
895.394125	0.471663
895.576745	0.471360
895.759346	0.472054
895.941930	0.472103
896.124495	0.471486
896.307041	0.471135
896.489570	0.471188
896.672080	0.471036
896.854573	0.470743
897.037046	0.471456
897.219502	0.471731
897.401940	0.470645
897.584359	0.470457
897.766760	0.470375
897.949143	0.470194
898.131507	0.469917
898.313854	0.469612
898.496182	0.469881
898.678492	0.469120
898.860783	0.468709
899.043057	0.468852
899.225312	0.468802
899.407549	0.468176
899.589768	0.468039
899.771968	0.467639
899.954151	0.467590
900.136315	0.466446
900.318461	0.466181
900.500588	0.465666
900.682698	0.465559
900.864789	0.465154
901.046862	0.465684
901.228917	0.465377
901.410953	0.464972
901.592971	0.464502
901.774972	0.463546
901.956953	0.463005
902.138917	0.463117
902.320862	0.462990
902.502790	0.463101
902.684699	0.461784
902.866589	0.461482
903.048462	0.461161
903.230316	0.461151
903.412152	0.461412
903.593970	0.461281
903.775770	0.461092
903.957551	0.460615
904.139314	0.459646
904.321059	0.459981
904.502786	0.459260
904.684494	0.458833
904.866185	0.458720
905.047857	0.458062
905.229510	0.457515
905.411146	0.456775
905.592763	0.455666
905.774363	0.455584
905.955943	0.454929
906.137506	0.454382
906.319051	0.453674
906.500577	0.452808
906.682085	0.452512
906.863575	0.452151
907.045046	0.452408
907.226500	0.452208
907.407935	0.451393
907.589352	0.451641
907.770750	0.451447
907.952131	0.451211
908.133493	0.450669
908.314837	0.450376
908.496163	0.450174
908.677470	0.449190
908.858760	0.448872
909.040031	0.448340
909.221284	0.447314
909.402518	0.446726
909.583735	0.445935
909.764933	0.445429
909.946113	0.444834
910.127275	0.444279
910.308418	0.443825
910.489544	0.443618
910.670651	0.443652
910.851740	0.442972
911.032810	0.442897
911.213863	0.443482
911.394897	0.442776
911.575913	0.442194
911.756911	0.441911
911.937890	0.441549
912.118851	0.440941
912.299794	0.440387
912.480719	0.440039
912.661626	0.438962
912.842514	0.437670
913.023384	0.437686
913.204236	0.437514
913.385070	0.437227
913.565886	0.436267
913.746683	0.435592
913.927462	0.435055
914.108223	0.434472
914.288965	0.433794
914.469690	0.433028
914.650396	0.432190
914.831084	0.431149
915.011754	0.429383
915.192405	0.429283
915.373038	0.428787
915.553653	0.427825
915.734250	0.427079
915.914829	0.426992
916.095389	0.426445
916.275931	0.425779
916.456455	0.425121
916.636961	0.424908
916.817448	0.424007
916.997917	0.423343
917.178368	0.423073
917.358801	0.422193
917.539216	0.420933
917.719612	0.420402
917.899990	0.419257
918.080350	0.419024
918.260692	0.418608
918.441015	0.417638
918.621320	0.416492
918.801607	0.415033
918.981876	0.414778
919.162127	0.414312
919.342359	0.413474
919.522573	0.413175
919.702769	0.412225
919.882947	0.410947
920.063106	0.411038
920.243247	0.411080
920.423370	0.410484
920.603475	0.409458
920.783562	0.408057
920.963630	0.407189
921.143680	0.406456
921.323712	0.405086
921.503725	0.404008
921.683721	0.403016
921.863698	0.401313
922.043657	0.400897
922.223598	0.400234
922.403520	0.399725
922.583424	0.399222
922.763311	0.398700
922.943178	0.398771
923.123028	0.399152
923.302859	0.397601
923.482673	0.396651
923.662467	0.395921
923.842244	0.395041
924.022003	0.394795
924.201743	0.394014
924.381465	0.392989
924.561169	0.392384
924.740854	0.390785
924.920522	0.390371
925.100171	0.390663
925.279802	0.389546
925.459414	0.388526
925.639009	0.387386
925.818585	0.386353
925.998143	0.385340
926.177683	0.383721
926.357205	0.383966
926.536708	0.382301
926.716193	0.380630
926.895660	0.379965
927.075109	0.379251
927.254539	0.378621
927.433951	0.377406
927.613345	0.377612
927.792721	0.376338
927.972079	0.374535
928.151418	0.374108
928.330739	0.373350
928.510042	0.372577
928.689327	0.371556
928.868593	0.370418
929.047841	0.369931
929.227071	0.367052
929.406283	0.366748
929.585476	0.365856
929.764652	0.364362
929.943809	0.363656
930.122948	0.362750
930.302068	0.361674
930.481171	0.360737
930.660255	0.359421
930.839321	0.359494
931.018369	0.357925
931.197398	0.356898
931.376409	0.356866
931.555402	0.356440
931.734377	0.354493
931.913334	0.353281
932.092272	0.352092
932.271192	0.352666
932.450094	0.351304
932.628978	0.349764
932.807844	0.348731
932.986691	0.347991
933.165520	0.346735
933.344331	0.346430
933.523123	0.346287
933.701898	0.346344
933.880654	0.343820
934.059392	0.342717
934.238111	0.343335
934.416813	0.342681
934.595496	0.340844
934.774161	0.339264
934.952808	0.338257
935.131437	0.336552
935.310047	0.334754
935.488639	0.334445
935.667213	0.333616
935.845769	0.332112
936.024306	0.331546
936.202825	0.330293
936.381326	0.329546
936.559809	0.328379
936.738274	0.326564
936.916720	0.326210
937.095148	0.324186
937.273558	0.322400
937.451950	0.321259
937.630323	0.319396
937.808678	0.318742
937.987015	0.317296
938.165334	0.316667
938.343635	0.316892
938.521917	0.315032
938.700181	0.313821
938.878427	0.313754
939.056655	0.312684
939.234864	0.311899
939.413055	0.311185
939.591228	0.310587
939.769383	0.309695
939.947519	0.308865
940.125638	0.307819
940.303738	0.306852
940.481820	0.305148
940.659883	0.304282
940.837929	0.303105
941.015956	0.300861
941.193965	0.299788
941.371955	0.297165
941.549928	0.295949
941.727882	0.293970
941.905818	0.292225
942.083736	0.292120
942.261636	0.290106
942.439517	0.288833
942.617380	0.288096
942.795225	0.286052
942.973052	0.285599
943.150860	0.285147
943.328651	0.284945
943.506423	0.285539
943.684176	0.283978
943.861912	0.283109
944.039629	0.282200
944.217328	0.281751
944.395009	0.281487
944.572672	0.279977
944.750317	0.277331
944.927943	0.275861
945.105551	0.274296
945.283141	0.272483
945.460712	0.271967
945.638265	0.270031
945.815801	0.267005
945.993317	0.264720
946.170816	0.263877
946.348297	0.261625
946.525759	0.261401
946.703203	0.259359
946.880629	0.259114
947.058036	0.257644
947.235425	0.255852
947.412797	0.255646
947.590149	0.255664
947.767484	0.254030
947.944800	0.255094
948.122099	0.253003
948.299379	0.252499
948.476640	0.249840
948.653884	0.248434
948.831109	0.248388
949.008316	0.248949
949.185505	0.246529
949.362676	0.246031
949.539828	0.243467
949.716962	0.241085
949.894078	0.239121
950.071176	0.239397
950.248256	0.238726
950.425317	0.236819
950.602360	0.234669
950.779385	0.233601
950.956391	0.232357
951.133380	0.231846
951.310350	0.230952
951.487302	0.231742
951.664235	0.228637
951.841151	0.224184
952.018048	0.222301
952.194927	0.220165
952.371788	0.218322
952.548631	0.216795
952.725455	0.214755
952.902261	0.215083
953.079049	0.213105
953.255819	0.213759
953.432570	0.215369
953.609303	0.214330
953.786018	0.213624
953.962715	0.212922
954.139394	0.210567
954.316054	0.207075
954.492696	0.205704
954.669320	0.205850
954.845926	0.203411
955.022513	0.201512
955.199083	0.202851
955.375634	0.203556
955.552166	0.203673
955.728681	0.203864
955.905177	0.206690
956.081655	0.207325
956.258115	0.205601
956.434557	0.205073
956.610980	0.204154
956.787385	0.202166
956.963772	0.200456
957.140141	0.198559
957.316492	0.199131
957.492824	0.197682
957.669138	0.193905
957.845434	0.191062
958.021712	0.190657
958.197971	0.190029
958.374212	0.189550
958.550435	0.189433
958.726640	0.191237
958.902826	0.190088
959.078995	0.189509
959.255145	0.190108
959.431277	0.190387
959.607390	0.189709
959.783486	0.188448
959.959563	0.187854
960.135622	0.186458
960.311662	0.184448
960.487685	0.182748
960.663689	0.180736
960.839675	0.181561
961.015643	0.181360
961.191593	0.179607
961.367524	0.180443
961.543437	0.180040
961.719332	0.178504
961.895209	0.176948
962.071067	0.178861
962.246907	0.179139
962.422730	0.177251
962.598533	0.175928
962.774319	0.175705
962.950086	0.175387
963.125835	0.173371
963.301566	0.172564
963.477279	0.171162
963.652973	0.168472
963.828650	0.167591
964.004308	0.168765
964.179947	0.167797
964.355569	0.170840
964.531172	0.173177
964.706757	0.174155
964.882324	0.175923
965.057873	0.177413
965.233403	0.175457
965.408916	0.175087
965.584410	0.172632
965.759885	0.175818
965.935343	0.174715
966.110782	0.172761
966.286203	0.170573
966.461606	0.168576
966.636991	0.168748
966.812357	0.168350
966.987705	0.169058
967.163035	0.169818
967.338347	0.167890
967.513641	0.166188
967.688916	0.164460
967.864173	0.164981
968.039412	0.167342
968.214632	0.165043
968.389835	0.167159
968.565019	0.166828
968.740185	0.166165
968.915333	0.165144
969.090462	0.165498
969.265573	0.166089
969.440667	0.165919
969.615741	0.163985
969.790798	0.165603
969.965836	0.165772
970.140856	0.164974
970.315858	0.164166
970.490842	0.165301
970.665808	0.165191
970.840755	0.163630
971.015684	0.165759
971.190595	0.166927
971.365487	0.165859
971.540362	0.164315
971.715218	0.167678
971.890056	0.170824
972.064875	0.169787
972.239677	0.168760
972.414460	0.172926
972.589225	0.172215
972.763972	0.171090
972.938700	0.173252
973.113411	0.174079
973.288103	0.171911
973.462777	0.169514
973.637432	0.170915
973.812070	0.171706
973.986689	0.170004
974.161290	0.169579
974.335873	0.170971
974.510437	0.171278
974.684984	0.171190
974.859512	0.171216
975.034022	0.172338
975.208513	0.170515
975.382987	0.169873
975.557442	0.167544
975.731879	0.167986
975.906298	0.167103
976.080698	0.168011
976.255080	0.167803
976.429445	0.166980
976.603790	0.164056
976.778118	0.165826
976.952427	0.168110
977.126719	0.172426
977.300992	0.172292
977.475246	0.172982
977.649483	0.171319
977.823701	0.172635
977.997901	0.173754
978.172083	0.175638
978.346247	0.173931
978.520392	0.173188
978.694519	0.170251
978.868628	0.169498
979.042719	0.167914
979.216791	0.166825
979.390845	0.164605
979.564882	0.165066
979.738899	0.165089
979.912899	0.165923
980.086880	0.166636
980.260843	0.168522
980.434788	0.169078
980.608715	0.170844
980.782623	0.171399
980.956514	0.172345
981.130386	0.170039
981.304240	0.172937
981.478075	0.173191
981.651892	0.170185
981.825692	0.167174
981.999472	0.165990
982.173235	0.165663
982.346980	0.168049
982.520706	0.168038
982.694414	0.169678
982.868104	0.167321
983.041775	0.166374
983.215428	0.169020
983.389064	0.170607
983.562680	0.171333
983.736279	0.170102
983.909860	0.166982
984.083422	0.167626
984.256966	0.167831
984.430491	0.167240
984.603999	0.166653
984.777488	0.164703
984.950959	0.165505
985.124412	0.166111
985.297847	0.167033
985.471263	0.166711
985.644661	0.165780
985.818041	0.164504
985.991403	0.164969
986.164747	0.166083
986.338072	0.167693
986.511379	0.167736
986.684668	0.167759
986.857938	0.167995
987.031191	0.167538
987.204425	0.168829
987.377641	0.169325
987.550839	0.167267
987.724018	0.166178
987.897179	0.166236
988.070322	0.165574
988.243447	0.165479
988.416554	0.164222
988.589642	0.164748
988.762712	0.164079
988.935764	0.164747
989.108798	0.166059
989.281813	0.166054
989.454811	0.165868
989.627790	0.166591
989.800751	0.164289
989.973693	0.165168
990.146617	0.164523
990.319524	0.163228
990.492412	0.161765
990.665281	0.162534
990.838133	0.162630
991.010966	0.161989
991.183781	0.161677
991.356578	0.163078
991.529356	0.162391
991.702117	0.164681
991.874859	0.166811
992.047583	0.167484
992.220288	0.167033
992.392976	0.169248
992.565645	0.167650
992.738296	0.166943
992.910929	0.166655
993.083543	0.167901
993.256139	0.166541
993.428718	0.166341
993.601277	0.167822
993.773819	0.166021
993.946342	0.164820
994.118848	0.165603
994.291335	0.167408
994.463803	0.168459
994.636254	0.167472
994.808686	0.168500
994.981100	0.169933
995.153496	0.169785
995.325874	0.170692
995.498233	0.168924
995.670574	0.170032
995.842897	0.169210
996.015202	0.168336
996.187488	0.168284
996.359757	0.168607
996.532007	0.165492
996.704239	0.164288
996.876452	0.165832
997.048648	0.168753
997.220825	0.168466
997.392984	0.166959
997.565124	0.168209
997.737247	0.165604
997.909351	0.163916
998.081437	0.165485
998.253505	0.165871
998.425554	0.166030
998.597586	0.164135
998.769599	0.164426
998.941594	0.165734
999.113571	0.165921
999.285529	0.167050
999.457469	0.168309
999.629391	0.168166
999.801295	0.166252
999.973181	0.164320
1000.145048	0.164893
1000.316897	0.164753
1000.488728	0.165531
1000.660541	0.165102
1000.832335	0.166957
1001.004111	0.167371
1001.175869	0.168248
1001.347609	0.169530
1001.519331	0.171614
1001.691034	0.169787
1001.862719	0.169984
1002.034386	0.168052
1002.206035	0.167766
1002.377665	0.167403
1002.549277	0.165688
1002.720871	0.163170
1002.892447	0.165240
1003.064004	0.164359
1003.235544	0.165837
1003.407065	0.166923
1003.578568	0.169161
1003.750052	0.168222
1003.921519	0.170244
1004.092967	0.171388
1004.264397	0.172702
1004.435809	0.170441
1004.607202	0.170110
1004.778577	0.170827
1004.949934	0.168944
1005.121273	0.167211
1005.292594	0.167162
1005.463896	0.165398
1005.635180	0.164935
1005.806446	0.164160
1005.977694	0.166433
1006.148923	0.166772
1006.320135	0.166474
1006.491328	0.167566
1006.662503	0.169153
1006.833659	0.169017
1007.004798	0.167957
1007.175918	0.167898
1007.347020	0.167769
1007.518103	0.165551
1007.689169	0.165953
1007.860216	0.165696
1008.031245	0.166397
1008.202256	0.163291
1008.373248	0.165634
1008.544223	0.164702
1008.715179	0.165855
1008.886117	0.166012
1009.057036	0.166049
1009.227938	0.166657
1009.398821	0.167629
1009.569686	0.167762
1009.740533	0.170816
1009.911361	0.168455
1010.082172	0.169627
1010.252964	0.169492
1010.423738	0.172067
1010.594493	0.173264
1010.765231	0.172886
1010.935950	0.172399
1011.106651	0.170894
1011.277334	0.170689
1011.447998	0.171339
1011.618645	0.171425
1011.789273	0.171718
1011.959882	0.171595
1012.130474	0.171319
1012.301048	0.170654
1012.471603	0.170474
1012.642140	0.172427
1012.812658	0.172926
1012.983159	0.173127
1013.153641	0.173390
1013.324105	0.173056
1013.494551	0.171695
1013.664979	0.171110
1013.835388	0.169765
1014.005779	0.169291
1014.176152	0.167299
1014.346507	0.166245
1014.516843	0.166302
1014.687162	0.167049
1014.857462	0.166216
1015.027744	0.165545
1015.198007	0.166141
1015.368252	0.167185
1015.538480	0.168045
1015.708689	0.167967
1015.878879	0.168662
1016.049052	0.169134
1016.219206	0.168561
1016.389342	0.169431
1016.559460	0.171319
1016.729559	0.171247
1016.899641	0.171012
1017.069704	0.170809
1017.239749	0.170131
1017.409775	0.168459
1017.579784	0.166768
1017.749774	0.167069
1017.919746	0.166606
1018.089700	0.165605
1018.259635	0.165159
1018.429553	0.168001
1018.599452	0.167525
1018.769333	0.165604
1018.939195	0.166504
1019.109040	0.168352
1019.278866	0.167383
1019.448674	0.166615
1019.618464	0.166056
1019.788235	0.165747
1019.957989	0.162808
1020.127724	0.164484
1020.297441	0.165928
1020.467139	0.165068
1020.636820	0.164452
1020.806482	0.166575
1020.976126	0.166630
1021.145752	0.165988
1021.315359	0.167555
1021.484948	0.166397
1021.654519	0.164870
1021.824072	0.166676
1021.993607	0.167268
1022.163123	0.168033
1022.332621	0.166311
1022.502101	0.166451
1022.671563	0.168742
1022.841007	0.167612
1023.010432	0.169511
1023.179839	0.170232
1023.349228	0.171017
1023.518598	0.170384
1023.687951	0.168322
1023.857285	0.167838
1024.026601	0.168495
1024.195899	0.167521
1024.365178	0.167231
1024.534439	0.167951
1024.703682	0.167683
1024.872907	0.165130
1025.042114	0.164751
1025.211302	0.166143
1025.380472	0.165711
1025.549624	0.166230
1025.718758	0.164846
1025.887873	0.164672
1026.056970	0.162694
1026.226049	0.162739
1026.395110	0.163176
1026.564153	0.162544
1026.733177	0.162493
1026.902183	0.163959
1027.071171	0.164195
1027.240141	0.165867
1027.409092	0.166508
1027.578026	0.167006
1027.746940	0.167613
1027.915837	0.166375
1028.084716	0.165743
1028.253576	0.165541
1028.422418	0.165437
1028.591242	0.164954
1028.760048	0.164395
1028.928835	0.163857
1029.097604	0.165223
1029.266355	0.164409
1029.435088	0.165985
1029.603803	0.167156
1029.772499	0.166656
1029.941177	0.166603
1030.109837	0.166537
1030.278478	0.166908
1030.447102	0.165802
1030.615707	0.163400
1030.784294	0.164849
1030.952863	0.165279
1031.121413	0.164997
1031.289945	0.165659
1031.458460	0.166056
1031.626955	0.166456
1031.795433	0.165883
1031.963892	0.165859
1032.132334	0.167132
1032.300756	0.165469
1032.469161	0.165282
1032.637548	0.164906
1032.805916	0.163142
1032.974266	0.160711
1033.142598	0.159621
1033.310911	0.159835
1033.479207	0.160043
1033.647484	0.160775
1033.815743	0.160094
1033.983983	0.158453
1034.152206	0.161264
1034.320410	0.162704
1034.488596	0.165000
1034.656764	0.166428
1034.824914	0.165151
1034.993045	0.165862
1035.161158	0.164854
1035.329253	0.166311
1035.497330	0.168887
1035.665388	0.167488
1035.833428	0.166860
1036.001450	0.166175
1036.169454	0.164904
1036.337440	0.165910
1036.505407	0.166154
1036.673356	0.166277
1036.841287	0.164557
1037.009200	0.163663
1037.177094	0.163940
1037.344970	0.166191
1037.512828	0.166284
1037.680668	0.166005
1037.848489	0.167119
1038.016293	0.167893
1038.184078	0.168022
1038.351845	0.170211
1038.519593	0.170962
1038.687324	0.170738
1038.855036	0.169036
1039.022730	0.168714
1039.190406	0.170260
1039.358063	0.169259
1039.525702	0.168978
1039.693323	0.169217
1039.860926	0.167652
1040.028511	0.166865
1040.196077	0.166350
1040.363625	0.166862
1040.531155	0.167270
1040.698667	0.164938
1040.866161	0.164393
1041.033636	0.163332
1041.201093	0.164211
1041.368532	0.164388
1041.535952	0.164075
1041.703355	0.164546
1041.870739	0.164201
1042.038105	0.162163
1042.205452	0.162373
1042.372782	0.162886
1042.540093	0.164254
1042.707386	0.162615
1042.874661	0.161185
1043.041918	0.159847
1043.209156	0.160346
1043.376376	0.159342
1043.543578	0.160741
1043.710762	0.161805
1043.877927	0.162138
1044.045074	0.161454
1044.212203	0.162635
1044.379314	0.163791
1044.546407	0.165367
1044.713481	0.164024
1044.880537	0.164849
1045.047575	0.165779
1045.214595	0.165555
1045.381596	0.164768
1045.548579	0.164947
1045.715544	0.165206
1045.882491	0.164294
1046.049420	0.163227
1046.216330	0.161477
1046.383222	0.161942
1046.550096	0.160150
1046.716951	0.159210
1046.883789	0.160409
1047.050608	0.158415
1047.217409	0.157393
1047.384192	0.158669
1047.550956	0.159284
1047.717703	0.162606
1047.884431	0.163466
1048.051140	0.165070
1048.217832	0.165313
1048.384505	0.162976
1048.551161	0.163119
1048.717798	0.163097
1048.884416	0.163912
1049.051017	0.163856
1049.217599	0.161582
1049.384163	0.160432
1049.550709	0.161160
1049.717237	0.161417
1049.883746	0.162298
1050.050237	0.164522
1050.216710	0.164841
1050.383165	0.162905
1050.549601	0.162732
1050.716019	0.163629
1050.882420	0.164141
1051.048801	0.161622
1051.215165	0.162392
1051.381510	0.162614
1051.547837	0.162381
1051.714146	0.162543
1051.880437	0.161351
1052.046709	0.162853
1052.212964	0.164955
1052.379200	0.164438
1052.545417	0.166738
1052.711617	0.166012
1052.877798	0.165430
1053.043961	0.165663
1053.210106	0.166610
1053.376233	0.169914
1053.542341	0.171082
1053.708432	0.170068
1053.874504	0.169130
1054.040557	0.167992
1054.206593	0.167714
1054.372610	0.167146
1054.538609	0.166339
1054.704590	0.164298
1054.870553	0.162859
1055.036497	0.161237
1055.202424	0.160118
1055.368331	0.161082
1055.534221	0.161532
1055.700093	0.162284
1055.865946	0.163421
1056.031781	0.163893
1056.197598	0.163745
1056.363397	0.163398
1056.529177	0.163817
1056.694939	0.163920
1056.860683	0.165834
1057.026409	0.164952
1057.192116	0.164931
1057.357806	0.167542
1057.523477	0.167496
1057.689130	0.169078
1057.854764	0.169937
1058.020381	0.170196
1058.185979	0.170762
1058.351559	0.170090
1058.517120	0.172240
1058.682664	0.170547
1058.848189	0.167460
1059.013696	0.164726
1059.179185	0.164153
1059.344656	0.161554
1059.510108	0.161756
1059.675542	0.160229
1059.840958	0.158611
1060.006356	0.156504
1060.171735	0.156959
1060.337096	0.158886
1060.502439	0.162291
1060.667764	0.164059
1060.833071	0.166469
1060.998359	0.165646
1061.163629	0.165895
1061.328881	0.167950
1061.494115	0.168929
1061.659330	0.169880
1061.824527	0.169622
1061.989706	0.167504
1062.154867	0.164647
1062.320010	0.164307
1062.485134	0.164384
1062.650240	0.163821
1062.815328	0.163058
1062.980398	0.161540
1063.145449	0.160289
1063.310482	0.159262
1063.475497	0.159587
1063.640494	0.160210
1063.805473	0.159809
1063.970433	0.158796
1064.135375	0.161078
1064.300299	0.160523
1064.465204	0.160693
1064.630092	0.165280
1064.794961	0.164945
1064.959812	0.167427
1065.124645	0.167909
1065.289459	0.167386
1065.454256	0.168783
1065.619034	0.169839
1065.783793	0.169490
1065.948535	0.169908
1066.113258	0.168080
1066.277964	0.169438
1066.442651	0.169671
1066.607319	0.172710
1066.771970	0.174146
1066.936602	0.172959
1067.101216	0.173879
1067.265812	0.174464
1067.430389	0.174696
1067.594949	0.173114
1067.759490	0.173946
1067.924013	0.171754
1068.088518	0.170560
1068.253004	0.171687
1068.417472	0.171069
1068.581922	0.169351
1068.746354	0.168097
1068.910768	0.168267
1069.075163	0.168947
1069.239540	0.167193
1069.403899	0.169089
1069.568240	0.169667
1069.732562	0.170112
1069.896866	0.170436
1070.061152	0.169923
1070.225420	0.171320
1070.389670	0.174100
1070.553901	0.173304
1070.718114	0.173900
1070.882309	0.173839
1071.046486	0.171457
1071.210644	0.170902
1071.374784	0.172184
1071.538906	0.173999
1071.703010	0.172416
1071.867096	0.170108
1072.031163	0.168716
1072.195212	0.170698
1072.359243	0.171500
1072.523256	0.174042
1072.687250	0.172380
1072.851226	0.171109
1073.015184	0.168036
1073.179124	0.170253
1073.343045	0.172416
1073.506949	0.175790
1073.670834	0.173861
1073.834701	0.170163
1073.998549	0.169717
1074.162380	0.171854
1074.326192	0.174394
1074.489986	0.175440
1074.653761	0.175335
1074.817519	0.172234
1074.981258	0.171415
1075.144979	0.172057
1075.308682	0.176063
1075.472367	0.178490
1075.636033	0.176645
1075.799681	0.175703
1075.963311	0.178011
1076.126923	0.177989
1076.290516	0.180210
1076.454092	0.179738
1076.617649	0.179891
1076.781187	0.179017
1076.944708	0.175720
1077.108210	0.176096
1077.271695	0.174583
1077.435160	0.172045
1077.598608	0.171147
1077.762038	0.169373
1077.925449	0.168825
1078.088842	0.169440
1078.252217	0.166322
1078.415573	0.166927
1078.578912	0.168086
1078.742232	0.171021
1078.905534	0.174225
1079.068817	0.174501
1079.232083	0.176416
1079.395330	0.176613
1079.558559	0.177130
1079.721770	0.180035
1079.884962	0.180971
1080.048136	0.182071
1080.211293	0.181862
1080.374430	0.180571
1080.537550	0.180860
1080.700651	0.181385
1080.863735	0.182761
1081.026800	0.183441
1081.189846	0.183193
1081.352875	0.181511
1081.515885	0.180577
1081.678877	0.179818
1081.841851	0.180192
1082.004807	0.178576
1082.167744	0.177880
1082.330663	0.176570
1082.493564	0.177198
1082.656447	0.178235
1082.819312	0.179233
1082.982158	0.176701
1083.144986	0.175530
1083.307796	0.173771
1083.470587	0.175398
1083.633361	0.177406
1083.796116	0.180200
1083.958853	0.179549
1084.121571	0.179637
1084.284272	0.179088
1084.446954	0.183928
1084.609618	0.184029
1084.772264	0.184943
1084.934892	0.188465
1085.097501	0.186519
1085.260092	0.184136
1085.422665	0.183233
1085.585220	0.182995
1085.747756	0.182094
1085.910274	0.177850
1086.072774	0.180917
1086.235256	0.182793
1086.397720	0.181631
1086.560165	0.179915
1086.722592	0.180652
1086.885001	0.181003
1087.047392	0.182498
1087.209764	0.185419
1087.372119	0.188348
1087.534455	0.189069
1087.696772	0.187936
1087.859072	0.186864
1088.021353	0.190380
1088.183616	0.191434
1088.345861	0.190042
1088.508088	0.186308
1088.670296	0.184925
1088.832486	0.183214
1088.994658	0.181923
1089.156812	0.184028
1089.318948	0.184963
1089.481065	0.184086
1089.643164	0.182896
1089.805245	0.183029
1089.967308	0.186950
1090.129352	0.185523
1090.291378	0.186811
1090.453386	0.186403
1090.615376	0.182897
1090.777347	0.180966
1090.939301	0.180780
1091.101236	0.181867
1091.263153	0.182033
1091.425051	0.178741
1091.586932	0.180119
1091.748794	0.182214
1091.910638	0.180130
1092.072463	0.181699
1092.234271	0.180878
1092.396060	0.181782
1092.557831	0.182306
1092.719584	0.181889
1092.881319	0.185732
1093.043035	0.187242
1093.204733	0.184803
1093.366413	0.186253
1093.528075	0.187469
1093.689718	0.192620
1093.851343	0.191232
1094.012950	0.188592
1094.174539	0.190523
1094.336110	0.187292
1094.497662	0.189364
1094.659196	0.190649
1094.820712	0.193243
1094.982210	0.189708
1095.143689	0.184433
1095.305151	0.184622
1095.466594	0.186676
1095.628018	0.186503
1095.789425	0.191425
1095.950813	0.183693
1096.112183	0.182266
1096.273535	0.182626
1096.434869	0.182915
1096.596184	0.184593
1096.757482	0.187589
1096.918761	0.191975
1097.080021	0.190161
1097.241264	0.184173
1097.402488	0.186872
1097.563694	0.191921
1097.724882	0.188659
1097.886052	0.188233
1098.047203	0.190737
1098.208336	0.186318
1098.369451	0.183023
1098.530548	0.184356
1098.691627	0.185258
1098.852687	0.182812
1099.013729	0.180425
1099.174753	0.185319
1099.335758	0.188273
1099.496746	0.188933
1099.657715	0.190675
1099.818666	0.185641
1099.979599	0.186722
1100.140513	0.185995
1100.301409	0.190872
1100.462287	0.188691
1100.623147	0.185328
1100.783989	0.184962
1100.944812	0.181304
1101.105617	0.184531
1101.266404	0.192059
1101.427173	0.188981
1101.587923	0.194628
1101.748656	0.193622
1101.909370	0.194904
1102.070066	0.196369
1102.230743	0.193344
1102.391403	0.195007
1102.552044	0.192955
1102.712667	0.190772
1102.873271	0.188706
1103.033858	0.184387
1103.194426	0.189632
1103.354976	0.191173
1103.515508	0.193007
1103.676021	0.198226
1103.836517	0.201546
1103.996994	0.201969
1104.157453	0.206726
1104.317893	0.213979
1104.478316	0.216043
1104.638720	0.208356
1104.799106	0.206903
1104.959474	0.204729
1105.119823	0.203771
1105.280155	0.202286
1105.440468	0.203089
1105.600763	0.197774
1105.761039	0.194342
1105.921298	0.195199
1106.081538	0.197731
1106.241760	0.199797
1106.401964	0.196170
1106.562149	0.196589
1106.722316	0.193983
1106.882465	0.194139
1107.042596	0.195071
1107.202709	0.196872
1107.362803	0.200300
1107.522879	0.202103
1107.682937	0.202287
1107.842977	0.206974
1108.002999	0.205677
1108.163002	0.202065
1108.322987	0.201385
1108.482954	0.202548
1108.642902	0.201598
1108.802833	0.197963
1108.962745	0.195833
1109.122639	0.192355
1109.282515	0.187298
1109.442372	0.189538
1109.602211	0.195975
1109.762032	0.194686
1109.921835	0.196733
1110.081620	0.197087
1110.241386	0.198626
1110.401134	0.202147
1110.560864	0.202798
1110.720576	0.207205
1110.880269	0.207622
1111.039945	0.202857
1111.199602	0.202829
1111.359240	0.201430
1111.518861	0.202671
1111.678463	0.199408
1111.838047	0.199335
1111.997613	0.197407
1112.157161	0.195387
1112.316690	0.190483
1112.476202	0.194587
1112.635695	0.201671
1112.795169	0.199178
1112.954626	0.200017
1113.114064	0.200583
1113.273484	0.195734
1113.432886	0.199046
1113.592270	0.199812
1113.751635	0.204216
1113.910983	0.203553
1114.070312	0.197716
1114.229622	0.201083
1114.388915	0.202970
1114.548189	0.200209
1114.707445	0.201199
1114.866683	0.205879
1115.025903	0.205479
1115.185104	0.205221
1115.344287	0.205488
1115.503452	0.202774
1115.662599	0.199104
1115.821727	0.192916
1115.980838	0.197369
1116.139930	0.200819
1116.299004	0.193761
1116.458059	0.199830
1116.617097	0.196476
1116.776116	0.193181
1116.935117	0.193942
1117.094099	0.195166
1117.253064	0.196969
1117.412010	0.195210
1117.570938	0.193522
1117.729848	0.196471
1117.888740	0.187567
1118.047613	0.193208
1118.206468	0.195254
1118.365305	0.197839
1118.524124	0.201991
1118.682924	0.207499
1118.841707	0.206100
1119.000471	0.208150
1119.159216	0.207877
1119.317944	0.218069
1119.476653	0.216069
1119.635344	0.218849
1119.794017	0.225707
1119.952672	0.215519
1120.111308	0.209786
1120.269927	0.211762
1120.428527	0.212150
1120.587108	0.212467
1120.745672	0.203979
1120.904217	0.205778
1121.062744	0.205298
1121.221253	0.198380
1121.379744	0.204099
1121.538216	0.212077
1121.696671	0.210100
1121.855107	0.208002
1122.013524	0.207310
1122.171924	0.207958
1122.330305	0.201452
1122.488668	0.202659
1122.647013	0.204827
1122.805340	0.204415
1122.963648	0.195962
1123.121938	0.199269
1123.280210	0.197835
1123.438464	0.199845
1123.596700	0.200553
1123.754917	0.209238
1123.913116	0.206367
1124.071297	0.203032
1124.229459	0.198157
1124.387604	0.202534
1124.545730	0.201204
1124.703838	0.204159
1124.861928	0.205932
1125.019999	0.211206
1125.178052	0.206600
1125.336088	0.206862
1125.494104	0.214420
1125.652103	0.226311
1125.810083	0.225255
1125.968045	0.224416
1126.125989	0.225645
1126.283915	0.216937
1126.441823	0.213011
1126.599712	0.218606
1126.757583	0.221328
1126.915436	0.218393
1127.073270	0.210205
1127.231087	0.207115
1127.388885	0.209302
1127.546665	0.209969
1127.704426	0.216676
1127.862170	0.223382
1128.019895	0.223673
1128.177602	0.225541
1128.335291	0.225575
1128.492961	0.224737
1128.650614	0.222040
1128.808248	0.216866
1128.965864	0.210913
1129.123461	0.213675
1129.281041	0.214614
1129.438602	0.205048
1129.596145	0.203879
1129.753670	0.203066
1129.911176	0.203733
1130.068665	0.207252
1130.226135	0.212864
1130.383587	0.212646
1130.541020	0.207752
1130.698436	0.208804
1130.855833	0.211913
1131.013212	0.208192
1131.170573	0.205539
1131.327915	0.216024
1131.485239	0.217462
1131.642545	0.218532
1131.799833	0.215401
1131.957103	0.214165
1132.114354	0.206712
1132.271588	0.212188
1132.428803	0.219042
1132.585999	0.220094
1132.743178	0.217241
1132.900338	0.220174
1133.057480	0.212502
1133.214604	0.217178
1133.371710	0.221806
1133.528797	0.228395
1133.685866	0.220960
1133.842917	0.211764
1133.999950	0.205530
1134.156964	0.199032
1134.313960	0.199238
1134.470938	0.207286
1134.627898	0.214615
1134.784840	0.213026
1134.941763	0.206615
1135.098668	0.210559
1135.255555	0.222320
1135.412424	0.230035
1135.569274	0.234705
1135.726107	0.234310
1135.882921	0.234801
1136.039716	0.232578
1136.196494	0.234403
1136.353253	0.239777
1136.509995	0.241060
1136.666717	0.233274
1136.823422	0.229666
1136.980109	0.226384
1137.136777	0.224485
1137.293427	0.223496
1137.450059	0.218874
1137.606672	0.214532
1137.763267	0.203622
1137.919844	0.202321
1138.076403	0.203463
1138.232944	0.200203
1138.389466	0.203258
1138.545971	0.206572
1138.702457	0.205012
1138.858924	0.212297
1139.015374	0.211917
1139.171805	0.218197
1139.328218	0.220677
1139.484613	0.218752
1139.640990	0.225760
1139.797348	0.227702
1139.953688	0.217052
1140.110010	0.209363
1140.266314	0.206446
1140.422600	0.205529
1140.578867	0.204388
1140.735116	0.207744
1140.891347	0.200323
1141.047559	0.197045
1141.203754	0.198809
1141.359930	0.205801
1141.516088	0.213948
1141.672228	0.213987
1141.828349	0.210081
1141.984452	0.217137
1142.140537	0.215082
1142.296604	0.224293
1142.452653	0.223526
1142.608683	0.212106
1142.764695	0.213738
1142.920689	0.218832
1143.076665	0.212135
1143.232622	0.217059
1143.388562	0.211086
1143.544483	0.207544
1143.700385	0.199074
1143.856270	0.201685
1144.012136	0.209559
1144.167985	0.213622
1144.323814	0.212554
1144.479626	0.220242
1144.635420	0.224682
1144.791195	0.224960
1144.946952	0.224020
1145.102691	0.234232
1145.258411	0.230334
1145.414113	0.227428
1145.569798	0.224024
1145.725463	0.224261
1145.881111	0.222142
1146.036741	0.231424
1146.192352	0.234057
1146.347945	0.237175
1146.503519	0.226908
1146.659076	0.235826
1146.814614	0.232689
1146.970134	0.224127
1147.125636	0.213698
1147.281120	0.216113
1147.436585	0.208325
1147.592032	0.197722
1147.747461	0.204612
1147.902872	0.216295
1148.058265	0.213294
1148.213639	0.214826
1148.368995	0.222247
1148.524333	0.230366
1148.679653	0.229543
1148.834954	0.227881
1148.990237	0.230077
1149.145502	0.216502
1149.300749	0.199594
1149.455977	0.195465
1149.611188	0.200842
1149.766380	0.201062
1149.921553	0.194121
1150.076709	0.190930
1150.231846	0.188930
1150.386966	0.196631
1150.542066	0.198341
1150.697149	0.223286
1150.852214	0.225204
1151.007260	0.214168
1151.162288	0.203249
1151.317298	0.204617
1151.472289	0.199466
1151.627263	0.196773
1151.782218	0.186904
1151.937155	0.190727
1152.092073	0.177894
1152.246974	0.178572
1152.401856	0.180810
1152.556720	0.182904
1152.711566	0.179452
1152.866393	0.184061
1153.021203	0.183589
1153.175994	0.198208
1153.330767	0.186839
1153.485521	0.191353
1153.640258	0.192565
1153.794976	0.191331
1153.949676	0.197475
1154.104358	0.192403
1154.259021	0.194714
1154.413667	0.194575
1154.568294	0.190609
1154.722903	0.196216
1154.877493	0.202218
1155.032066	0.206313
1155.186620	0.211853
1155.341156	0.217721
1155.495674	0.227319
1155.650173	0.227688
1155.804654	0.235294
1155.959118	0.227591
1156.113562	0.223933
1156.267989	0.226362
1156.422397	0.217875
1156.576788	0.215301
1156.731160	0.209008
1156.885513	0.205170
1157.039849	0.199535
1157.194166	0.214237
1157.348465	0.216274
1157.502746	0.215327
1157.657009	0.202587
1157.811253	0.202689
1157.965479	0.207944
1158.119687	0.210710
1158.273877	0.210485
1158.428048	0.212560
1158.582201	0.205972
1158.736337	0.211169
1158.890453	0.215445
1159.044552	0.209906
1159.198632	0.206707
1159.352694	0.209466
1159.506738	0.199991
1159.660764	0.215025
1159.814771	0.216538
1159.968761	0.206031
1160.122732	0.199971
1160.276685	0.202297
1160.430619	0.201745
1160.584535	0.202591
1160.738434	0.199925
1160.892313	0.209518
1161.046175	0.206276
1161.200019	0.201969
1161.353844	0.194937
1161.507651	0.198055
1161.661440	0.197092
1161.815210	0.201596
1161.968962	0.208362
1162.122697	0.198759
1162.276412	0.194389
1162.430110	0.187056
1162.583789	0.198098
1162.737451	0.197540
1162.891094	0.192668
1163.044718	0.193768
1163.198325	0.203627
1163.351913	0.194812
1163.505483	0.206383
1163.659035	0.203187
1163.812569	0.209347
1163.966084	0.201994
1164.119581	0.206373
1164.273060	0.211013
1164.426521	0.217625
1164.579964	0.206566
1164.733388	0.219976
1164.886794	0.227643
1165.040182	0.225445
1165.193551	0.206114
1165.346903	0.198162
1165.500236	0.198510
1165.653551	0.195104
1165.806848	0.185371
1165.960126	0.180451
1166.113386	0.178750
1166.266628	0.154558
1166.419852	0.165607
1166.573058	0.184064
1166.726245	0.193673
1166.879414	0.194513
1167.032565	0.191338
1167.185698	0.188568
1167.338812	0.198673
1167.491909	0.201240
1167.644987	0.204314
1167.798046	0.196588
1167.951088	0.196494
1168.104111	0.191149
1168.257117	0.194493
1168.410103	0.198923
1168.563072	0.215478
1168.716023	0.215969
1168.868955	0.211938
1169.021869	0.221404
1169.174765	0.226372
1169.327642	0.223203
1169.480501	0.215378
1169.633343	0.213366
1169.786165	0.215411
1169.938970	0.205821
1170.091757	0.200801
1170.244525	0.205251
1170.397275	0.206453
1170.550007	0.199264
1170.702720	0.202114
1170.855415	0.216211
1171.008092	0.212150
1171.160751	0.207304
1171.313392	0.203099
1171.466014	0.231556
1171.618619	0.173311
1171.771205	0.173311
1171.923772	0.173311
