sample name	sample
index	812
start time	 03-31-2021  03:23:41 PM
880	0.242087
Peak Time (s)	92.536
Peak Height 	0.2421
calc peak height	90,93
Baseline Time (s)	10.536
Baseline Value 	-0.004632
subtract baseline	10,4
Abs	0.148622
Peak Time (s)	92.036
Peak Height 	0.1486
calc peak height	90,93
Baseline Time (s)	8.537
Baseline Value 	0.002789
subtract baseline	10,3
PK_550	0.066849
Peak Time (s)	90.535
Peak Height 	0.06685
calc peak height	90,93
Baseline Time (s)	9.535
Baseline Value 	5.1761E-4
subtract baseline	10,2
PK_880	0.155755
Peak Time (s)	91.035
Peak Height 	0.1558
calc peak height	90,93
Baseline Time (s)	11.537
Baseline Value 	0.001113
subtract baseline	10,1


Time (s)	A880-A510	A880-A775	A880-A975	A880	I510	I775	I975	I880	
0.035000	0.000499	0.000524	0.003851	0.003930	6539.673262	38589.954481	4042.929435	21240.232652
0.535500	-0.001611	-0.000031	-0.000315	0.005095	6514.152809	38449.950082	4031.578778	21191.736003
1.036000	-0.001587	-0.000912	-0.002799	0.004356	6520.084244	38438.514111	4027.895324	21222.511070
1.536000	-0.000517	-0.000302	0.000307	0.002516	6542.796420	38637.950578	4038.377908	21299.278338
2.036500	-0.001708	-0.000276	0.002959	0.002553	6533.195172	38637.068315	4043.969335	21297.745251
2.536000	0.001549	-0.000145	0.005662	0.002315	6560.596062	38667.233674	4050.297307	21307.688669
3.037000	0.000149	0.000178	0.006229	-0.001087	6576.386114	38972.888775	4058.905173	21450.576826
3.537500	0.000930	-0.000043	0.002243	0.000382	6570.955483	38833.893038	4047.094186	21388.748744
4.035000	0.001334	-0.000251	-0.001411	0.000356	6574.350436	38819.009166	4039.320671	21389.844943
4.535000	0.000404	-0.000813	-0.000108	-0.000500	6573.763217	38843.144306	4043.939298	21425.866704
5.035500	0.000804	-0.001036	-0.002288	-0.000517	6577.062071	38826.192244	4039.311875	21426.577599
5.535500	0.001266	0.000777	-0.004016	0.002856	6554.115847	38698.390630	4028.490835	21285.076612
6.036000	0.002428	-0.000705	-0.001055	0.000014	6585.715072	38809.748064	4040.811969	21404.226489
6.536500	0.001030	-0.000146	0.000387	0.000060	6574.282747	38851.915982	4043.799918	21402.286226
7.036500	0.001906	0.000316	0.001107	0.000551	6577.332384	38849.538688	4044.291061	21381.646136
7.536500	-0.002516	-0.000844	-0.002984	0.003632	6518.490426	38502.844029	4029.031261	21252.686545
8.037000	0.001253	-0.000658	-0.002559	0.000015	6576.409879	38813.544674	4037.600207	21404.193640
8.537500	0.001992	-0.000117	0.000000	-0.000108	6583.235113	38868.144883	4043.330946	21409.375361
9.035000	0.003653	0.000544	0.000617	0.000648	6590.403687	38860.331808	4043.031547	21377.580708
9.535000	-0.000417	0.000000	0.001818	0.000280	6561.136936	38845.818563	4046.399886	21393.036526
10.040500	-0.001398	-0.001027	-0.002729	-0.000473	6559.338419	38823.266216	4038.276777	21424.703065
10.536000	-0.001188	0.000166	0.002791	0.000000	6557.275468	38882.458120	4049.098419	21404.817123
11.035500	0.001114	-0.000593	-0.000364	-0.000068	6575.967031	38825.709080	4042.465042	21407.688437
11.536500	0.000000	0.000021	-0.000227	0.000048	6566.251502	38866.654101	4042.510796	21402.803377
12.037000	-0.000692	-0.000827	0.002439	-0.000642	6566.237865	38853.643686	4049.723675	21431.860091
12.537000	0.000970	0.000173	-0.000077	0.000603	6569.525800	38833.552477	4041.642258	21379.469861
13.037000	-0.000071	-0.000059	-0.001819	0.000768	6560.024505	38800.944931	4037.573233	21372.552038
13.537500	-0.002479	-0.000212	-0.000865	0.003872	6516.910542	38534.667036	4033.003373	21242.654744
14.035000	-0.001955	-0.000855	-0.003626	0.001567	6538.973738	38670.366777	4032.039195	21339.028325
14.538000	-0.001395	-0.000260	-0.001423	0.003022	6531.978687	38600.114710	4033.624790	21278.148470
15.046500	0.000873	-0.000450	-0.002788	0.000679	6568.159706	38776.121089	4035.699204	21376.274124
15.535500	-0.001499	-0.000010	-0.005177	0.000932	6547.517299	38791.496585	4030.101527	21365.659335
16.036500	-0.001142	-0.001200	-0.003834	-0.000015	6557.748060	38771.523003	4034.951335	21405.430226
16.536500	0.000745	-0.000206	0.000403	0.001360	6561.782359	38740.326899	4041.049691	21347.685649
17.037000	0.002064	-0.000817	0.002235	-0.003791	6613.108056	39114.085328	4056.098519	21564.962685
17.536500	0.000965	-0.000451	-0.003438	0.000687	6568.820198	38775.424423	4034.302117	21375.949646
18.034500	-0.000169	-0.000446	-0.000498	0.001491	6553.569241	38709.978836	4038.848308	21342.221833
18.535000	-0.000703	-0.000987	0.001052	0.001491	6549.373970	38665.722970	4042.158654	21342.213080
19.035500	-0.000711	-0.000933	0.003861	0.001282	6550.955089	38687.246605	4048.642513	21350.988833
19.535500	0.000458	-0.000419	-0.001444	0.001843	6555.721671	38683.406123	4036.082606	21327.460367
20.036000	0.001456	0.000078	-0.002085	0.002188	6560.862373	38695.827080	4033.987157	21313.002956
20.539000	-0.000885	-0.001050	-0.002921	0.001233	6549.965043	38681.682008	4034.239752	21353.014250
21.036500	0.000299	-0.000288	0.001715	0.001843	6554.471588	38694.087181	4042.823570	21327.445115
21.536500	-0.001547	-0.000579	-0.002972	0.001521	6542.520227	38696.660692	4033.520888	21340.954146
22.037000	0.000528	0.000164	0.001611	0.002352	6552.276173	38689.422902	4041.512431	21306.139337
22.537500	-0.001355	-0.000606	0.002003	0.001867	6541.319997	38666.169915	4043.390299	21326.456485
23.037500	-0.000104	-0.000845	0.000047	0.001337	6555.287074	38689.956090	4040.339692	21348.668682
23.534500	-0.001072	-0.000835	0.001016	0.001089	6549.632129	38711.080095	4042.942878	21359.068310
24.035500	0.000492	-0.000293	-0.000748	0.001924	6555.358865	38687.128262	4037.392384	21324.069167
24.535500	-0.000144	-0.000706	0.000694	0.001448	6554.094700	38692.250657	4041.485010	21344.010849
25.035500	-0.002421	-0.001368	-0.001233	0.001070	6539.211442	38669.001460	4038.176248	21359.850556
25.536000	-0.002203	-0.000100	-0.002266	0.002124	6532.680781	38686.538311	4033.741775	21315.710665
26.036000	-0.000376	-0.001075	-0.000461	0.001163	6554.513190	38685.353042	4039.624873	21355.947803
26.536500	-0.002514	-0.000675	-0.003059	0.000970	6539.265346	38733.861582	4034.505945	21364.042020
27.037000	0.000169	-0.000297	0.000582	-0.001133	6576.916563	38937.622427	4046.780430	21452.551078
27.537500	0.000313	-0.000230	0.002588	0.000197	6567.540074	38833.754023	4048.235149	21396.520615
28.035000	-0.000707	-0.000975	-0.000917	0.000682	6555.697066	38732.914535	4039.679200	21376.166952
28.537500	-0.001791	-0.000099	0.000111	0.001622	6539.818721	38727.604896	4039.867174	21336.707272
29.035000	-0.000024	-0.000740	0.001020	0.001103	6557.752556	38717.636178	4042.919743	21358.473912
29.536000	0.000358	-0.000579	0.001496	0.002557	6549.337901	38612.009455	4040.829854	21297.594064
30.036000	-0.000316	-0.000214	0.001329	0.000825	6557.643956	38783.519354	4044.178741	21370.133260
30.536000	-0.001427	-0.000782	-0.000748	0.002726	6534.034029	38581.661080	4035.684555	21290.516935
31.036500	-0.000953	-0.000301	-0.004101	0.002838	6536.863947	38611.757610	4028.349131	21285.821288
31.537000	0.002213	-0.000088	0.002518	0.001330	6573.602442	38752.513974	4045.647059	21348.957484
32.037000	-0.000886	-0.000147	0.004008	0.001569	6547.325347	38728.090312	4048.338225	21338.926439
32.536500	-0.000996	-0.000320	-0.001000	0.000905	6551.670376	38768.273133	4039.024044	21366.769915
33.038000	-0.001306	-0.000045	-0.002063	0.000934	6549.015264	38788.476531	4036.699289	21365.585097
33.535500	-0.000023	-0.000038	0.007212	0.001473	6554.851984	38744.842459	4055.475674	21342.944338
34.035500	0.000350	-0.000911	-0.003378	0.000044	6569.044957	38790.402155	4035.795601	21402.965753
34.535500	-0.000157	0.000415	0.005326	0.002659	6544.502692	38684.924975	4048.831623	21293.330738
35.036500	0.000742	0.000136	0.000717	0.002720	6551.060774	38657.037776	4038.816979	21290.746775
35.536500	-0.000976	-0.001053	-0.003594	0.001601	6546.368552	38651.366519	4032.035356	21337.599133
36.037000	-0.000425	-0.000625	0.002365	0.002335	6544.931755	38626.364130	4043.162492	21306.864492
36.536500	-0.003498	-0.000425	-0.003324	0.002253	6521.581765	38649.438221	4031.226034	21310.291337
37.037000	-0.002022	-0.000854	-0.001184	0.001814	6536.517100	38650.243525	4036.698308	21328.683595
37.537500	-0.001611	-0.000126	0.002879	0.002266	6536.193672	38672.810411	4044.413451	21309.756864
38.038000	0.000163	-0.000388	0.001438	0.002011	6552.086197	38672.189624	4041.870805	21320.404746
38.535000	-0.002174	-0.000381	-0.000331	0.002179	6532.476279	38658.998172	4037.736350	21313.386511
39.035000	0.001654	0.000452	-0.002312	0.003019	6555.881705	38658.484667	4031.745425	21278.266387
39.536000	-0.001984	-0.001270	0.002042	0.001943	6535.805025	38605.771337	4043.312234	21323.282529
40.036000	-0.002399	-0.001020	0.001528	0.001688	6534.549705	38646.973549	4042.756402	21333.955257
40.536500	0.000721	-0.000003	-0.002737	0.002753	6550.641346	38643.040306	4031.409137	21289.367372
41.036500	0.000251	-0.000297	0.000164	0.001767	6554.693580	38699.578846	4039.670558	21330.630084
41.537000	-0.002251	-0.000644	0.003258	0.002101	6532.486210	38643.946684	4045.581388	21316.653569
42.034500	-0.001568	-0.000158	-0.002032	0.002393	6535.535107	38659.763906	4033.665586	21304.444234
42.534500	-0.001064	-0.000633	-0.000337	0.001804	6544.087661	38669.075472	4038.522314	21329.084212
43.035000	-0.003103	-0.000342	0.001801	0.002094	6525.893690	38669.198520	4042.471583	21316.938674
43.535500	-0.000388	-0.000569	-0.005265	0.001937	6548.346817	38663.492912	4027.795106	21323.529943
44.036000	0.000625	-0.000809	-0.000090	-0.001418	6582.773589	38918.871248	4045.948713	21464.545971
44.540000	-0.000448	-0.000889	-0.002054	0.001007	6555.179413	38713.352139	4036.564953	21362.527279
45.036000	0.001422	-0.000063	0.000110	0.001377	6566.983932	38750.646761	4040.387254	21346.974540
45.537000	-0.000019	-0.000999	-0.006655	0.001274	6556.442689	38682.457007	4026.262770	21351.295476
46.037000	0.002024	-0.000002	-0.005676	0.001653	6569.549911	38733.007205	4027.526433	21335.401893
46.534500	-0.000147	0.000245	0.003872	0.001628	6552.657063	38755.366741	4047.918088	21336.457361
47.037500	0.000020	-0.000466	0.000753	0.001074	6558.327522	38742.506255	4042.410646	21359.688028
47.535000	-0.002946	-0.000499	-0.000077	0.002821	6521.451524	38597.031247	4036.910106	21286.541479
48.035500	-0.001615	-0.000653	0.001293	0.002201	6536.673329	38635.061281	4041.156158	21312.481718
48.534500	-0.000872	-0.000238	-0.000839	0.001463	6548.263614	38729.253333	4038.179398	21343.373771
49.039000	0.001053	-0.000506	-0.002120	0.001054	6566.622263	38740.870708	4036.323926	21360.545840
49.536000	-0.001792	-0.000810	0.003862	0.001037	6544.391918	38717.354578	4049.171148	21361.232999
50.036500	0.002896	-0.000108	0.004413	-0.001719	6603.209913	39001.517210	4056.329855	21477.259909
50.536500	0.001443	0.000800	-0.000388	-0.004169	6611.172332	39279.650171	4051.235337	21581.043429
51.037000	-0.004653	-0.004695	0.007915	-0.010785	6615.325360	39372.916765	4084.040323	21864.159259
51.540000	-0.024228	0.007483	-0.007984	0.005948	6336.758284	38995.255214	4013.721041	21156.335678
52.035000	-0.027499	-0.002949	-0.013187	-0.101736	7205.030452	47986.098411	4253.552042	26226.994503
52.535000	-0.023708	-0.066678	-0.004936	-0.304767	9683.423131	64932.982449	4968.494637	39988.607002
53.035000	-0.025774	-0.079553	-0.002430	-0.321342	9905.654690	65461.451901	5051.853040	41422.227734
53.535500	-0.011952	-0.044059	0.010987	-0.271547	9367.979662	63443.595657	4896.027162	37274.811303
54.035500	-0.004774	-0.026678	0.021172	-0.241131	9043.589804	61661.442339	4814.851362	34965.719403
54.536000	0.010978	-0.008189	0.032782	-0.197851	8681.138293	58416.360188	4695.136325	31946.767945
55.036500	0.020414	-0.003791	0.033346	-0.199056	8818.521607	59133.555587	4701.595396	32026.759103
55.536500	0.048470	0.013285	0.044654	-0.162308	8706.044106	56655.411661	4611.189641	29682.810647
56.040000	0.048684	0.019141	0.057115	-0.116700	8153.834000	51977.415524	4501.063621	27036.442238
56.535000	0.063219	0.028280	0.068386	-0.079751	7901.743086	48950.152810	4421.347651	25087.197219
57.035000	0.075439	0.037907	0.080054	-0.022123	7429.209939	44160.157614	4289.921019	22359.498731
57.535500	0.083940	0.046391	0.090614	0.029884	7020.549767	40251.690497	4182.756490	20190.068302
58.035500	0.091443	0.049866	0.097924	0.063448	6794.654325	37769.825750	4119.978113	18921.766071
58.535500	0.102544	0.055609	0.103952	0.088395	6680.035510	36273.239840	4077.036247	18040.577539
59.036000	0.105698	0.059157	0.112217	0.120099	6454.932332	34195.459429	4026.363385	16991.363196
59.536500	0.113878	0.062961	0.116138	0.136247	6394.705751	33326.067337	4000.996141	16485.667622
60.037000	0.116742	0.065658	0.117929	0.147891	6329.605867	32711.246556	3981.065126	16132.522138
60.534500	0.117196	0.066937	0.121309	0.156605	6269.551524	32209.850083	3970.464508	15874.374699
61.037500	0.122142	0.069835	0.127021	0.163934	6252.437325	31915.100438	3967.277396	15661.222198
61.537500	0.128621	0.073548	0.126387	0.168005	6269.739029	31891.446941	3958.068769	15544.377341
62.035500	0.133039	0.077542	0.125142	0.193226	6123.444802	30521.481955	3908.079982	14844.325656
62.535500	0.136989	0.078652	0.129913	0.183698	6217.418393	31199.646000	3934.708393	15104.014936
63.036000	0.137339	0.079257	0.130596	0.187613	6192.281695	30986.897413	3928.613186	14996.644089
63.536000	0.140283	0.079198	0.126893	0.188595	6206.095557	30920.266796	3919.857006	14969.850642
64.039000	0.142161	0.079446	0.137165	0.190794	6203.827215	30795.922860	3935.004642	14910.078328
64.536500	0.142449	0.079548	0.133952	0.193575	6186.297887	30626.044498	3923.731223	14834.926061
65.036500	0.142771	0.077937	0.131994	0.195773	6173.176633	30386.295369	3916.006165	14775.870660
65.537000	0.143784	0.078241	0.125347	0.197098	6171.006366	30322.387330	3901.392880	14740.424280
66.037500	0.143893	0.078634	0.135756	0.199087	6157.917178	30222.793700	3916.834578	14687.396675
66.535500	0.145422	0.078773	0.135078	0.200577	6158.189073	30138.801007	3912.829864	14647.848260
67.035500	0.144190	0.078969	0.131715	0.202990	6132.983203	30001.518508	3902.256840	14584.065448
67.535500	0.144964	0.077283	0.132211	0.201983	6145.277508	29959.609669	3904.995791	14610.645683
68.036000	0.145944	0.077548	0.136775	0.203563	6141.129915	29878.633147	3910.459355	14568.973816
68.536000	0.142221	0.078260	0.135308	0.205336	6103.416444	29813.457184	3904.528540	14522.402056
69.036000	0.146447	0.078144	0.138196	0.208850	6108.274777	29591.724683	3903.388180	14430.649281
69.539500	0.147762	0.078575	0.140397	0.209560	6112.410462	29574.730286	3906.106699	14412.196922
70.039500	0.149138	0.079345	0.141041	0.211291	6109.978776	29516.406802	3904.123656	14367.343485
70.537000	0.149671	0.080214	0.141861	0.213353	6099.546972	29444.115017	3901.863591	14314.146018
71.035000	0.148066	0.079512	0.143080	0.213717	6086.166965	29379.730808	3903.417925	14304.779662
71.535000	0.149011	0.078545	0.137836	0.214136	6089.737516	29296.201247	3893.172255	14294.000572
72.035500	0.145774	0.076891	0.141310	0.213872	6069.627189	29212.722699	3899.920208	14300.788686
72.535500	0.148384	0.078371	0.142894	0.215969	6073.085386	29175.739212	3898.991266	14247.018572
73.036000	0.149061	0.077191	0.138131	0.215665	6079.717680	29123.329418	3890.958100	14254.796668
73.536500	0.148650	0.077066	0.132873	0.216551	6070.958204	29063.024132	3880.024051	14232.147218
74.036500	0.148591	0.076578	0.140419	0.216681	6069.680056	29026.171621	3893.240318	14228.810855
74.539000	0.150500	0.076993	0.137382	0.218183	6072.426524	28961.584456	3885.125024	14190.530548
75.037000	0.148122	0.075405	0.145238	0.217991	6057.712638	28878.829144	3899.575278	14195.417631
75.535000	0.148875	0.076658	0.138250	0.219594	6052.013422	28858.092868	3884.158902	14154.669268
76.037500	0.151914	0.076158	0.135032	0.220484	6066.446224	28776.028894	3876.894777	14132.105969
76.535500	0.147850	0.075270	0.135672	0.220961	6036.033444	28695.726773	3877.182161	14120.051999
77.035500	0.150068	0.075202	0.143474	0.221432	6047.690924	28663.985541	3890.198955	14108.132160
77.535500	0.147424	0.074330	0.143719	0.222176	6025.113435	28569.335374	3889.304579	14089.353186
78.036000	0.149804	0.075471	0.143890	0.224026	6028.630823	28527.885693	3886.308144	14042.791562
78.536500	0.149379	0.073877	0.141750	0.223804	6027.288000	28447.965002	3882.898096	14048.376329
79.039000	0.149592	0.074706	0.142116	0.225695	6016.158696	28386.230677	3880.198357	14000.963818
79.537000	0.150375	0.074776	0.144362	0.226508	6015.965855	28343.141641	3882.735960	13980.660808
80.037000	0.151272	0.073025	0.140702	0.226303	6023.260075	28253.685462	3876.633919	13985.771476
80.534500	0.151012	0.074319	0.144518	0.227893	6011.013449	28236.579883	3880.560190	13946.127766
81.035000	0.150095	0.073065	0.147383	0.227566	6007.121693	28183.172706	3886.224364	13954.267825
81.535500	0.152366	0.073344	0.134492	0.228073	6018.781890	28170.012217	3862.721389	13941.636725
82.035500	0.152456	0.074177	0.145292	0.229922	6007.152129	28111.597125	3878.343780	13895.748067
82.535500	0.150599	0.071802	0.141029	0.229390	5998.427090	28005.983750	3871.793201	13908.927534
83.036000	0.149212	0.070996	0.146913	0.235089	5952.197775	27636.834449	3872.117095	13768.498679
83.536500	0.150989	0.070613	0.138775	0.230742	5992.108836	27861.161482	3865.514978	13875.453030
84.037000	0.151165	0.071238	0.151051	0.232208	5983.655000	27813.406921	3884.491953	13839.265762
84.540000	0.153202	0.070139	0.138698	0.232428	5995.560955	27738.642022	3862.464731	13833.833290
85.037000	0.147786	0.069848	0.139728	0.237827	5925.386180	27418.929612	3854.958995	13701.690448
85.535000	0.150406	0.069711	0.145971	0.234561	5963.363888	27594.235736	3871.392292	13781.431244
86.035500	0.151971	0.069758	0.145400	0.235425	5967.918804	27548.305322	3868.889255	13760.272560
86.535500	0.153444	0.069729	0.146152	0.235718	5975.607797	27530.261503	3869.689041	13753.105910
87.035500	0.152118	0.068314	0.142246	0.236141	5964.218160	27427.355967	3862.179087	13742.764702
87.536000	0.151268	0.068077	0.147740	0.235727	5961.389576	27437.303462	3872.446928	13752.897181
88.036500	0.151691	0.067901	0.149096	0.236997	5955.898419	27356.651351	3872.598547	13721.895093
88.536500	0.151068	0.067680	0.139398	0.237054	5951.490691	27341.119263	3855.714834	13720.490930
89.037000	0.153139	0.066971	0.148608	0.237592	5961.423420	27271.832810	3870.704154	13707.395477
89.540000	0.153528	0.066276	0.151135	0.237989	5961.372974	27211.331563	3874.432158	13697.741281
90.035000	0.154212	0.066090	0.146426	0.238360	5963.409937	27180.546479	3865.572523	13688.732014
90.535000	0.152769	0.066849	0.144936	0.239009	5949.854382	27186.595631	3861.873078	13672.972654
91.035000	0.155755	0.066389	0.146193	0.239684	5964.829837	27123.882381	3862.877449	13656.590682
91.535000	0.154968	0.066388	0.147133	0.240765	5952.716169	27064.371175	3862.635664	13630.461625
92.036000	0.153783	0.064557	0.148622	0.240564	5946.348260	26974.808996	3865.557650	13635.296154
92.536000	0.154142	0.065277	0.148174	0.242087	5938.848155	26930.828596	3862.147758	13598.549720
93.038500	0.152976	0.063394	0.147438	0.241349	5936.097784	26868.308433	3862.153541	13616.354506
93.536500	0.154821	0.063454	0.148417	0.242326	5941.680643	26818.317204	3862.155796	13592.799086
94.034000	0.154978	0.064225	0.149579	0.243819	5933.082485	26779.074051	3861.585762	13556.921921
94.537000	0.152198	0.063726	0.147117	0.243704	5916.008407	26758.203814	3857.549271	13559.685010
95.034500	0.152661	0.062931	0.144900	0.244651	5912.921021	26663.773101	3852.141152	13536.984540
95.535500	0.153339	0.062277	0.153810	0.244912	5915.579936	26614.313889	3867.015898	13530.730808
96.036000	0.154769	0.063294	0.149390	0.246655	5913.584428	26575.186185	3856.386292	13489.091821
96.536000	0.155910	0.063825	0.154727	0.247509	5915.412738	26557.781739	3864.102932	13468.751150
