sample name	sample
index	1398
start time	 05-10-2021  11:01:03 AM
880	0.557560
Peak Time (s)	92.537
Peak Height 	0.5576
calc peak height	90,93
Baseline Time (s)	11.536
Baseline Value 	-0.005929
subtract baseline	10,4
Abs	0.387050
Peak Time (s)	91.035
Peak Height 	0.3871
calc peak height	90,93
Baseline Time (s)	9.535
Baseline Value 	0.001873
subtract baseline	10,3
PK_550	0.202798
Peak Time (s)	91.035
Peak Height 	0.2028
calc peak height	90,93
Baseline Time (s)	11.036
Baseline Value 	9.0616E-4
subtract baseline	10,2
PK_880	0.365811
Peak Time (s)	91.035
Peak Height 	0.3658
calc peak height	90,93
Baseline Time (s)	10.536
Baseline Value 	0.002243
subtract baseline	10,1


Time (s)	A880-A510	A880-A775	A880-A975	A880	I510	I775	I975	I880	
0.035000	-0.002243	-0.001615	-0.004702	0.002856	6388.292930	44854.757635	3899.407358	23215.809592
0.535500	-0.005203	-0.000908	-0.006863	0.008880	6315.849368	44344.620432	3879.163862	22935.357640
1.036000	-0.002256	-0.001322	0.000622	0.004817	6372.240025	44693.986070	3907.834600	23124.069511
1.536500	0.000374	-0.000199	0.000930	0.002177	6415.247810	45057.414749	3915.276181	23247.676016
2.036000	0.000325	-0.000970	0.003251	0.001515	6420.274823	45046.826655	3922.855473	23278.737693
2.537000	-0.003248	0.000016	-0.001013	0.007500	6342.569360	44564.913750	3897.025730	22999.289774
3.037000	0.001226	-0.000037	0.001121	-0.000527	6444.551814	45336.330785	3922.634586	23375.013267
3.537500	-0.000625	-0.000105	-0.000411	0.000981	6416.855067	45182.690643	3914.909459	23303.884917
4.035500	0.000349	-0.000791	-0.001158	0.000192	6431.367416	45192.709129	3915.015393	23341.052598
4.535000	-0.003673	-0.000653	0.003150	0.001737	6385.760994	45056.038812	3922.034583	23268.328081
5.035500	-0.000310	0.000263	-0.001170	0.001048	6418.891881	45211.975570	3912.818141	23300.712825
5.535500	-0.001929	-0.000848	-0.005513	0.000322	6411.566188	45174.509377	3903.716137	23334.916035
6.036000	-0.001413	-0.000373	-0.001455	0.000585	6413.645049	45195.170030	3913.270519	23322.541497
6.536500	0.000768	0.000127	0.000504	0.000301	6433.922376	45271.435580	3918.955039	23335.908271
7.036500	-0.000664	0.000033	0.003156	0.000075	6423.986337	45284.386338	3926.293992	23346.572245
7.536500	0.001376	-0.000084	-0.003267	-0.000021	6441.600845	45282.311042	3910.224714	23351.101606
8.037500	-0.002198	-0.000584	0.001993	-0.000328	6414.690285	45263.435333	3924.349646	23365.580409
8.537500	0.001024	-0.000167	0.005078	-0.000161	6439.847784	45287.872728	3931.826842	23357.697778
9.037500	-0.000903	-0.000304	-0.000154	-0.000510	6426.829842	45308.565296	3919.343485	23374.187403
9.535000	-0.000840	0.000555	0.000000	0.000358	6420.209900	45307.650293	3917.529326	23333.217502
10.035500	0.001167	0.000086	0.003694	0.000252	6437.619117	45272.227095	3927.215497	23338.213651
10.536000	0.000000	0.000915	0.003411	0.000604	6425.093432	45318.719080	3925.590535	23321.620033
11.036000	0.000819	0.000000	-0.003083	-0.000071	6437.423262	45295.425352	3910.816765	23353.493047
11.535500	-0.001657	-0.000398	-0.001039	0.000000	6416.437614	45249.638585	3915.804437	23350.119986
12.036500	0.001180	0.000828	0.003541	0.000008	6439.743730	45368.506071	3927.450585	23349.740878
12.538500	-0.001166	-0.000652	-0.002253	-0.000327	6423.163538	45256.752320	3913.557903	23365.552463
13.034500	0.000210	-0.000382	0.000459	-0.000292	6434.212354	45279.725080	3920.347478	23363.902238
13.537500	-0.001126	0.000706	-0.001853	0.001567	6407.947661	45204.557585	3909.786469	23276.324865
14.035000	-0.000662	-0.000783	-0.003704	0.001836	6409.536884	45033.857585	3904.455210	23263.667239
14.535500	-0.002413	-0.000634	-0.003539	0.001935	6394.404755	45038.597781	3904.620651	23259.000409
15.038500	-0.001064	0.000147	0.001356	0.000462	6417.512891	45257.743678	3920.711722	23328.325637
15.536000	-0.000245	-0.000270	0.001978	0.001174	6418.393349	45147.886273	3920.484517	23294.799548
16.036000	0.001392	-0.000066	0.004043	0.000332	6438.824782	45249.703203	3927.905890	23334.467530
16.536500	0.001865	0.000278	0.001591	0.000432	6441.900062	45273.379332	3921.385434	23329.727188
17.037000	0.002585	0.000003	0.003546	-0.002084	6468.769367	45492.498148	3932.835569	23448.708824
17.537000	-0.001918	0.001243	-0.000336	0.002665	6392.500455	45150.062332	3910.843205	23224.771574
18.037500	-0.002490	-0.000395	0.001803	0.001777	6395.072807	45077.175505	3918.505002	23266.461161
18.535000	-0.001153	-0.000328	-0.002689	0.001934	6404.715509	45068.465848	3906.759307	23259.072814
19.035500	-0.001618	0.000522	0.004841	0.002461	6396.603580	45099.783004	3924.500730	23234.317569
19.535000	0.000253	0.000605	0.001804	0.002355	6412.787466	45118.186078	3917.042245	23239.320455
20.036000	-0.000389	0.000302	0.001172	0.002194	6408.848773	45104.432872	3915.847644	23246.874156
20.536000	-0.000088	-0.000492	0.001198	0.001778	6414.723388	45067.709214	3916.967125	23266.414174
21.036000	-0.001629	-0.000040	0.002457	0.001795	6401.963606	45109.925051	3920.123889	23265.617303
21.536500	-0.001950	0.000081	-0.002296	0.001859	6398.809222	45115.390367	3907.935352	23262.571942
22.036500	-0.001196	0.000257	0.003581	0.002380	6400.718167	45081.954556	3921.493330	23238.132367
22.537000	-0.002312	0.000602	0.001480	0.002108	6393.826528	45141.922028	3916.845475	23250.910377
23.037500	-0.002350	0.000237	0.000223	0.002385	6391.256350	45079.568381	3912.961566	23237.900260
23.535000	0.000292	-0.000275	0.000913	0.001868	6417.105073	45079.967335	3916.015633	23262.168652
24.035500	-0.000115	0.000601	0.004352	0.002403	6409.383916	45113.099463	3923.401993	23237.069072
24.536000	-0.000690	-0.000346	0.005313	0.001419	6412.726694	45116.682423	3928.375774	23283.275026
25.036000	-0.004076	-0.000581	0.001047	0.000894	6389.343205	45144.937741	3918.829878	23307.993420
25.536000	0.000267	-0.000581	-0.000667	0.001066	6423.494080	45128.105943	3914.045431	23299.872372
26.036500	-0.000717	0.000629	0.002911	0.002264	6405.587617	45129.326789	3920.084521	23243.592571
26.537000	-0.000138	0.001049	0.001387	0.002612	6407.471858	45136.242293	3915.330198	23227.225248
27.037000	0.001228	0.000298	0.008119	-0.000426	6443.730893	45359.118168	3940.359570	23370.227199
27.539000	-0.001167	0.000459	0.004527	-0.000646	6425.776553	45396.341635	3931.658096	23380.613950
28.035000	0.001622	0.000264	0.004369	0.000138	6442.326211	45300.696667	3929.239113	23343.601604
28.535000	0.001207	-0.000459	-0.005402	-0.000314	6442.630073	45274.369756	3905.591439	23364.958187
29.035000	0.000644	-0.000045	-0.001777	0.000202	6433.721482	45264.448042	3913.423412	23340.602382
29.535500	-0.001072	-0.001014	0.001303	0.000209	6419.529151	45169.349464	3921.220974	23340.244940
30.035500	0.001344	0.000355	0.004363	0.000446	6437.477166	45279.586212	3928.433096	23329.067274
30.536000	-0.000792	-0.000270	0.001374	0.002865	6400.060887	44983.904150	3914.659343	23215.389004
31.037000	-0.004803	-0.000371	-0.002079	0.001948	6374.854424	45062.903796	3908.258041	23258.400694
31.537000	-0.001794	-0.000629	0.005317	0.000558	6410.740721	45172.817251	3930.594129	23323.804731
32.037500	-0.000625	-0.000142	0.002818	-0.000212	6426.674996	45295.329459	3926.163718	23360.147273
32.540000	-0.001435	0.000076	-0.000051	0.000076	6417.643181	45288.426003	3918.116109	23346.542168
33.034500	0.000442	-0.000127	0.001419	-0.000508	6437.910972	45325.627827	3923.346392	23374.113043
33.535000	0.001225	0.000295	0.004840	-0.000615	6445.268780	45377.296405	3932.384172	23379.170262
34.035000	-0.001660	-0.001128	0.000995	0.001234	6406.298407	45058.762562	3917.834148	23291.999127
34.535500	-0.000115	-0.000471	0.004853	0.001797	6414.350552	45067.910870	3926.231110	23265.518487
35.036500	-0.001443	-0.000669	0.004309	0.001431	6406.460516	45084.125451	3925.772725	23282.700607
35.536500	-0.001622	-0.000133	-0.000983	0.001688	6402.892930	45111.280682	3911.676507	23270.650426
36.037000	0.000303	0.000637	0.003362	0.002293	6413.713134	45127.272386	3921.157782	23242.225466
36.537000	-0.001673	-0.000264	-0.001579	0.001365	6405.120608	45129.901177	3910.986940	23285.819579
37.037500	0.000116	0.000397	-0.000115	0.002082	6413.901726	45124.395009	3912.871934	23252.106110
37.535000	0.000170	0.000518	-0.000740	0.002015	6414.901407	45142.730242	3911.462969	23255.267914
38.035000	-0.001373	-0.000498	-0.001278	0.001514	6406.352410	45092.729895	3911.371014	23278.813916
38.535000	0.000115	0.000293	0.004160	0.001703	6417.007640	45151.157604	3924.697054	23269.920550
39.036000	0.000390	-0.000239	0.000560	0.001755	6418.837531	45094.412354	3915.406318	23267.465067
39.536000	0.001151	-0.000071	0.001311	0.001851	6424.309122	45101.533505	3917.069598	23262.987688
40.036000	0.000978	0.000142	-0.000055	0.001682	6424.279477	45138.584741	3914.035740	23270.919286
40.539500	-0.001649	0.000409	0.000138	0.001934	6400.659717	45140.055089	3913.887805	23259.068453
41.037000	0.000980	-0.000173	0.001479	0.001584	6425.100547	45117.472969	3918.172691	23275.539068
41.537000	-0.000838	0.000001	0.003769	0.001589	6410.122177	45133.848721	3923.989981	23275.269428
42.040000	-0.000044	-0.000285	0.003261	0.001769	6415.157886	45088.637514	3922.236758	23266.831839
42.535000	-0.002024	-0.000268	0.002092	0.001402	6401.944732	45126.003273	3920.195636	23284.094361
43.035000	-0.001637	-0.000286	-0.002473	0.001668	6402.932555	45098.362461	3907.969160	23271.561449
43.536000	0.000435	0.000432	0.000276	0.002143	6416.021694	45121.957877	3913.706062	23249.242464
44.035500	0.000342	0.000298	0.001759	0.000292	6430.480139	45288.995612	3922.171019	23336.339476
44.536000	0.001572	0.000451	0.004503	0.000283	6440.705267	45304.747117	3929.208989	23336.747761
45.039000	-0.001475	-0.000572	-0.000982	-0.000567	6422.594303	45287.991235	3917.386124	23376.905490
45.537000	-0.000752	-0.000203	0.001508	0.000777	6417.495943	45193.057618	3920.298264	23313.504071
46.037000	-0.001185	0.000074	-0.000917	0.001546	6407.629075	45145.164519	3912.201079	23277.302666
46.540000	0.000258	0.000666	0.006192	0.000630	6427.003711	45291.944272	3932.658629	23320.395514
47.034500	0.000239	-0.000394	-0.002265	-0.000273	6434.298128	45276.655661	3913.392083	23363.010736
47.535000	-0.001967	0.000886	0.005209	0.003454	6385.672256	45038.825877	3922.907923	23187.815686
48.035500	0.000874	0.000414	-0.000816	0.002424	6417.323557	45092.907857	3910.241550	23236.077737
48.536000	-0.001941	-0.000580	-0.001877	-0.000472	6417.988249	45277.911115	3914.877149	23372.413700
49.036500	-0.001258	-0.000754	0.006286	-0.001182	6429.447107	45330.212894	3937.572678	23405.968283
49.536500	0.002260	0.000080	-0.001136	-0.001077	6457.683691	45401.474722	3918.289520	23401.023926
50.036500	-0.000699	-0.000285	0.003189	0.000608	6419.312149	45201.461707	3925.015164	23321.435912
50.537000	0.001839	0.000446	0.004239	-0.001276	6455.845450	45456.741989	3932.537512	23410.430806
51.036500	0.033864	-0.021957	0.110879	0.586443	3853.308502	13373.740815	3184.311269	8168.860554
51.537500	0.004035	-0.020443	-0.003192	0.048655	6080.551003	39059.260117	3794.297550	21178.287859
52.035000	0.005320	-0.070567	-0.025654	-0.226513	8955.276050	63583.428906	4567.140397	37380.112481
52.535500	0.011902	-0.082526	-0.011446	-0.247700	9358.375795	64885.803997	4715.896889	39105.977822
53.035500	0.016533	-0.081663	0.000481	-0.247955	9432.001553	65045.311411	4769.961914	39127.221727
53.535500	0.015920	-0.055709	0.003047	-0.210848	8884.480112	63470.773208	4620.522242	36157.051816
54.036000	0.020150	-0.033198	0.010203	-0.169910	8395.426508	60956.203941	4485.419368	33161.598045
54.536500	0.012905	-0.023803	0.017730	-0.134418	7875.752116	57572.657594	4381.262772	30783.600398
55.036500	0.015778	-0.014125	0.014362	-0.107308	7602.978131	55423.244783	4275.133049	29093.735792
55.537000	0.033999	-0.010845	0.029952	-0.118983	7941.664769	57261.868948	4369.720682	29808.568038
56.040000	0.045628	-0.004121	0.044643	-0.069274	7514.261451	52142.905953	4249.303219	26893.858319
56.535000	0.068307	0.010671	0.068006	-0.037797	7420.730758	50288.469181	4222.762943	25213.457465
57.034500	0.091303	0.026451	0.093226	0.046326	6820.670246	43394.031303	4044.242983	21276.800863
57.535500	0.116208	0.043947	0.124091	0.112208	6463.189078	39128.968852	3949.040164	18684.345568
58.035500	0.142572	0.056977	0.147242	0.182714	6114.029676	34643.014121	3831.917194	16312.780626
58.536000	0.166783	0.073116	0.180150	0.227400	5963.734600	32626.099650	3804.714910	14997.240351
59.036500	0.188443	0.086542	0.202681	0.273713	5791.921846	30461.138967	3751.988824	13769.383834
59.536500	0.209390	0.101199	0.224206	0.319542	5628.134804	28555.029461	3701.007611	12676.665623
60.036500	0.229783	0.113656	0.245594	0.355180	5532.321637	27223.678454	3672.418535	11903.160325
60.536500	0.248050	0.126002	0.266346	0.392197	5419.000092	25882.664645	3640.911019	11164.170295
61.037500	0.264359	0.132267	0.290413	0.444298	5215.792664	23584.634055	3589.297269	10225.190261
61.535000	0.274278	0.141985	0.297631	0.456290	5204.534751	23476.814482	3580.835909	10024.558940
62.035000	0.285021	0.153380	0.304091	0.458154	5253.151581	23932.503601	3588.979383	9993.858111
62.535000	0.293446	0.158803	0.311909	0.465754	5257.723543	23827.492282	3589.368345	9870.073291
63.035500	0.297625	0.163128	0.317423	0.467956	5268.705213	23929.893121	3595.294116	9834.611208
63.535500	0.304437	0.166292	0.321967	0.468418	5304.327966	24060.881745	3602.660267	9827.198137
64.036500	0.306955	0.169601	0.328510	0.476080	5275.430099	23850.217225	3600.634619	9705.324818
64.536500	0.314917	0.174029	0.331773	0.476034	5320.564868	24066.797559	3606.642070	9706.064683
65.037000	0.316675	0.177016	0.333709	0.480857	5303.188755	23977.629829	3601.397671	9630.427365
65.540000	0.319004	0.177816	0.337971	0.483201	5303.104514	23902.983291	3604.878193	9593.974215
66.035000	0.323117	0.182780	0.343313	0.495646	5256.500288	23544.994733	3592.068152	9403.707115
66.535000	0.325816	0.183366	0.343805	0.491241	5296.181797	23783.133089	3600.877902	9470.429949
67.035000	0.328102	0.185221	0.348391	0.495653	5284.235278	23660.754072	3601.192483	9403.596118
67.535500	0.329309	0.188219	0.345803	0.501969	5255.773589	23503.116215	3585.242962	9309.102188
68.035500	0.330337	0.187286	0.339988	0.509899	5217.848204	23087.685081	3561.255763	9192.375968
68.536500	0.334069	0.189574	0.355598	0.509415	5240.945667	23216.719059	3589.420485	9199.450569
69.036000	0.336393	0.189899	0.352525	0.511520	5242.147577	23133.775055	3580.242517	9168.779939
69.537000	0.336630	0.192256	0.348552	0.515531	5221.454132	23057.019547	3566.308951	9110.772186
70.037500	0.334761	0.194777	0.355928	0.524729	5161.796539	22750.053127	3563.164581	8979.737121
70.537500	0.340063	0.194678	0.362055	0.521810	5205.965966	22879.113069	3578.906436	9021.022150
71.037000	0.343713	0.197450	0.367834	0.527244	5196.312147	22757.327538	3579.514701	8944.401708
71.535000	0.341004	0.197034	0.363034	0.529631	5168.947918	22629.810600	3566.969667	8911.038982
72.037500	0.341550	0.197403	0.359790	0.530376	5167.882030	22612.718937	3560.096089	8900.655903
72.536000	0.343789	0.199955	0.364058	0.535038	5154.988598	22517.431229	3559.422376	8836.149258
73.036000	0.344761	0.201061	0.361227	0.536820	5150.696881	22486.969803	3551.559677	8811.669494
73.536000	0.342477	0.199164	0.371277	0.537496	5135.067307	22371.481865	3567.624444	8802.403756
74.036500	0.343011	0.199574	0.364082	0.545035	5098.515231	22055.136770	3542.527680	8700.113951
74.537000	0.346723	0.202110	0.363389	0.541920	5134.132697	22305.483643	3546.595811	8742.170037
75.039500	0.347684	0.201790	0.368623	0.542644	5135.385152	22258.997481	3554.229068	8732.371214
75.534000	0.349254	0.201881	0.371241	0.542825	5142.703581	22255.014835	3558.388551	8729.925538
76.035000	0.344552	0.203601	0.364387	0.549698	5082.412424	22027.182626	3535.267326	8637.735332
76.535000	0.346883	0.203488	0.372281	0.545003	5118.813359	22229.615031	3556.442845	8700.548257
77.035500	0.350244	0.204947	0.373539	0.545188	5135.463168	22286.262942	3558.276300	8698.056647
77.535500	0.348111	0.204238	0.371557	0.544549	5127.618786	22283.146117	3555.982807	8706.655857
78.035500	0.347644	0.204564	0.371364	0.551406	5089.534108	21994.449212	3544.055661	8615.043469
78.536500	0.350963	0.206675	0.372285	0.546915	5130.165297	22286.302054	3553.193883	8674.879795
79.037000	0.355482	0.209563	0.367745	0.548677	5144.683674	22336.535440	3542.563451	8651.331807
79.539500	0.354575	0.208154	0.379234	0.548414	5141.285460	22285.441397	3562.512730	8654.838335
80.037000	0.352438	0.207855	0.368625	0.555764	5091.784960	21947.669311	3532.240680	8557.560230
80.534500	0.357345	0.208380	0.377805	0.549983	5147.629950	22225.704109	3557.371028	8633.938345
81.035000	0.354081	0.208998	0.376571	0.551347	5123.279636	22192.595124	3552.945420	8615.826288
81.535500	0.357044	0.207244	0.374275	0.550862	5141.394751	22136.393683	3549.874828	8622.252982
82.036000	0.354153	0.209153	0.374707	0.558406	5087.007508	21888.957494	3537.945048	8523.003336
82.537000	0.353737	0.206191	0.369268	0.550839	5124.140431	22090.957474	3541.493719	8622.570486
83.036500	0.356675	0.208126	0.375513	0.553364	5126.300519	22064.944921	3547.740613	8589.149163
83.536500	0.358994	0.207666	0.377064	0.554228	5133.939807	22006.703011	3548.899909	8577.754442
84.037000	0.356074	0.207786	0.380288	0.560578	5085.712167	21735.168449	3543.638296	8494.742074
84.537000	0.357133	0.206302	0.382106	0.553210	5129.509054	21991.529025	3559.208323	8591.176717
85.034000	0.358664	0.206016	0.379992	0.553486	5136.107998	21966.897537	3555.126594	8587.536209
85.534500	0.360484	0.205422	0.377651	0.554079	5142.576009	21915.002951	3550.144481	8579.721262
86.035500	0.355846	0.204508	0.373324	0.559743	5088.843032	21629.772239	3533.432286	8505.595103
86.535000	0.358023	0.203919	0.383908	0.552209	5139.458780	21931.018294	3564.025596	8604.409518
87.035500	0.357789	0.204315	0.379805	0.553095	5133.557879	21909.594910	3555.472728	8592.693834
87.536000	0.361995	0.203565	0.379999	0.552928	5156.670609	21884.201167	3556.090771	8594.910717
88.036500	0.362046	0.204327	0.380757	0.554238	5149.987326	21860.270264	3555.148231	8577.623800
88.537000	0.361688	0.203150	0.380597	0.552895	5155.210985	21867.529386	3557.166821	8595.341831
89.037000	0.362252	0.204317	0.373858	0.554005	5152.315353	21869.985287	3543.879926	8580.699994
89.534500	0.360731	0.200734	0.382722	0.552300	5153.295271	21788.321163	3561.829171	8603.211525
90.034500	0.360526	0.200813	0.382844	0.553099	5147.976254	21757.108176	3560.665967	8592.651720
90.535000	0.361875	0.202365	0.383058	0.554703	5146.626019	21754.839758	3558.284494	8571.513099
91.035500	0.365811	0.202798	0.387050	0.555973	5160.765384	21718.611787	3562.954659	8554.823888
91.536000	0.363516	0.200486	0.382104	0.555311	5152.089754	21647.393924	3555.614277	8563.510541
92.036000	0.363649	0.201555	0.381768	0.556045	5148.907257	21661.828854	3553.793284	8553.874271
92.536500	0.363677	0.202241	0.378880	0.557560	5141.055068	21626.116549	3546.344197	8534.045603
93.036500	0.367330	0.200794	0.389365	0.557632	5160.019070	21560.898692	3564.084881	8533.102997
93.539500	0.365787	0.200315	0.388794	0.558305	5148.267566	21511.583842	3561.943367	8524.322882
94.037000	0.363531	0.199915	0.383677	0.564491	5104.030598	21232.070640	3542.761048	8444.189053
94.537000	0.367930	0.201791	0.388464	0.561010	5145.292881	21459.082292	3556.743294	8489.136006
95.035000	0.363439	0.199492	0.380299	0.559731	5128.386642	21415.661631	3545.079794	8505.748635
95.535000	0.363373	0.200822	0.387014	0.562441	5113.864807	21357.015806	3551.839469	8470.609318
96.035500	0.361590	0.199869	0.381993	0.566689	5082.650473	21137.777494	3536.285744	8415.981125
