sample name	sample
index	581
start time	 03-16-2021  03:47:05 PM


Wavelength (nm)	Absorbance
494.344910	0.035829
494.563924	0.035829
494.782919	0.035829
495.001897	0.279896
495.220856	-0.061954
495.439797	-0.084261
495.658719	-0.045259
495.877624	-0.075636
496.096510	-0.066619
496.315378	-0.043405
496.534227	0.007007
496.753059	0.009408
496.971872	-0.003226
497.190667	0.093078
497.409444	0.111287
497.628203	0.108906
497.846943	0.114052
498.065665	0.114836
498.284369	0.116574
498.503055	0.118141
498.721723	0.118112
498.940372	0.120407
499.159003	0.117994
499.377616	0.118753
499.596210	0.119442
499.814787	0.118185
500.033345	0.118393
500.251885	0.118082
500.470406	0.117248
500.688910	0.117590
500.907395	0.116121
501.125862	0.118472
501.344311	0.117895
501.562742	0.117085
501.781154	0.119129
501.999548	0.118187
502.217924	0.117540
502.436282	0.119153
502.654621	0.119533
502.872942	0.119667
503.091245	0.119869
503.309530	0.119873
503.527797	0.120560
503.746045	0.119475
503.964275	0.119861
504.182487	0.119745
504.400681	0.119502
504.618856	0.118921
504.837013	0.119483
505.055152	0.119779
505.273273	0.120913
505.491376	0.121032
505.709460	0.121139
505.927526	0.121295
506.145574	0.122417
506.363604	0.121740
506.581615	0.123057
506.799608	0.123056
507.017583	0.123052
507.235540	0.123113
507.453478	0.123988
507.671399	0.125360
507.889301	0.125840
508.107185	0.125059
508.325050	0.126530
508.542898	0.126468
508.760727	0.127046
508.978538	0.127455
509.196330	0.126168
509.414105	0.125106
509.631861	0.124916
509.849599	0.124682
510.067319	0.124810
510.285021	0.123767
510.502704	0.123366
510.720369	0.123575
510.938016	0.123945
511.155645	0.124337
511.373255	0.125026
511.590848	0.124349
511.808422	0.124488
512.025977	0.125841
512.243515	0.126251
512.461034	0.127528
512.678536	0.127592
512.896018	0.127567
513.113483	0.127617
513.330930	0.128471
513.548358	0.129341
513.765768	0.129484
513.983160	0.128699
514.200533	0.130041
514.417889	0.129212
514.635226	0.129759
514.852545	0.129585
515.069845	0.130374
515.287128	0.130366
515.504392	0.130726
515.721638	0.131089
515.938866	0.131696
516.156075	0.130623
516.373267	0.132007
516.590440	0.131532
516.807594	0.131186
517.024731	0.130739
517.241850	0.130789
517.458950	0.130758
517.676032	0.130449
517.893095	0.129825
518.110141	0.129985
518.327168	0.128967
518.544177	0.128509
518.761168	0.129507
518.978141	0.130128
519.195095	0.130114
519.412031	0.130041
519.628949	0.131317
519.845849	0.131705
520.062731	0.132284
520.279594	0.133251
520.496439	0.134381
520.713266	0.134188
520.930074	0.134039
521.146865	0.135253
521.363637	0.135721
521.580391	0.134539
521.797127	0.135125
522.013844	0.135224
522.230543	0.134980
522.447224	0.134000
522.663887	0.133530
522.880532	0.135432
523.097158	0.134489
523.313766	0.135336
523.530356	0.136714
523.746928	0.137364
523.963481	0.137363
524.180017	0.138205
524.396534	0.139524
524.613032	0.140857
524.829513	0.140408
525.045975	0.141761
525.262420	0.141454
525.478845	0.141175
525.695253	0.141319
525.911643	0.141556
526.128014	0.142210
526.344367	0.142156
526.560702	0.142457
526.777018	0.142673
526.993316	0.142307
527.209597	0.142019
527.425858	0.143306
527.642102	0.143963
527.858328	0.144544
528.074535	0.143554
528.290724	0.144457
528.506894	0.144505
528.723047	0.144824
528.939181	0.144846
529.155297	0.145689
529.371395	0.146069
529.587475	0.146699
529.803536	0.147013
530.019579	0.148310
530.235604	0.148444
530.451611	0.148794
530.667600	0.149443
530.883570	0.150395
531.099522	0.150676
531.315456	0.150397
531.531372	0.149879
531.747269	0.149863
531.963148	0.150651
532.179009	0.150876
532.394852	0.151383
532.610676	0.150943
532.826482	0.151655
533.042271	0.152394
533.258040	0.152868
533.473792	0.152497
533.689525	0.152266
533.905240	0.151849
534.120937	0.152654
534.336616	0.152559
534.552277	0.152889
534.767919	0.152006
534.983543	0.152417
535.199149	0.152536
535.414736	0.153589
535.630306	0.154418
535.845857	0.154811
536.061390	0.155196
536.276904	0.156053
536.492401	0.156066
536.707879	0.156880
536.923339	0.156542
537.138781	0.156329
537.354204	0.157049
537.569610	0.157370
537.784997	0.157456
538.000366	0.157686
538.215716	0.157598
538.431049	0.158543
538.646363	0.158620
538.861659	0.158362
539.076937	0.158710
539.292196	0.158155
539.507438	0.159246
539.722661	0.159696
539.937866	0.159681
540.153052	0.159978
540.368221	0.159950
540.583371	0.160328
540.798503	0.161353
541.013617	0.162374
541.228712	0.162604
541.443789	0.162496
541.658848	0.162946
541.873889	0.163414
542.088912	0.163067
542.303916	0.163947
542.518902	0.163878
542.733870	0.164484
542.948820	0.164514
543.163752	0.164955
543.378665	0.164889
543.593560	0.165156
543.808437	0.165010
544.023295	0.166011
544.238136	0.165994
544.452958	0.166740
544.667762	0.167022
544.882548	0.167264
545.097315	0.168028
545.312064	0.168316
545.526795	0.168797
545.741508	0.169026
545.956203	0.169087
546.170879	0.169462
546.385537	0.169033
546.600177	0.168800
546.814799	0.168852
547.029402	0.169041
547.243988	0.169689
547.458555	0.169973
547.673103	0.170742
547.887634	0.171130
548.102146	0.171040
548.316640	0.171851
548.531116	0.171940
548.745574	0.172311
548.960013	0.172493
549.174435	0.172616
549.388838	0.172556
549.603222	0.172859
549.817589	0.173053
550.031937	0.173687
550.246267	0.173655
550.460579	0.174252
550.674873	0.174514
550.889148	0.174692
551.103405	0.174563
551.317644	0.174657
551.531865	0.174354
551.746068	0.174363
551.960252	0.174558
552.174418	0.174753
552.388566	0.175062
552.602696	0.175326
552.816807	0.175357
553.030900	0.175846
553.244975	0.176066
553.459032	0.176813
553.673070	0.177359
553.887091	0.177327
554.101093	0.177758
554.315077	0.177799
554.529042	0.178311
554.742990	0.178824
554.956919	0.178649
555.170830	0.178927
555.384722	0.178831
555.598597	0.178680
555.812453	0.178884
556.026291	0.179440
556.240111	0.179664
556.453913	0.179709
556.667696	0.179689
556.881461	0.180683
557.095208	0.181131
557.308937	0.180926
557.522647	0.181770
557.736339	0.182468
557.950013	0.183003
558.163669	0.183013
558.377307	0.183668
558.590926	0.183889
558.804527	0.183930
559.018110	0.183694
559.231675	0.184503
559.445221	0.184488
559.658749	0.184288
559.872259	0.184094
560.085751	0.184236
560.299225	0.183624
560.512680	0.184317
560.726117	0.184158
560.939536	0.184951
561.152937	0.184955
561.366319	0.185132
561.579683	0.185390
561.793029	0.185099
562.006357	0.185355
562.219667	0.185905
562.432958	0.185738
562.646231	0.185960
562.859486	0.185560
563.072723	0.185182
563.285941	0.185583
563.499141	0.185616
563.712323	0.186251
563.925487	0.186521
564.138632	0.186515
564.351760	0.186451
564.564869	0.186617
564.777960	0.186926
564.991032	0.187504
565.204087	0.187091
565.417123	0.187230
565.630141	0.187743
565.843140	0.187533
566.056122	0.187479
566.269085	0.187465
566.482030	0.187412
566.694957	0.187725
566.907866	0.187761
567.120756	0.187881
567.333628	0.187653
567.546482	0.187437
567.759318	0.188185
567.972135	0.188831
568.184935	0.189219
568.397716	0.188999
568.610478	0.189000
568.823223	0.189232
569.035949	0.189330
569.248657	0.189898
569.461347	0.189758
569.674019	0.189887
569.886672	0.189463
570.099308	0.189155
570.311925	0.189620
570.524523	0.189596
570.737104	0.189875
570.949666	0.189973
571.162210	0.190019
571.374736	0.190281
571.587244	0.190017
571.799733	0.190572
572.012205	0.191420
572.224658	0.191942
572.437092	0.192068
572.649509	0.191753
572.861907	0.192182
573.074287	0.192454
573.286649	0.192626
573.498993	0.193192
573.711318	0.193065
573.923625	0.192871
574.135914	0.193038
574.348185	0.193266
574.560438	0.193987
574.772672	0.193812
574.984888	0.193613
575.197086	0.193778
575.409266	0.193730
575.621427	0.193998
575.833570	0.194395
576.045695	0.194259
576.257802	0.194688
576.469890	0.194905
576.681961	0.195614
576.894013	0.196027
577.106046	0.196111
577.318062	0.195988
577.530059	0.196037
577.742039	0.195693
577.954000	0.195645
578.165942	0.195637
578.377867	0.195351
578.589773	0.194806
578.801661	0.194683
579.013531	0.194572
579.225382	0.194749
579.437216	0.195265
579.649031	0.195794
579.860828	0.196042
580.072606	0.196003
580.284367	0.196380
580.496109	0.196680
580.707833	0.196677
580.919539	0.196687
581.131227	0.197161
581.342896	0.197015
581.554547	0.197230
581.766180	0.197727
581.977795	0.197877
582.189391	0.198031
582.400969	0.198103
582.612529	0.198586
582.824071	0.199051
583.035595	0.199034
583.247100	0.199200
583.458587	0.198547
583.670056	0.198442
583.881506	0.198578
584.092939	0.198624
584.304353	0.199070
584.515749	0.199223
584.727127	0.199358
584.938486	0.199354
585.149828	0.199360
585.361151	0.200046
585.572456	0.200042
585.783742	0.200221
585.995011	0.200195
586.206261	0.200446
586.417493	0.200558
586.628706	0.200738
586.839902	0.201191
587.051079	0.201294
587.262238	0.201580
587.473379	0.202155
587.684502	0.202211
587.895606	0.202070
588.106692	0.202417
588.317760	0.202370
588.528810	0.202579
588.739841	0.202252
588.950855	0.202504
589.161850	0.202709
589.372827	0.202724
589.583785	0.202904
589.794726	0.203196
590.005648	0.202777
590.216552	0.203351
590.427437	0.203541
590.638305	0.203686
590.849154	0.203565
591.059985	0.203623
591.270798	0.203452
591.481592	0.203758
591.692369	0.203982
591.903127	0.204389
592.113867	0.204588
592.324588	0.204872
592.535292	0.205031
592.745977	0.205451
592.956644	0.205705
593.167293	0.206133
593.377923	0.206070
593.588536	0.206418
593.799130	0.206630
594.009706	0.206214
594.220263	0.206133
594.430803	0.206522
594.641324	0.206542
594.851827	0.205885
595.062312	0.206165
595.272778	0.206495
595.483227	0.206734
595.693657	0.206811
595.904069	0.207275
596.114462	0.207720
596.324838	0.208064
596.535195	0.208430
596.745534	0.209512
596.955855	0.209004
597.166157	0.209247
597.376441	0.209285
597.586707	0.209515
597.796955	0.209446
598.007185	0.209145
598.217396	0.209319
598.427589	0.209414
598.637764	0.208994
598.847921	0.209891
599.058060	0.209421
599.268180	0.209645
599.478282	0.209991
599.688366	0.210256
599.898431	0.210223
600.108479	0.210617
600.318508	0.210357
600.528519	0.210981
600.738511	0.211212
600.948486	0.211495
601.158442	0.211588
601.368380	0.211161
601.578300	0.211397
601.788202	0.211764
601.998085	0.211318
602.207950	0.211467
602.417797	0.211490
602.627626	0.211029
602.837436	0.211573
603.047228	0.211641
603.257002	0.211905
603.466758	0.212230
603.676496	0.212562
603.886215	0.212989
604.095916	0.213773
604.305599	0.214072
604.515264	0.214655
604.724910	0.214698
604.934538	0.214896
605.144148	0.215425
605.353740	0.215463
605.563314	0.215196
605.772869	0.215434
605.982406	0.215135
606.191925	0.215211
606.401425	0.215201
606.610908	0.215543
606.820372	0.215697
607.029818	0.215425
607.239246	0.215647
607.448655	0.216375
607.658047	0.216330
607.867420	0.216911
608.076775	0.216986
608.286111	0.217313
608.495430	0.217093
608.704730	0.217269
608.914012	0.217593
609.123275	0.217489
609.332521	0.217314
609.541748	0.217237
609.750957	0.217193
609.960148	0.217165
610.169321	0.217222
610.378475	0.217889
610.587611	0.217988
610.796729	0.217822
611.005829	0.218086
611.214910	0.217902
611.423974	0.218265
611.633019	0.218568
611.842045	0.218770
612.051054	0.218830
612.260044	0.218729
612.469017	0.218979
612.677970	0.219650
612.886906	0.219893
613.095824	0.220129
613.304723	0.220411
613.513604	0.220157
613.722467	0.220325
613.931311	0.220262
614.140138	0.220498
614.348946	0.220454
614.557736	0.220494
614.766507	0.220593
614.975261	0.220917
615.183996	0.220974
615.392713	0.221388
615.601412	0.221559
615.810092	0.221831
616.018754	0.221977
616.227399	0.222086
616.436024	0.222292
616.644632	0.222298
616.853222	0.222457
617.061793	0.222637
617.270346	0.222369
617.478880	0.222345
617.687397	0.222644
617.895895	0.222585
618.104375	0.222949
618.312837	0.223062
618.521281	0.222919
618.729706	0.223039
618.938113	0.222780
619.146502	0.223049
619.354873	0.223170
619.563226	0.223079
619.771560	0.223146
619.979876	0.223531
620.188174	0.223889
620.396453	0.224383
620.604715	0.224865
620.812958	0.225097
621.021183	0.225329
621.229390	0.225640
621.437578	0.225944
621.645748	0.226115
621.853900	0.225859
622.062034	0.225581
622.270150	0.225840
622.478247	0.225570
622.686326	0.226002
622.894387	0.226011
623.102430	0.226438
623.310454	0.226784
623.518461	0.227363
623.726449	0.227501
623.934418	0.227861
624.142370	0.227755
624.350303	0.227854
624.558218	0.227952
624.766115	0.228276
624.973994	0.228264
625.181855	0.227973
625.389697	0.227707
625.597521	0.227765
625.805327	0.227847
626.013114	0.227885
626.220883	0.227988
626.428634	0.227987
626.636367	0.228222
626.844082	0.228513
627.051778	0.228866
627.259457	0.228877
627.467117	0.229081
627.674758	0.229160
627.882382	0.229512
628.089987	0.230130
628.297574	0.230338
628.505143	0.230361
628.712694	0.230373
628.920226	0.230496
629.127740	0.230707
629.335236	0.230687
629.542714	0.230717
629.750174	0.230688
629.957615	0.230463
630.165038	0.230735
630.372443	0.231114
630.579829	0.230926
630.787198	0.231122
630.994548	0.231060
631.201880	0.231404
631.409194	0.231558
631.616489	0.231919
631.823766	0.231985
632.031025	0.232371
632.238266	0.232558
632.445489	0.232768
632.652693	0.232896
632.859879	0.233382
633.067047	0.233675
633.274197	0.233946
633.481329	0.234083
633.688442	0.234706
633.895537	0.234577
634.102614	0.234614
634.309672	0.234965
634.516713	0.234847
634.723735	0.234880
634.930739	0.235118
635.137724	0.235193
635.344692	0.235565
635.551641	0.235392
635.758572	0.235289
635.965485	0.235191
636.172379	0.235375
636.379256	0.235571
636.586114	0.235887
636.792954	0.236146
636.999775	0.236419
637.206579	0.236141
637.413364	0.236330
637.620131	0.236862
637.826880	0.237298
638.033610	0.237132
638.240323	0.237765
638.447017	0.238101
638.653692	0.237759
638.860350	0.237974
639.066990	0.238306
639.273611	0.238579
639.480214	0.238928
639.686798	0.238621
639.893365	0.239105
640.099913	0.239066
640.306443	0.238879
640.512955	0.238901
640.719449	0.239178
640.925924	0.239490
641.132381	0.239589
641.338820	0.239364
641.545241	0.239806
641.751644	0.240168
641.958028	0.240329
642.164394	0.240762
642.370742	0.241329
642.577071	0.241085
642.783383	0.241177
642.989676	0.241427
643.195951	0.241862
643.402207	0.242200
643.608446	0.242015
643.814666	0.242374
644.020868	0.242471
644.227052	0.242946
644.433218	0.243512
644.639365	0.243657
644.845494	0.244000
645.051605	0.244110
645.257698	0.244218
645.463772	0.244537
645.669828	0.244495
645.875866	0.244780
646.081886	0.244392
646.287888	0.244584
646.493871	0.244854
646.699836	0.244562
646.905783	0.244610
647.111712	0.244736
647.317622	0.244846
647.523514	0.244959
647.729388	0.244939
647.935244	0.245425
648.141082	0.245257
648.346901	0.245429
648.552702	0.245997
648.758485	0.246133
648.964250	0.246253
649.169996	0.246444
649.375724	0.246568
649.581434	0.246807
649.787126	0.246833
649.992800	0.247304
650.198455	0.247337
650.404092	0.247488
650.609711	0.247981
650.815311	0.248375
651.020894	0.248702
651.226458	0.249193
651.432004	0.249530
651.637532	0.249970
651.843041	0.250039
652.048532	0.250223
652.254006	0.250217
652.459460	0.250274
652.664897	0.250370
652.870315	0.250368
653.075716	0.250646
653.281097	0.250297
653.486461	0.250720
653.691807	0.250891
653.897134	0.251442
654.102443	0.251549
654.307734	0.251724
654.513006	0.251821
654.718261	0.252165
654.923497	0.251983
655.128715	0.252412
655.333915	0.252364
655.539096	0.252469
655.744259	0.252313
655.949404	0.252532
656.154531	0.252733
656.359640	0.253005
656.564730	0.253081
656.769802	0.253191
656.974856	0.253380
657.179892	0.253611
657.384909	0.253797
657.589908	0.253915
657.794889	0.254226
657.999852	0.254194
658.204797	0.254413
658.409723	0.254846
658.614631	0.255571
658.819521	0.256076
659.024393	0.256175
659.229246	0.256527
659.434081	0.256698
659.638898	0.256991
659.843697	0.257320
660.048478	0.257516
660.253240	0.257580
660.457984	0.257520
660.662710	0.257505
660.867417	0.257578
661.072107	0.257580
661.276778	0.258065
661.481431	0.257810
661.686066	0.257808
661.890682	0.258217
662.095281	0.258509
662.299861	0.258556
662.504422	0.258945
662.708966	0.259148
662.913491	0.259325
663.117999	0.259647
663.322488	0.260258
663.526958	0.260651
663.731411	0.260683
663.935845	0.260991
664.140261	0.261544
664.344659	0.261523
664.549038	0.261926
664.753400	0.262331
664.957743	0.262229
665.162068	0.262397
665.366375	0.262592
665.570663	0.262869
665.774933	0.262935
665.979185	0.262851
666.183419	0.263230
666.387635	0.263435
666.591832	0.263404
666.796011	0.263708
667.000172	0.263836
667.204315	0.264398
667.408439	0.264386
667.612545	0.264612
667.816634	0.264928
668.020703	0.264929
668.224755	0.265174
668.428788	0.265631
668.632803	0.265838
668.836800	0.265951
669.040779	0.265773
669.244739	0.265832
669.448681	0.266131
669.652605	0.266523
669.856511	0.266724
670.060399	0.266939
670.264268	0.266990
670.468119	0.267213
670.671952	0.267708
670.875767	0.267977
671.079563	0.268226
671.283341	0.268173
671.487101	0.268073
671.690843	0.268414
671.894567	0.268455
672.098272	0.268785
672.301959	0.269129
672.505628	0.269510
672.709278	0.269656
672.912911	0.270229
673.116525	0.270510
673.320121	0.270723
673.523699	0.270974
673.727258	0.271292
673.930799	0.271288
674.134322	0.271366
674.337827	0.271209
674.541314	0.271383
674.744782	0.271464
674.948232	0.271609
675.151664	0.271876
675.355078	0.272143
675.558474	0.272546
675.761851	0.273115
675.965210	0.273376
676.168551	0.273816
676.371873	0.274561
676.575178	0.274876
676.778464	0.275329
676.981732	0.275613
677.184981	0.275795
677.388213	0.275923
677.591426	0.276415
677.794621	0.276762
677.997798	0.276682
678.200956	0.276497
678.404097	0.276815
678.607219	0.277018
678.810323	0.277337
679.013408	0.277667
679.216476	0.277636
679.419525	0.277300
679.622556	0.277344
679.825569	0.277993
680.028563	0.278387
680.231540	0.278414
680.434498	0.278325
680.637438	0.278535
680.840359	0.278609
681.043263	0.278797
681.246148	0.279087
681.449015	0.279266
681.651864	0.279151
681.854694	0.278829
682.057506	0.279025
682.260301	0.279487
682.463076	0.279176
682.665834	0.279386
682.868573	0.279984
683.071295	0.280157
683.273998	0.280276
683.476682	0.280449
683.679349	0.281081
683.881997	0.281203
684.084627	0.281347
684.287239	0.281970
684.489833	0.282203
684.692408	0.281941
684.894965	0.282177
685.097504	0.282388
685.300025	0.282717
685.502527	0.282862
685.705012	0.283028
685.907478	0.282967
686.109925	0.283017
686.312355	0.283025
686.514766	0.283442
686.717159	0.283711
686.919534	0.283770
687.121891	0.283945
687.324230	0.284143
687.526550	0.284351
687.728852	0.284685
687.931136	0.284659
688.133401	0.284975
688.335649	0.284980
688.537878	0.285281
688.740089	0.285743
688.942281	0.285923
689.144456	0.286278
689.346612	0.286710
689.548750	0.287181
689.750870	0.287661
689.952971	0.287845
690.155055	0.288028
690.357120	0.288019
690.559167	0.288016
690.761195	0.288410
690.963206	0.288493
691.165198	0.288525
691.367172	0.288585
691.569128	0.288553
691.771065	0.288631
691.972984	0.288707
692.174885	0.289066
692.376768	0.289235
692.578633	0.289149
692.780479	0.289018
692.982308	0.289155
693.184118	0.289304
693.385909	0.289310
693.587683	0.289505
693.789438	0.290164
693.991175	0.290103
694.192894	0.290181
694.394595	0.290454
694.596277	0.290635
694.797941	0.290762
694.999587	0.290639
695.201215	0.291185
695.402824	0.291427
695.604416	0.291358
695.805989	0.291609
696.007543	0.292114
696.209080	0.292003
696.410598	0.292253
696.612099	0.292590
696.813580	0.293023
697.015044	0.292797
697.216490	0.292950
697.417917	0.292942
697.619326	0.292992
697.820717	0.292899
698.022089	0.292914
698.223444	0.293075
698.424780	0.292924
698.626098	0.293049
698.827397	0.293606
699.028679	0.293671
699.229942	0.293703
699.431187	0.293707
699.632414	0.293727
699.833622	0.294142
700.034813	0.294156
700.235985	0.294174
700.437139	0.294034
700.638274	0.293975
700.839392	0.294129
701.040491	0.294246
701.241572	0.294378
701.442635	0.294463
701.643679	0.294338
701.844706	0.294439
702.045714	0.294763
702.246704	0.295062
702.447675	0.295145
702.648629	0.295015
702.849564	0.295200
703.050481	0.295538
703.251380	0.295616
703.452260	0.295921
703.653122	0.295837
703.853966	0.295810
704.054792	0.295683
704.255600	0.295834
704.456389	0.295973
704.657160	0.296004
704.857913	0.296182
705.058648	0.296573
705.259365	0.296674
705.460063	0.296725
705.660743	0.296767
705.861405	0.297020
706.062048	0.296985
706.262674	0.297234
706.463281	0.297083
706.663870	0.296513
706.864441	0.296309
707.064993	0.296283
707.265527	0.296450
707.466043	0.296663
707.666541	0.296484
707.867021	0.296664
708.067482	0.296732
708.267925	0.296669
708.468350	0.297012
708.668757	0.297086
708.869145	0.297243
709.069516	0.297109
709.269868	0.296915
709.470201	0.296848
709.670517	0.296646
709.870814	0.296237
710.071093	0.296410
710.271354	0.296360
710.471597	0.296315
710.671821	0.296201
710.872028	0.296590
711.072216	0.296758
711.272385	0.296724
711.472537	0.296819
711.672670	0.296802
711.872785	0.297020
712.072882	0.297227
712.272961	0.297284
712.473021	0.297042
712.673063	0.297024
712.873087	0.296682
713.073093	0.296747
713.273081	0.296703
713.473050	0.297022
713.673001	0.296777
713.872934	0.296608
714.072849	0.296457
714.272745	0.296677
714.472623	0.296543
714.672483	0.296835
714.872325	0.296800
715.072148	0.296604
715.271954	0.296320
715.471741	0.296461
715.671509	0.296483
715.871260	0.296629
716.070992	0.296605
716.270707	0.296418
716.470403	0.296291
716.670080	0.296338
716.869740	0.296185
717.069381	0.296077
717.269004	0.295828
717.468609	0.295512
717.668195	0.295357
717.867764	0.295172
718.067314	0.295130
718.266846	0.294945
718.466360	0.294944
718.665855	0.295002
718.865332	0.294939
719.064791	0.294936
719.264232	0.295249
719.463655	0.295320
719.663059	0.294992
719.862445	0.295001
720.061813	0.294771
720.261163	0.294628
720.460494	0.294847
720.659807	0.294877
720.859102	0.294650
721.058379	0.294265
721.257638	0.293979
721.456878	0.294095
721.656100	0.294097
721.855304	0.294126
722.054490	0.293952
722.253657	0.293743
722.452806	0.293643
722.651937	0.293632
722.851050	0.293541
723.050145	0.293233
723.249221	0.292985
723.448279	0.292772
723.647319	0.292559
723.846340	0.292182
724.045344	0.291719
724.244329	0.291495
724.443296	0.291466
724.642245	0.291352
724.841175	0.291394
725.040088	0.291544
725.238982	0.291319
725.437857	0.291565
725.636715	0.291572
725.835554	0.291620
726.034376	0.291830
726.233179	0.291635
726.431963	0.291376
726.630730	0.291130
726.829478	0.290718
727.028208	0.290609
727.226920	0.290159
727.425614	0.290279
727.624289	0.290369
727.822946	0.289682
728.021585	0.289696
728.220206	0.289684
728.418808	0.289606
728.617392	0.289577
728.815958	0.289369
729.014506	0.289046
729.213036	0.288605
729.411547	0.288167
729.610040	0.288242
729.808515	0.287792
730.006972	0.287778
730.205410	0.287639
730.403831	0.287456
730.602233	0.287113
730.800616	0.286860
730.998982	0.287001
731.197329	0.286902
731.395658	0.286793
731.593969	0.286552
731.792262	0.286213
731.990536	0.285779
732.188793	0.285454
732.387031	0.285416
732.585250	0.285477
732.783452	0.284978
732.981635	0.284495
733.179800	0.284196
733.377947	0.284196
733.576076	0.284071
733.774186	0.283847
733.972278	0.283796
734.170352	0.283555
734.368408	0.283460
734.566446	0.283335
734.764465	0.283419
734.962466	0.283225
735.160449	0.282905
735.358413	0.282847
735.556360	0.282628
735.754288	0.282093
735.952198	0.281665
736.150090	0.281245
736.347963	0.281107
736.545818	0.281056
736.743655	0.280731
736.941474	0.280701
737.139275	0.280535
737.337057	0.280376
737.534821	0.280385
737.732567	0.280348
737.930295	0.280296
738.128005	0.279840
738.325696	0.279305
738.523369	0.279195
738.721024	0.278947
738.918660	0.278478
739.116279	0.278620
739.313879	0.278577
739.511461	0.278280
739.709024	0.277947
739.906570	0.277980
740.104097	0.277587
740.301606	0.277236
740.499097	0.276747
740.696569	0.276518
740.894024	0.276102
741.091460	0.275576
741.288878	0.275490
741.486277	0.275232
741.683659	0.275150
741.881022	0.275074
742.078367	0.275026
742.275694	0.275174
742.473002	0.275104
742.670293	0.274998
742.867565	0.275312
743.064819	0.274960
743.262054	0.274809
743.459272	0.274575
743.656471	0.274585
743.853652	0.274343
744.050815	0.274244
744.247959	0.273931
744.445085	0.273673
744.642194	0.273124
744.839283	0.273249
745.036355	0.272855
745.233408	0.272509
745.430444	0.272204
745.627461	0.272359
745.824459	0.271994
746.021440	0.271900
746.218402	0.271732
746.415346	0.271602
746.612272	0.271282
746.809180	0.271458
747.006069	0.271010
747.202940	0.270862
747.399793	0.270726
747.596628	0.270534
747.793444	0.270574
747.990243	0.270497
748.187023	0.270332
748.383784	0.270027
748.580528	0.269814
748.777253	0.269919
748.973960	0.269677
749.170649	0.269104
749.367320	0.268893
749.563973	0.268224
749.760607	0.267901
749.957223	0.267644
750.153821	0.267832
750.350400	0.267748
750.546962	0.267610
750.743505	0.267670
750.940030	0.267759
751.136536	0.267794
751.333025	0.267667
751.529495	0.267610
751.725947	0.267572
751.922381	0.267061
752.118796	0.266865
752.315194	0.266583
752.511573	0.266200
752.707934	0.265904
752.904276	0.265244
753.100601	0.265053
753.296907	0.265109
753.493195	0.264526
753.689465	0.264458
753.885716	0.264181
754.081949	0.263989
754.278164	0.263977
754.474361	0.263640
754.670540	0.263726
754.866700	0.263530
755.062843	0.262974
755.258967	0.263088
755.455072	0.262743
755.651160	0.262681
755.847229	0.262328
756.043280	0.262056
756.239313	0.262120
756.435328	0.261703
756.631324	0.261718
756.827302	0.261708
757.023262	0.261861
757.219204	0.262076
757.415127	0.261741
757.611033	0.261684
757.806920	0.261592
758.002788	0.261290
758.198639	0.261383
758.394471	0.261118
758.590286	0.260991
758.786081	0.260663
758.981859	0.260356
759.177619	0.260352
759.373360	0.260222
759.569083	0.260326
759.764788	0.260261
759.960474	0.260235
760.156143	0.260308
760.351793	0.260187
760.547425	0.259941
760.743038	0.259879
760.938634	0.259843
761.134211	0.259975
761.329770	0.259547
761.525311	0.259549
761.720833	0.259357
761.916338	0.259112
762.111824	0.258868
762.307292	0.258640
762.502741	0.258483
762.698173	0.258328
762.893586	0.258211
763.088981	0.258237
763.284358	0.258099
763.479716	0.257962
763.675057	0.257902
763.870379	0.257876
764.065683	0.257696
764.260968	0.257524
764.456236	0.257029
764.651485	0.257032
764.846716	0.256747
765.041929	0.256599
765.237123	0.256711
765.432299	0.256312
765.627457	0.256129
765.822597	0.256272
766.017719	0.256259
766.212822	0.256304
766.407907	0.256261
766.602974	0.256224
766.798023	0.256140
766.993054	0.255687
767.188066	0.256025
767.383060	0.256031
767.578036	0.256098
767.772993	0.255817
767.967933	0.255721
768.162854	0.255253
768.357757	0.255162
768.552642	0.255028
768.747508	0.255286
768.942356	0.254978
769.137186	0.254543
769.331998	0.254659
769.526792	0.254735
769.721567	0.254822
769.916324	0.254833
770.111063	0.254578
770.305784	0.254649
770.500486	0.254265
770.695171	0.254249
770.889837	0.254482
771.084484	0.253891
771.279114	0.253738
771.473725	0.253867
771.668318	0.254024
771.862893	0.254061
772.057450	0.253790
772.251988	0.253848
772.446509	0.253740
772.641011	0.253508
772.835494	0.253553
773.029960	0.253458
773.224407	0.253111
773.418836	0.252985
773.613247	0.253127
773.807640	0.253034
774.002014	0.252896
774.196370	0.253073
774.390708	0.253441
774.585028	0.253537
774.779330	0.253816
774.973613	0.253894
775.167878	0.253776
775.362125	0.253616
775.556354	0.253625
775.750564	0.253621
775.944756	0.253252
776.138930	0.252979
776.333086	0.252750
776.527223	0.252724
776.721343	0.252589
776.915444	0.252586
777.109526	0.252717
777.303591	0.252656
777.497637	0.252410
777.691666	0.252473
777.885676	0.252577
778.079667	0.252753
778.273641	0.252151
778.467596	0.252123
778.661533	0.252012
778.855452	0.252027
779.049352	0.251953
779.243235	0.252146
779.437099	0.252038
779.630945	0.252058
779.824773	0.252097
780.018582	0.252370
780.212373	0.252426
780.406146	0.252699
780.599901	0.252491
780.793638	0.252385
780.987356	0.252620
781.181056	0.252906
781.374738	0.252699
781.568402	0.252685
781.762047	0.252969
781.955674	0.252844
782.149283	0.252541
782.342874	0.252502
782.536447	0.252600
782.730001	0.252445
782.923537	0.252289
783.117055	0.252413
783.310555	0.252474
783.504036	0.252288
783.697499	0.252434
783.890944	0.252650
784.084371	0.252346
784.277780	0.252760
784.471170	0.253061
784.664542	0.253204
784.857896	0.253079
785.051231	0.253109
785.244549	0.253042
785.437848	0.253042
785.631129	0.252829
785.824392	0.253364
786.017636	0.253358
786.210863	0.252960
786.404071	0.253389
786.597260	0.253675
786.790432	0.253578
786.983585	0.253769
787.176721	0.254025
787.369838	0.254220
787.562936	0.254251
787.756017	0.254196
787.949079	0.254400
788.142123	0.254006
788.335149	0.254014
788.528156	0.254010
788.721146	0.253921
788.914117	0.254090
789.107070	0.254114
789.300005	0.253988
789.492921	0.254185
789.685819	0.254501
789.878699	0.254533
790.071561	0.254404
790.264405	0.254804
790.457230	0.255345
790.650037	0.255452
790.842826	0.255804
791.035597	0.255922
791.228349	0.255673
791.421084	0.255611
791.613800	0.255736
791.806497	0.256098
791.999177	0.256001
792.191838	0.256192
792.384481	0.256135
792.577106	0.256281
792.769713	0.256627
792.962301	0.256984
793.154871	0.257107
793.347423	0.257444
793.539957	0.257770
793.732473	0.258014
793.924970	0.257854
794.117449	0.258059
794.309910	0.258063
794.502353	0.258177
794.694777	0.258421
794.887183	0.258494
795.079571	0.258418
795.271941	0.258325
795.464293	0.258580
795.656626	0.258602
795.848941	0.258975
796.041238	0.259178
796.233516	0.259175
796.425777	0.259180
796.618019	0.259517
796.810243	0.259825
797.002449	0.259832
797.194636	0.259846
797.386805	0.260211
797.578956	0.259975
797.771089	0.260115
797.963204	0.260357
798.155300	0.260819
798.347378	0.260799
798.539438	0.260849
798.731480	0.260889
798.923503	0.260757
799.115509	0.261032
799.307496	0.261356
799.499465	0.261666
799.691415	0.262043
799.883348	0.261984
800.075262	0.262167
800.267158	0.262710
800.459035	0.263280
800.650895	0.263924
800.842736	0.264010
801.034559	0.264387
801.226364	0.264530
801.418150	0.264859
801.609919	0.264638
801.801669	0.264943
801.993401	0.264907
802.185114	0.265102
802.376810	0.265203
802.568487	0.265187
802.760146	0.265140
802.951787	0.265291
803.143409	0.265310
803.335014	0.265906
803.526600	0.266079
803.718168	0.266153
803.909717	0.266278
804.101249	0.266389
804.292762	0.266543
804.484257	0.266826
804.675734	0.266997
804.867192	0.267196
805.058632	0.267246
805.250054	0.267675
805.441458	0.268015
805.632844	0.268244
805.824211	0.268442
806.015561	0.268935
806.206891	0.269585
806.398204	0.270079
806.589499	0.270454
806.780775	0.270837
806.972033	0.270794
807.163273	0.270847
807.354495	0.271059
807.545698	0.271166
807.736883	0.271505
807.928050	0.271374
808.119199	0.271640
808.310329	0.271897
808.501441	0.272259
808.692535	0.272914
808.883611	0.273287
809.074669	0.273707
809.265708	0.274334
809.456729	0.274443
809.647732	0.274797
809.838717	0.274883
810.029683	0.274971
810.220632	0.275515
810.411562	0.275781
810.602474	0.275995
810.793367	0.276240
810.984242	0.276386
811.175100	0.276517
811.365938	0.276667
811.556759	0.277080
811.747562	0.277578
811.938346	0.277268
812.129112	0.277373
812.319860	0.277911
812.510589	0.278000
812.701300	0.278183
812.891994	0.278837
813.082668	0.279226
813.273325	0.279593
813.463964	0.279955
813.654584	0.280599
813.845186	0.280990
814.035769	0.281461
814.226335	0.282079
814.416882	0.282633
814.607411	0.283043
814.797922	0.283250
814.988415	0.283175
815.178889	0.283191
815.369345	0.283696
815.559783	0.284267
815.750203	0.284284
815.940605	0.284505
816.130988	0.284632
816.321353	0.284810
816.511700	0.285236
816.702028	0.286249
816.892339	0.286769
817.082631	0.287116
817.272905	0.287133
817.463161	0.287601
817.653398	0.288191
817.843617	0.288929
818.033819	0.289430
818.224001	0.289917
818.414166	0.289708
818.604312	0.290204
818.794440	0.290660
818.984550	0.291120
819.174642	0.291803
819.364716	0.291805
819.554771	0.291951
819.744808	0.291965
819.934827	0.292106
820.124827	0.292463
820.314810	0.292671
820.504774	0.292580
820.694720	0.292879
820.884647	0.292931
821.074557	0.293474
821.264448	0.293743
821.454321	0.294392
821.644176	0.294980
821.834012	0.295620
822.023831	0.295912
822.213631	0.296517
822.403413	0.296794
822.593176	0.297030
822.782922	0.297196
822.972649	0.297330
823.162358	0.297648
823.352049	0.297687
823.541721	0.297714
823.731376	0.298421
823.921012	0.298608
824.110629	0.299059
824.300229	0.299610
824.489811	0.299926
824.679374	0.300702
824.868919	0.301079
825.058445	0.302151
825.247954	0.302765
825.437444	0.302830
825.626916	0.303194
825.816370	0.303688
826.005806	0.304254
826.195223	0.304765
826.384622	0.305266
826.574003	0.305250
826.763366	0.305161
826.952711	0.305612
827.142037	0.306131
827.331345	0.306944
827.520635	0.307328
827.709906	0.307624
827.899160	0.308013
828.088395	0.308104
828.277612	0.308815
828.466810	0.309239
828.655991	0.309556
828.845153	0.309953
829.034297	0.310406
829.223423	0.310643
829.412531	0.310924
829.601620	0.311141
829.790691	0.311231
829.979744	0.311803
830.168779	0.312271
830.357795	0.312588
830.546793	0.313077
830.735773	0.313170
830.924735	0.313752
831.113679	0.314182
831.302604	0.314659
831.491511	0.315287
831.680400	0.315629
831.869271	0.315639
832.058123	0.316322
832.246957	0.316644
832.435773	0.317002
832.624571	0.317188
832.813351	0.317470
833.002112	0.318233
833.190855	0.318691
833.379580	0.319017
833.568287	0.319929
833.756975	0.319992
833.945645	0.320257
834.134297	0.320645
834.322931	0.321089
834.511547	0.321545
834.700144	0.322044
834.888723	0.322780
835.077284	0.323450
835.265826	0.323605
835.454351	0.323799
835.642857	0.324467
835.831345	0.325174
836.019815	0.325774
836.208266	0.326363
836.396699	0.326483
836.585114	0.326874
836.773511	0.326870
836.961890	0.327240
837.150250	0.328377
837.338592	0.328783
837.526916	0.328982
837.715222	0.329255
837.903510	0.329934
838.091779	0.330626
838.280030	0.330889
838.468263	0.331402
838.656477	0.332126
838.844674	0.332395
839.032852	0.332496
839.221012	0.332692
839.409153	0.333255
839.597277	0.333148
839.785382	0.333431
839.973469	0.334180
840.161538	0.334613
840.349589	0.334997
840.537621	0.335211
840.725635	0.335976
840.913631	0.336920
841.101609	0.337228
841.289568	0.337839
841.477509	0.338342
841.665432	0.338543
841.853337	0.338902
842.041224	0.339055
842.229092	0.339227
842.416942	0.339447
842.604774	0.340070
842.792588	0.340557
842.980383	0.341362
843.168160	0.341930
843.355919	0.342624
843.543660	0.343306
843.731382	0.344367
843.919087	0.345058
844.106773	0.345618
844.294441	0.345802
844.482090	0.346370
844.669722	0.346705
844.857335	0.347036
845.044930	0.347485
845.232507	0.348013
845.420065	0.348456
845.607605	0.348810
845.795127	0.349607
845.982631	0.349914
846.170117	0.350189
846.357584	0.350664
846.545033	0.351579
846.732464	0.351980
846.919877	0.352683
847.107272	0.353016
847.294648	0.353564
847.482006	0.353911
847.669346	0.354306
847.856667	0.355224
848.043971	0.355854
848.231256	0.355964
848.418523	0.356411
848.605771	0.356512
848.793002	0.356927
848.980214	0.357238
849.167408	0.357478
849.354584	0.358109
849.541742	0.358143
849.728881	0.358491
849.916002	0.359068
850.103105	0.359652
850.290190	0.359760
850.477256	0.359796
850.664304	0.360825
850.851334	0.361293
851.038346	0.361456
851.225340	0.362327
851.412315	0.362790
851.599272	0.363464
851.786211	0.363814
851.973132	0.364820
852.160034	0.365541
852.346918	0.365813
852.533784	0.366564
852.720632	0.367375
852.907462	0.367819
853.094273	0.368303
853.281066	0.368446
853.467841	0.368811
853.654598	0.369391
853.841336	0.370362
854.028056	0.371142
854.214758	0.371190
854.401442	0.371646
854.588107	0.372357
854.774755	0.372716
854.961384	0.373253
855.147995	0.373605
855.334587	0.374369
855.521162	0.374425
855.707718	0.374498
855.894256	0.375080
856.080775	0.375698
856.267277	0.375838
856.453760	0.376319
856.640225	0.376819
856.826672	0.377107
857.013101	0.376972
857.199511	0.377043
857.385903	0.377500
857.572277	0.378280
857.758633	0.378526
857.944970	0.378754
858.131290	0.379134
858.317591	0.379165
858.503873	0.380048
858.690138	0.380535
858.876384	0.381031
859.062612	0.381563
859.248822	0.381889
859.435014	0.382424
859.621188	0.383026
859.807343	0.383845
859.993480	0.384627
860.179599	0.385074
860.365699	0.385217
860.551781	0.386331
860.737846	0.386895
860.923891	0.387098
861.109919	0.387696
861.295929	0.388288
861.481920	0.388270
861.667893	0.389022
861.853848	0.389089
862.039784	0.389781
862.225702	0.390371
862.411603	0.390763
862.597484	0.391088
862.783348	0.391438
862.969193	0.391575
863.155021	0.391840
863.340830	0.392188
863.526620	0.392750
863.712393	0.393357
863.898147	0.393082
864.083883	0.393631
864.269601	0.394440
864.455301	0.394693
864.640982	0.395563
864.826645	0.396404
865.012290	0.396709
865.197917	0.397031
865.383526	0.397326
865.569116	0.398166
865.754688	0.398227
865.940242	0.398409
866.125777	0.398988
866.311295	0.398715
866.496794	0.399076
866.682275	0.399241
866.867737	0.399772
867.053182	0.400418
867.238608	0.400807
867.424016	0.401223
867.609406	0.401449
867.794778	0.401645
867.980131	0.401780
868.165466	0.402200
868.350783	0.402382
868.536082	0.402894
868.721362	0.403443
868.906625	0.403718
869.091869	0.404351
869.277094	0.405068
869.462302	0.405547
869.647491	0.406661
869.832662	0.407198
870.017815	0.407570
870.202950	0.407522
870.388066	0.407256
870.573165	0.407647
870.758245	0.407710
870.943306	0.407455
871.128350	0.407823
871.313375	0.407736
871.498382	0.407991
871.683371	0.408450
871.868342	0.409409
872.053294	0.410105
872.238229	0.410451
872.423144	0.410756
872.608042	0.411334
872.792922	0.411837
872.977783	0.412319
873.162626	0.412210
873.347451	0.412537
873.532258	0.412418
873.717046	0.412738
873.901816	0.413083
874.086568	0.413918
874.271302	0.414501
874.456017	0.414630
874.640715	0.414795
874.825394	0.414732
875.010055	0.414339
875.194697	0.414407
875.379322	0.414732
875.563928	0.414467
875.748516	0.413941
875.933085	0.414176
876.117637	0.414447
876.302170	0.414741
876.486685	0.415441
876.671182	0.416528
876.855661	0.416882
877.040121	0.416549
877.224563	0.416809
877.408987	0.417498
877.593393	0.417303
877.777780	0.417059
877.962150	0.416811
878.146501	0.416983
878.330833	0.417259
878.515148	0.417433
878.699444	0.417784
878.883722	0.418451
879.067982	0.418914
879.252224	0.420083
879.436447	0.420737
879.620653	0.421097
879.804840	0.421598
879.989008	0.421526
880.173159	0.421892
880.357291	0.422050
880.541405	0.421798
880.725501	0.421499
880.909579	0.420207
881.093638	0.419676
881.277680	0.419993
881.461703	0.419984
881.645707	0.420127
881.829694	0.420445
882.013662	0.420789
882.197612	0.421187
882.381544	0.421834
882.565458	0.422546
882.749353	0.423001
882.933230	0.423017
883.117089	0.422512
883.300930	0.422333
883.484753	0.422149
883.668557	0.422750
883.852343	0.422918
884.036111	0.422719
884.219861	0.422946
884.403592	0.423516
884.587305	0.423878
884.771000	0.424401
884.954677	0.425430
885.138335	0.425844
885.321976	0.425318
885.505598	0.425282
885.689201	0.424732
885.872787	0.424857
886.056354	0.423932
886.239904	0.424538
886.423434	0.424490
886.606947	0.423859
886.790442	0.423833
886.973918	0.424092
887.157376	0.424306
887.340816	0.424958
887.524237	0.425301
887.707641	0.426100
887.891026	0.425839
888.074393	0.426004
888.257741	0.425993
888.441072	0.426399
888.624384	0.426234
888.807678	0.425801
888.990954	0.426371
889.174211	0.426192
889.357451	0.426182
889.540672	0.425890
889.723875	0.426184
889.907059	0.426169
890.090226	0.426029
890.273374	0.425798
890.456504	0.426612
890.639616	0.425648
890.822709	0.426098
891.005785	0.426216
891.188842	0.426591
891.371881	0.425763
891.554901	0.426029
891.737904	0.425981
891.920888	0.426379
892.103854	0.425520
892.286802	0.425725
892.469731	0.425283
892.652643	0.425164
892.835536	0.424951
893.018410	0.425457
893.201267	0.425396
893.384106	0.425468
893.566926	0.425185
893.749728	0.425714
893.932511	0.425912
894.115277	0.425447
894.298024	0.425069
894.480753	0.424769
894.663464	0.425069
894.846157	0.424858
895.028831	0.424530
895.211487	0.424838
895.394125	0.424322
895.576745	0.424185
895.759346	0.424423
895.941930	0.425110
896.124495	0.425622
896.307041	0.425402
896.489570	0.425488
896.672080	0.424935
896.854573	0.424578
897.037046	0.424110
897.219502	0.423763
897.401940	0.423816
897.584359	0.423351
897.766760	0.423098
897.949143	0.422599
898.131507	0.422172
898.313854	0.422500
898.496182	0.422055
898.678492	0.422623
898.860783	0.422061
899.043057	0.421275
899.225312	0.421365
899.407549	0.420965
899.589768	0.420183
899.771968	0.420183
899.954151	0.419357
900.136315	0.419305
900.318461	0.418626
900.500588	0.418693
900.682698	0.418521
900.864789	0.417822
901.046862	0.417201
901.228917	0.417334
901.410953	0.416354
901.592971	0.416554
901.774972	0.416607
901.956953	0.416750
902.138917	0.416516
902.320862	0.416659
902.502790	0.416779
902.684699	0.416561
902.866589	0.416697
903.048462	0.417688
903.230316	0.417238
903.412152	0.416737
903.593970	0.416501
903.775770	0.416402
903.957551	0.415998
904.139314	0.415499
904.321059	0.415020
904.502786	0.414352
904.684494	0.413282
904.866185	0.412998
905.047857	0.412806
905.229510	0.412531
905.411146	0.411358
905.592763	0.410791
905.774363	0.410505
905.955943	0.409946
906.137506	0.409833
906.319051	0.409473
906.500577	0.409027
906.682085	0.408100
906.863575	0.407334
907.045046	0.408593
907.226500	0.408541
907.407935	0.406982
907.589352	0.406993
907.770750	0.406611
907.952131	0.406594
908.133493	0.406186
908.314837	0.405559
908.496163	0.404880
908.677470	0.402951
908.858760	0.402084
909.040031	0.402673
909.221284	0.402181
909.402518	0.402271
909.583735	0.402672
909.764933	0.402156
909.946113	0.402705
910.127275	0.402554
910.308418	0.402741
910.489544	0.402664
910.670651	0.401195
910.851740	0.401154
911.032810	0.399818
911.213863	0.397983
911.394897	0.397582
911.575913	0.396632
911.756911	0.395771
911.937890	0.395040
912.118851	0.394062
912.299794	0.394296
912.480719	0.393311
912.661626	0.392016
912.842514	0.391258
913.023384	0.390324
913.204236	0.389546
913.385070	0.389364
913.565886	0.389242
913.746683	0.389311
913.927462	0.388576
914.108223	0.387291
914.288965	0.387753
914.469690	0.387024
914.650396	0.386594
914.831084	0.386313
915.011754	0.385071
915.192405	0.384061
915.373038	0.382451
915.553653	0.382036
915.734250	0.381474
915.914829	0.380755
916.095389	0.380400
916.275931	0.379486
916.456455	0.378667
916.636961	0.377992
916.817448	0.377309
916.997917	0.377530
917.178368	0.376563
917.358801	0.376592
917.539216	0.376039
917.719612	0.374802
917.899990	0.374648
918.080350	0.374059
918.260692	0.373590
918.441015	0.372941
918.621320	0.371961
918.801607	0.371640
918.981876	0.371174
919.162127	0.370196
919.342359	0.370079
919.522573	0.369646
919.702769	0.369652
919.882947	0.369155
920.063106	0.367677
920.243247	0.366413
920.423370	0.365522
920.603475	0.364159
920.783562	0.363358
920.963630	0.362564
921.143680	0.361575
921.323712	0.359407
921.503725	0.359205
921.683721	0.358534
921.863698	0.358664
922.043657	0.356841
922.223598	0.356574
922.403520	0.355827
922.583424	0.354965
922.763311	0.354146
922.943178	0.353887
923.123028	0.352369
923.302859	0.351876
923.482673	0.350081
923.662467	0.349520
923.842244	0.348501
924.022003	0.347605
924.201743	0.346376
924.381465	0.344690
924.561169	0.343661
924.740854	0.342395
924.920522	0.342193
925.100171	0.342603
925.279802	0.342015
925.459414	0.340833
925.639009	0.340144
925.818585	0.339043
925.998143	0.338571
926.177683	0.337848
926.357205	0.336369
926.536708	0.335227
926.716193	0.333257
926.895660	0.331817
927.075109	0.330929
927.254539	0.329780
927.433951	0.329576
927.613345	0.328540
927.792721	0.327982
927.972079	0.328097
928.151418	0.327154
928.330739	0.325837
928.510042	0.325874
928.689327	0.324746
928.868593	0.323724
929.047841	0.322132
929.227071	0.321650
929.406283	0.319840
929.585476	0.317774
929.764652	0.316323
929.943809	0.316049
930.122948	0.315509
930.302068	0.314598
930.481171	0.314072
930.660255	0.312951
930.839321	0.310956
931.018369	0.310656
931.197398	0.311584
931.376409	0.310801
931.555402	0.310192
931.734377	0.308504
931.913334	0.308313
932.092272	0.306964
932.271192	0.306958
932.450094	0.306305
932.628978	0.305521
932.807844	0.302738
932.986691	0.301449
933.165520	0.299456
933.344331	0.298709
933.523123	0.296552
933.701898	0.295169
933.880654	0.294056
934.059392	0.293831
934.238111	0.292572
934.416813	0.292488
934.595496	0.291389
934.774161	0.291276
934.952808	0.290033
935.131437	0.289657
935.310047	0.289045
935.488639	0.287398
935.667213	0.285430
935.845769	0.283227
936.024306	0.282140
936.202825	0.282026
936.381326	0.280578
936.559809	0.278891
936.738274	0.277912
936.916720	0.277725
937.095148	0.276618
937.273558	0.276051
937.451950	0.275414
937.630323	0.274508
937.808678	0.271709
937.987015	0.269689
938.165334	0.268426
938.343635	0.266633
938.521917	0.264604
938.700181	0.264943
938.878427	0.264611
939.056655	0.263379
939.234864	0.261359
939.413055	0.261707
939.591228	0.260939
939.769383	0.261504
939.947519	0.260230
940.125638	0.258110
940.303738	0.256039
940.481820	0.253689
940.659883	0.251609
940.837929	0.250716
941.015956	0.248744
941.193965	0.247151
941.371955	0.244295
941.549928	0.243742
941.727882	0.243503
941.905818	0.242006
942.083736	0.241275
942.261636	0.240837
942.439517	0.239398
942.617380	0.238917
942.795225	0.238752
942.973052	0.239086
943.150860	0.238363
943.328651	0.235855
943.506423	0.234239
943.684176	0.232149
943.861912	0.231529
944.039629	0.231730
944.217328	0.230987
944.395009	0.229378
944.572672	0.227521
944.750317	0.226304
944.927943	0.224685
945.105551	0.224837
945.283141	0.223027
945.460712	0.221120
945.638265	0.220670
945.815801	0.218246
945.993317	0.216878
946.170816	0.216300
946.348297	0.214797
946.525759	0.213583
946.703203	0.210327
946.880629	0.211096
947.058036	0.210666
947.235425	0.207642
947.412797	0.206303
947.590149	0.205712
947.767484	0.204093
947.944800	0.201156
948.122099	0.201997
948.299379	0.202899
948.476640	0.200516
948.653884	0.198623
948.831109	0.196545
949.008316	0.194994
949.185505	0.192851
949.362676	0.190877
949.539828	0.190914
949.716962	0.188638
949.894078	0.184978
950.071176	0.184850
950.248256	0.184311
950.425317	0.182397
950.602360	0.181574
950.779385	0.181169
950.956391	0.180884
951.133380	0.179430
951.310350	0.177388
951.487302	0.176361
951.664235	0.174339
951.841151	0.172292
952.018048	0.173573
952.194927	0.172466
952.371788	0.169627
952.548631	0.165475
952.725455	0.164146
952.902261	0.163837
953.079049	0.163989
953.255819	0.161653
953.432570	0.160988
953.609303	0.157242
953.786018	0.154014
953.962715	0.154723
954.139394	0.155595
954.316054	0.155383
954.492696	0.158080
954.669320	0.156008
954.845926	0.154776
955.022513	0.153209
955.199083	0.152638
955.375634	0.154014
955.552166	0.152973
955.728681	0.150666
955.905177	0.149215
956.081655	0.144374
956.258115	0.142704
956.434557	0.141123
956.610980	0.142162
956.787385	0.142467
956.963772	0.140585
957.140141	0.139777
957.316492	0.141225
957.492824	0.140142
957.669138	0.138913
957.845434	0.140260
958.021712	0.140749
958.197971	0.136799
958.374212	0.135669
958.550435	0.134970
958.726640	0.132270
958.902826	0.130354
959.078995	0.128043
959.255145	0.128116
959.431277	0.128007
959.607390	0.127789
959.783486	0.128507
959.959563	0.127145
960.135622	0.126645
960.311662	0.126573
960.487685	0.124498
960.663689	0.123693
960.839675	0.121548
961.015643	0.116719
961.191593	0.117913
961.367524	0.118431
961.543437	0.118970
961.719332	0.118194
961.895209	0.121221
962.071067	0.122256
962.246907	0.123859
962.422730	0.124164
962.598533	0.126262
962.774319	0.124609
962.950086	0.121869
963.125835	0.120775
963.301566	0.119780
963.477279	0.116007
963.652973	0.115042
963.828650	0.115171
964.004308	0.116537
964.179947	0.117628
964.355569	0.112393
964.531172	0.113940
964.706757	0.114148
964.882324	0.114333
965.057873	0.111540
965.233403	0.110501
965.408916	0.110510
965.584410	0.108714
965.759885	0.107451
965.935343	0.110562
966.110782	0.107910
966.286203	0.103502
966.461606	0.102448
966.636991	0.103663
966.812357	0.102919
966.987705	0.102120
967.163035	0.103769
967.338347	0.102650
967.513641	0.103381
967.688916	0.104627
967.864173	0.109826
968.039412	0.112464
968.214632	0.113948
968.389835	0.115774
968.565019	0.115142
968.740185	0.112182
968.915333	0.111851
969.090462	0.112035
969.265573	0.112442
969.440667	0.113540
969.615741	0.110666
969.790798	0.108809
969.965836	0.106717
970.140856	0.106997
970.315858	0.106849
970.490842	0.107755
970.665808	0.105435
970.840755	0.106113
971.015684	0.101792
971.190595	0.102469
971.365487	0.104027
971.540362	0.105475
971.715218	0.103394
971.890056	0.105321
972.064875	0.104815
972.239677	0.106784
972.414460	0.108473
972.589225	0.108120
972.763972	0.110486
972.938700	0.110767
973.113411	0.109936
973.288103	0.111294
973.462777	0.109106
973.637432	0.109852
973.812070	0.109417
973.986689	0.106980
974.161290	0.108298
974.335873	0.107124
974.510437	0.105440
974.684984	0.105228
974.859512	0.106016
975.034022	0.106333
975.208513	0.105533
975.382987	0.106151
975.557442	0.103528
975.731879	0.103319
975.906298	0.103527
976.080698	0.104250
976.255080	0.105437
976.429445	0.104466
976.603790	0.106592
976.778118	0.106507
976.952427	0.108052
977.126719	0.109071
977.300992	0.110168
977.475246	0.109315
977.649483	0.111016
977.823701	0.111182
977.997901	0.112996
978.172083	0.112730
978.346247	0.115368
978.520392	0.115223
978.694519	0.118123
978.868628	0.116566
979.042719	0.117473
979.216791	0.116063
979.390845	0.117297
979.564882	0.115354
979.738899	0.115027
979.912899	0.111843
980.086880	0.110685
980.260843	0.107310
980.434788	0.111470
980.608715	0.111518
980.782623	0.111916
980.956514	0.109078
981.130386	0.110553
981.304240	0.110827
981.478075	0.112324
981.651892	0.113771
981.825692	0.117563
981.999472	0.113970
982.173235	0.111582
982.346980	0.111310
982.520706	0.113235
982.694414	0.112122
982.868104	0.109335
983.041775	0.108102
983.215428	0.101573
983.389064	0.101026
983.562680	0.102249
983.736279	0.102437
983.909860	0.101330
984.083422	0.099813
984.256966	0.100190
984.430491	0.102424
984.603999	0.103037
984.777488	0.106726
984.950959	0.105849
985.124412	0.104931
985.297847	0.105875
985.471263	0.106204
985.644661	0.107456
985.818041	0.106011
985.991403	0.102153
986.164747	0.101988
986.338072	0.101752
986.511379	0.100562
986.684668	0.100573
986.857938	0.102986
987.031191	0.103502
987.204425	0.104382
987.377641	0.105151
987.550839	0.108583
987.724018	0.108433
987.897179	0.110587
988.070322	0.112269
988.243447	0.109970
988.416554	0.110087
988.589642	0.110924
988.762712	0.109548
988.935764	0.108969
989.108798	0.110888
989.281813	0.110840
989.454811	0.109158
989.627790	0.106703
989.800751	0.110543
989.973693	0.108830
990.146617	0.108629
990.319524	0.109523
990.492412	0.110496
990.665281	0.109453
990.838133	0.109290
991.010966	0.109006
991.183781	0.112195
991.356578	0.111545
991.529356	0.110493
991.702117	0.109315
991.874859	0.110319
992.047583	0.110981
992.220288	0.109869
992.392976	0.110494
992.565645	0.109661
992.738296	0.108569
992.910929	0.107249
993.083543	0.109864
993.256139	0.112103
993.428718	0.109704
993.601277	0.106587
993.773819	0.110293
993.946342	0.111042
994.118848	0.112073
994.291335	0.113614
994.463803	0.112978
994.636254	0.111591
994.808686	0.110365
994.981100	0.110928
995.153496	0.113543
995.325874	0.108811
995.498233	0.108333
995.670574	0.109426
995.842897	0.107647
996.015202	0.107908
996.187488	0.105996
996.359757	0.106403
996.532007	0.106841
996.704239	0.106552
996.876452	0.107520
997.048648	0.104963
997.220825	0.105695
997.392984	0.103697
997.565124	0.105376
997.737247	0.105689
997.909351	0.107441
998.081437	0.107536
998.253505	0.107544
998.425554	0.107635
998.597586	0.110412
998.769599	0.109010
998.941594	0.111676
999.113571	0.110372
999.285529	0.112046
999.457469	0.110418
999.629391	0.110525
999.801295	0.111365
999.973181	0.109682
1000.145048	0.109276
1000.316897	0.109792
1000.488728	0.107860
1000.660541	0.110355
1000.832335	0.109983
1001.004111	0.110708
1001.175869	0.112273
1001.347609	0.110913
1001.519331	0.111871
1001.691034	0.112409
1001.862719	0.111399
1002.034386	0.112195
1002.206035	0.108707
1002.377665	0.107217
1002.549277	0.108079
1002.720871	0.106315
1002.892447	0.105394
1003.064004	0.105864
1003.235544	0.106710
1003.407065	0.108808
1003.578568	0.110597
1003.750052	0.112491
1003.921519	0.114050
1004.092967	0.111535
1004.264397	0.112456
1004.435809	0.115018
1004.607202	0.113387
1004.778577	0.111074
1004.949934	0.111338
1005.121273	0.109622
1005.292594	0.108969
1005.463896	0.107703
1005.635180	0.109423
1005.806446	0.108552
1005.977694	0.108308
1006.148923	0.111310
1006.320135	0.112843
1006.491328	0.111830
1006.662503	0.111838
1006.833659	0.112018
1007.004798	0.114486
1007.175918	0.112659
1007.347020	0.113625
1007.518103	0.112876
1007.689169	0.110919
1007.860216	0.110547
1008.031245	0.110303
1008.202256	0.110718
1008.373248	0.111423
1008.544223	0.109822
1008.715179	0.110326
1008.886117	0.108879
1009.057036	0.109597
1009.227938	0.109370
1009.398821	0.109675
1009.569686	0.109415
1009.740533	0.109755
1009.911361	0.111114
1010.082172	0.110477
1010.252964	0.113049
1010.423738	0.115075
1010.594493	0.115675
1010.765231	0.118614
1010.935950	0.117158
1011.106651	0.117857
1011.277334	0.118733
1011.447998	0.115810
1011.618645	0.114367
1011.789273	0.112207
1011.959882	0.111744
1012.130474	0.109971
1012.301048	0.107024
1012.471603	0.106760
1012.642140	0.105271
1012.812658	0.104905
1012.983159	0.106409
1013.153641	0.108397
1013.324105	0.109685
1013.494551	0.109157
1013.664979	0.110373
1013.835388	0.111470
1014.005779	0.113248
1014.176152	0.114604
1014.346507	0.112349
1014.516843	0.111362
1014.687162	0.111430
1014.857462	0.108517
1015.027744	0.107420
1015.198007	0.107866
1015.368252	0.109014
1015.538480	0.108741
1015.708689	0.109649
1015.878879	0.112461
1016.049052	0.115889
1016.219206	0.115166
1016.389342	0.117403
1016.559460	0.115798
1016.729559	0.114393
1016.899641	0.113686
1017.069704	0.113694
1017.239749	0.111281
1017.409775	0.109985
1017.579784	0.105150
1017.749774	0.105997
1017.919746	0.105786
1018.089700	0.109033
1018.259635	0.110639
1018.429553	0.110739
1018.599452	0.110794
1018.769333	0.112484
1018.939195	0.112170
1019.109040	0.114373
1019.278866	0.112732
1019.448674	0.112169
1019.618464	0.112067
1019.788235	0.110765
1019.957989	0.110409
1020.127724	0.110690
1020.297441	0.108700
1020.467139	0.108165
1020.636820	0.109001
1020.806482	0.108657
1020.976126	0.108685
1021.145752	0.108810
1021.315359	0.108229
1021.484948	0.107773
1021.654519	0.108421
1021.824072	0.108617
1021.993607	0.112530
1022.163123	0.112264
1022.332621	0.113405
1022.502101	0.113001
1022.671563	0.112442
1022.841007	0.114903
1023.010432	0.114586
1023.179839	0.114747
1023.349228	0.116989
1023.518598	0.115126
1023.687951	0.115038
1023.857285	0.115146
1024.026601	0.116849
1024.195899	0.115806
1024.365178	0.115823
1024.534439	0.117688
1024.703682	0.116638
1024.872907	0.114112
1025.042114	0.112619
1025.211302	0.113166
1025.380472	0.115287
1025.549624	0.114110
1025.718758	0.113544
1025.887873	0.110999
1026.056970	0.111832
1026.226049	0.112555
1026.395110	0.115471
1026.564153	0.118107
1026.733177	0.116671
1026.902183	0.113265
1027.071171	0.112044
1027.240141	0.112657
1027.409092	0.113648
1027.578026	0.111291
1027.746940	0.110049
1027.915837	0.109832
1028.084716	0.106787
1028.253576	0.107259
1028.422418	0.109599
1028.591242	0.110221
1028.760048	0.111234
1028.928835	0.111010
1029.097604	0.110831
1029.266355	0.111993
1029.435088	0.109203
1029.603803	0.110556
1029.772499	0.111585
1029.941177	0.109325
1030.109837	0.109751
1030.278478	0.108090
1030.447102	0.109802
1030.615707	0.110046
1030.784294	0.111350
1030.952863	0.113170
1031.121413	0.113631
1031.289945	0.112471
1031.458460	0.115301
1031.626955	0.114562
1031.795433	0.117209
1031.963892	0.117446
1032.132334	0.119883
1032.300756	0.118722
1032.469161	0.119819
1032.637548	0.120319
1032.805916	0.119967
1032.974266	0.119954
1033.142598	0.121151
1033.310911	0.120382
1033.479207	0.117733
1033.647484	0.113280
1033.815743	0.114106
1033.983983	0.112319
1034.152206	0.110683
1034.320410	0.112827
1034.488596	0.111362
1034.656764	0.110689
1034.824914	0.110706
1034.993045	0.111306
1035.161158	0.112063
1035.329253	0.110245
1035.497330	0.111317
1035.665388	0.112221
1035.833428	0.110233
1036.001450	0.110295
1036.169454	0.109119
1036.337440	0.107618
1036.505407	0.107008
1036.673356	0.110815
1036.841287	0.112376
1037.009200	0.111927
1037.177094	0.110981
1037.344970	0.112192
1037.512828	0.113159
1037.680668	0.114133
1037.848489	0.114871
1038.016293	0.115302
1038.184078	0.115164
1038.351845	0.113644
1038.519593	0.112333
1038.687324	0.111784
1038.855036	0.109519
1039.022730	0.107343
1039.190406	0.107403
1039.358063	0.107893
1039.525702	0.108390
1039.693323	0.106131
1039.860926	0.105144
1040.028511	0.106855
1040.196077	0.107791
1040.363625	0.108946
1040.531155	0.112270
1040.698667	0.112957
1040.866161	0.113051
1041.033636	0.112797
1041.201093	0.114094
1041.368532	0.114925
1041.535952	0.116468
1041.703355	0.115477
1041.870739	0.115363
1042.038105	0.113405
1042.205452	0.113047
1042.372782	0.113558
1042.540093	0.113180
1042.707386	0.112985
1042.874661	0.114335
1043.041918	0.112919
1043.209156	0.113599
1043.376376	0.113713
1043.543578	0.115118
1043.710762	0.114665
1043.877927	0.115448
1044.045074	0.114579
1044.212203	0.114691
1044.379314	0.114408
1044.546407	0.113462
1044.713481	0.111988
1044.880537	0.115050
1045.047575	0.113584
1045.214595	0.116401
1045.381596	0.111867
1045.548579	0.113334
1045.715544	0.113204
1045.882491	0.111684
1046.049420	0.112784
1046.216330	0.113893
1046.383222	0.111606
1046.550096	0.111995
1046.716951	0.108695
1046.883789	0.110159
1047.050608	0.109550
1047.217409	0.109677
1047.384192	0.108395
1047.550956	0.106797
1047.717703	0.107988
1047.884431	0.107643
1048.051140	0.107065
1048.217832	0.107949
1048.384505	0.109317
1048.551161	0.109780
1048.717798	0.109804
1048.884416	0.113154
1049.051017	0.114029
1049.217599	0.113175
1049.384163	0.113938
1049.550709	0.114056
1049.717237	0.114358
1049.883746	0.115340
1050.050237	0.115888
1050.216710	0.114965
1050.383165	0.112744
1050.549601	0.111035
1050.716019	0.111617
1050.882420	0.110177
1051.048801	0.111531
1051.215165	0.111936
1051.381510	0.110684
1051.547837	0.111201
1051.714146	0.113096
1051.880437	0.113660
1052.046709	0.115995
1052.212964	0.116182
1052.379200	0.118127
1052.545417	0.116273
1052.711617	0.116649
1052.877798	0.116860
1053.043961	0.116158
1053.210106	0.113186
1053.376233	0.114385
1053.542341	0.113898
1053.708432	0.114633
1053.874504	0.113030
1054.040557	0.113998
1054.206593	0.111597
1054.372610	0.110497
1054.538609	0.111330
1054.704590	0.112888
1054.870553	0.112097
1055.036497	0.112738
1055.202424	0.110750
1055.368331	0.110853
1055.534221	0.110528
1055.700093	0.112298
1055.865946	0.112677
1056.031781	0.111129
1056.197598	0.109310
1056.363397	0.106898
1056.529177	0.105171
1056.694939	0.105573
1056.860683	0.106506
1057.026409	0.107044
1057.192116	0.105216
1057.357806	0.105107
1057.523477	0.104193
1057.689130	0.108164
1057.854764	0.112521
1058.020381	0.113635
1058.185979	0.115921
1058.351559	0.113730
1058.517120	0.114562
1058.682664	0.116605
1058.848189	0.116256
1059.013696	0.117384
1059.179185	0.113983
1059.344656	0.110035
1059.510108	0.111193
1059.675542	0.108577
1059.840958	0.112560
1060.006356	0.110655
1060.171735	0.112135
1060.337096	0.112531
1060.502439	0.114220
1060.667764	0.114937
1060.833071	0.117165
1060.998359	0.117374
1061.163629	0.116392
1061.328881	0.114143
1061.494115	0.116406
1061.659330	0.114656
1061.824527	0.117702
1061.989706	0.118917
1062.154867	0.119298
1062.320010	0.117584
1062.485134	0.114633
1062.650240	0.114882
1062.815328	0.112622
1062.980398	0.112262
1063.145449	0.111847
1063.310482	0.109042
1063.475497	0.106090
1063.640494	0.106714
1063.805473	0.107891
1063.970433	0.112198
1064.135375	0.114477
1064.300299	0.116626
1064.465204	0.118303
1064.630092	0.117775
1064.794961	0.117893
1064.959812	0.118242
1065.124645	0.118217
1065.289459	0.119016
1065.454256	0.118237
1065.619034	0.117295
1065.783793	0.117277
1065.948535	0.116261
1066.113258	0.117897
1066.277964	0.121101
1066.442651	0.122167
1066.607319	0.120761
1066.771970	0.121207
1066.936602	0.118450
1067.101216	0.118009
1067.265812	0.119840
1067.430389	0.117783
1067.594949	0.115503
1067.759490	0.112676
1067.924013	0.112287
1068.088518	0.113922
1068.253004	0.110616
1068.417472	0.112885
1068.581922	0.114467
1068.746354	0.113212
1068.910768	0.114808
1069.075163	0.117684
1069.239540	0.118586
1069.403899	0.121405
1069.568240	0.122454
1069.732562	0.124711
1069.896866	0.123482
1070.061152	0.124068
1070.225420	0.122964
1070.389670	0.124390
1070.553901	0.126421
1070.718114	0.126429
1070.882309	0.123033
1071.046486	0.121077
1071.210644	0.120994
1071.374784	0.120330
1071.538906	0.120299
1071.703010	0.119322
1071.867096	0.117587
1072.031163	0.113111
1072.195212	0.112016
1072.359243	0.113472
1072.523256	0.115081
1072.687250	0.117782
1072.851226	0.121396
1073.015184	0.117501
1073.179124	0.118000
1073.343045	0.118552
1073.506949	0.118608
1073.670834	0.119594
1073.834701	0.118643
1073.998549	0.115989
1074.162380	0.114363
1074.326192	0.112524
1074.489986	0.113380
1074.653761	0.115312
1074.817519	0.112745
1074.981258	0.114612
1075.144979	0.114215
1075.308682	0.113134
1075.472367	0.116044
1075.636033	0.113748
1075.799681	0.115621
1075.963311	0.116104
1076.126923	0.118141
1076.290516	0.120867
1076.454092	0.121620
1076.617649	0.122589
1076.781187	0.125564
1076.944708	0.128581
1077.108210	0.132175
1077.271695	0.126704
1077.435160	0.127715
1077.598608	0.128044
1077.762038	0.128350
1077.925449	0.127717
1078.088842	0.128556
1078.252217	0.126440
1078.415573	0.125106
1078.578912	0.124426
1078.742232	0.126595
1078.905534	0.128196
1079.068817	0.125793
1079.232083	0.124271
1079.395330	0.122821
1079.558559	0.123467
1079.721770	0.123849
1079.884962	0.120113
1080.048136	0.120826
1080.211293	0.123324
1080.374430	0.127262
1080.537550	0.127993
1080.700651	0.128697
1080.863735	0.131896
1081.026800	0.131330
1081.189846	0.133195
1081.352875	0.132422
1081.515885	0.131586
1081.678877	0.128861
1081.841851	0.121873
1082.004807	0.121456
1082.167744	0.122531
1082.330663	0.121684
1082.493564	0.120603
1082.656447	0.119674
1082.819312	0.123414
1082.982158	0.125825
1083.144986	0.129902
1083.307796	0.133875
1083.470587	0.134442
1083.633361	0.133121
1083.796116	0.133379
1083.958853	0.131556
1084.121571	0.130277
1084.284272	0.127534
1084.446954	0.127772
1084.609618	0.126769
1084.772264	0.127825
1084.934892	0.126996
1085.097501	0.130015
1085.260092	0.131542
1085.422665	0.133394
1085.585220	0.134552
1085.747756	0.136556
1085.910274	0.131463
1086.072774	0.130235
1086.235256	0.127994
1086.397720	0.128732
1086.560165	0.126956
1086.722592	0.124363
1086.885001	0.124346
1087.047392	0.125831
1087.209764	0.126312
1087.372119	0.127871
1087.534455	0.125322
1087.696772	0.127617
1087.859072	0.123783
1088.021353	0.118220
1088.183616	0.117319
1088.345861	0.119315
1088.508088	0.116400
1088.670296	0.116278
1088.832486	0.118636
1088.994658	0.120692
1089.156812	0.118989
1089.318948	0.121653
1089.481065	0.126835
1089.643164	0.129689
1089.805245	0.129433
1089.967308	0.132788
1090.129352	0.131276
1090.291378	0.132065
1090.453386	0.129166
1090.615376	0.133728
1090.777347	0.135962
1090.939301	0.135384
1091.101236	0.131393
1091.263153	0.130899
1091.425051	0.131415
1091.586932	0.133815
1091.748794	0.135606
1091.910638	0.141941
1092.072463	0.138120
1092.234271	0.135793
1092.396060	0.133807
1092.557831	0.137255
1092.719584	0.137160
1092.881319	0.132845
1093.043035	0.132325
1093.204733	0.129985
1093.366413	0.125151
1093.528075	0.124432
1093.689718	0.125073
1093.851343	0.130212
1094.012950	0.129400
1094.174539	0.125712
1094.336110	0.131076
1094.497662	0.129911
1094.659196	0.130771
1094.820712	0.132069
1094.982210	0.130765
1095.143689	0.134030
1095.305151	0.133830
1095.466594	0.134528
1095.628018	0.140889
1095.789425	0.137115
1095.950813	0.133257
1096.112183	0.130906
1096.273535	0.133161
1096.434869	0.134601
1096.596184	0.133165
1096.757482	0.132701
1096.918761	0.133855
1097.080021	0.132704
1097.241264	0.135619
1097.402488	0.139574
1097.563694	0.140261
1097.724882	0.138166
1097.886052	0.139253
1098.047203	0.138857
1098.208336	0.139479
1098.369451	0.142008
1098.530548	0.142781
1098.691627	0.138066
1098.852687	0.141049
1099.013729	0.142761
1099.174753	0.142267
1099.335758	0.140430
1099.496746	0.138890
1099.657715	0.135744
1099.818666	0.133823
1099.979599	0.132282
1100.140513	0.133999
1100.301409	0.129595
1100.462287	0.126453
1100.623147	0.125122
1100.783989	0.126297
1100.944812	0.127610
1101.105617	0.127022
1101.266404	0.123355
1101.427173	0.123007
1101.587923	0.125474
1101.748656	0.123319
1101.909370	0.125184
1102.070066	0.126587
1102.230743	0.126780
1102.391403	0.123702
1102.552044	0.126352
1102.712667	0.128704
1102.873271	0.128045
1103.033858	0.130707
1103.194426	0.135173
1103.354976	0.136675
1103.515508	0.136901
1103.676021	0.137658
1103.836517	0.136935
1103.996994	0.136281
1104.157453	0.134396
1104.317893	0.136547
1104.478316	0.132507
1104.638720	0.133050
1104.799106	0.128918
1104.959474	0.130380
1105.119823	0.131233
1105.280155	0.136465
1105.440468	0.140148
1105.600763	0.139359
1105.761039	0.134331
1105.921298	0.133747
1106.081538	0.137242
1106.241760	0.138859
1106.401964	0.137175
1106.562149	0.132484
1106.722316	0.130587
1106.882465	0.128825
1107.042596	0.136964
1107.202709	0.139613
1107.362803	0.144115
1107.522879	0.141803
1107.682937	0.137737
1107.842977	0.140414
1108.002999	0.145489
1108.163002	0.145012
1108.322987	0.143227
1108.482954	0.134049
1108.642902	0.138939
1108.802833	0.132215
1108.962745	0.131724
1109.122639	0.137920
1109.282515	0.143554
1109.442372	0.143946
1109.602211	0.142952
1109.762032	0.139600
1109.921835	0.143246
1110.081620	0.142461
1110.241386	0.143673
1110.401134	0.144271
1110.560864	0.144407
1110.720576	0.138059
1110.880269	0.137794
1111.039945	0.140642
1111.199602	0.147686
1111.359240	0.147089
1111.518861	0.142802
1111.678463	0.145268
1111.838047	0.144461
1111.997613	0.143198
1112.157161	0.140503
1112.316690	0.131669
1112.476202	0.131356
1112.635695	0.128024
1112.795169	0.132256
1112.954626	0.137827
1113.114064	0.139218
1113.273484	0.138683
1113.432886	0.137759
1113.592270	0.138469
1113.751635	0.142715
1113.910983	0.146372
1114.070312	0.148679
1114.229622	0.144043
1114.388915	0.136916
1114.548189	0.137541
1114.707445	0.137948
1114.866683	0.144376
1115.025903	0.139159
1115.185104	0.141667
1115.344287	0.137483
1115.503452	0.136837
1115.662599	0.144142
1115.821727	0.143909
1115.980838	0.139048
1116.139930	0.144705
1116.299004	0.143119
1116.458059	0.152459
1116.617097	0.156426
1116.776116	0.158758
1116.935117	0.158901
1117.094099	0.149430
1117.253064	0.152542
1117.412010	0.156354
1117.570938	0.151030
1117.729848	0.149274
1117.888740	0.150301
1118.047613	0.145283
1118.206468	0.141688
1118.365305	0.141438
1118.524124	0.150523
1118.682924	0.156881
1118.841707	0.152983
1119.000471	0.149386
1119.159216	0.147637
1119.317944	0.144202
1119.476653	0.146956
1119.635344	0.147363
1119.794017	0.146513
1119.952672	0.145450
1120.111308	0.140851
1120.269927	0.145516
1120.428527	0.151974
1120.587108	0.151902
1120.745672	0.155867
1120.904217	0.154434
1121.062744	0.153497
1121.221253	0.157505
1121.379744	0.154412
1121.538216	0.149821
1121.696671	0.150058
1121.855107	0.151135
1122.013524	0.154557
1122.171924	0.150932
1122.330305	0.146558
1122.488668	0.153325
1122.647013	0.141688
1122.805340	0.136335
1122.963648	0.140256
1123.121938	0.146226
1123.280210	0.138269
1123.438464	0.138254
1123.596700	0.134003
1123.754917	0.140352
1123.913116	0.136675
1124.071297	0.140925
1124.229459	0.146806
1124.387604	0.142790
1124.545730	0.132552
1124.703838	0.137836
1124.861928	0.134283
1125.019999	0.144267
1125.178052	0.142594
1125.336088	0.142821
1125.494104	0.143358
1125.652103	0.140787
1125.810083	0.142987
1125.968045	0.142296
1126.125989	0.140730
1126.283915	0.136260
1126.441823	0.133630
1126.599712	0.135135
1126.757583	0.130420
1126.915436	0.132616
1127.073270	0.132146
1127.231087	0.133383
1127.388885	0.136096
1127.546665	0.139504
1127.704426	0.142413
1127.862170	0.143227
1128.019895	0.136361
1128.177602	0.144471
1128.335291	0.141809
1128.492961	0.150086
1128.650614	0.147775
1128.808248	0.154944
1128.965864	0.153727
1129.123461	0.160945
1129.281041	0.160583
1129.438602	0.171717
1129.596145	0.177172
1129.753670	0.180050
1129.911176	0.176909
1130.068665	0.178832
1130.226135	0.169811
1130.383587	0.167478
1130.541020	0.165647
1130.698436	0.159325
1130.855833	0.154957
1131.013212	0.145392
1131.170573	0.143889
1131.327915	0.141852
1131.485239	0.145830
1131.642545	0.144161
1131.799833	0.146694
1131.957103	0.152593
1132.114354	0.162039
1132.271588	0.163381
1132.428803	0.165130
1132.585999	0.164362
1132.743178	0.161092
1132.900338	0.157315
1133.057480	0.162880
1133.214604	0.160414
1133.371710	0.150303
1133.528797	0.146147
1133.685866	0.148873
1133.842917	0.147387
1133.999950	0.151633
1134.156964	0.149048
1134.313960	0.147361
1134.470938	0.145529
1134.627898	0.147819
1134.784840	0.143567
1134.941763	0.142204
1135.098668	0.134850
1135.255555	0.139819
1135.412424	0.138798
1135.569274	0.144584
1135.726107	0.142099
1135.882921	0.142768
1136.039716	0.141309
1136.196494	0.152671
1136.353253	0.158477
1136.509995	0.156592
1136.666717	0.149409
1136.823422	0.154444
1136.980109	0.154044
1137.136777	0.158706
1137.293427	0.159611
1137.450059	0.153163
1137.606672	0.145164
1137.763267	0.135072
1137.919844	0.148406
1138.076403	0.149372
1138.232944	0.148359
1138.389466	0.150577
1138.545971	0.144476
1138.702457	0.141050
1138.858924	0.143677
1139.015374	0.149427
1139.171805	0.149527
1139.328218	0.140545
1139.484613	0.142793
1139.640990	0.140143
1139.797348	0.136788
1139.953688	0.141099
1140.110010	0.141883
1140.266314	0.147033
1140.422600	0.137541
1140.578867	0.141540
1140.735116	0.139581
1140.891347	0.143751
1141.047559	0.142956
1141.203754	0.139737
1141.359930	0.149515
1141.516088	0.155853
1141.672228	0.148690
1141.828349	0.153698
1141.984452	0.161017
1142.140537	0.162417
1142.296604	0.157068
1142.452653	0.151875
1142.608683	0.152449
1142.764695	0.158681
1142.920689	0.153975
1143.076665	0.168586
1143.232622	0.170300
1143.388562	0.168754
1143.544483	0.167652
1143.700385	0.163259
1143.856270	0.166304
1144.012136	0.183489
1144.167985	0.161840
1144.323814	0.160060
1144.479626	0.144114
1144.635420	0.141240
1144.791195	0.133112
1144.946952	0.136108
1145.102691	0.135761
1145.258411	0.129173
1145.414113	0.124390
1145.569798	0.135027
1145.725463	0.135181
1145.881111	0.129896
1146.036741	0.128213
1146.192352	0.128481
1146.347945	0.116195
1146.503519	0.122114
1146.659076	0.121850
1146.814614	0.110963
1146.970134	0.111047
1147.125636	0.108932
1147.281120	0.123610
1147.436585	0.124149
1147.592032	0.124461
1147.747461	0.134253
1147.902872	0.128271
1148.058265	0.140757
1148.213639	0.143452
1148.368995	0.140649
1148.524333	0.144329
1148.679653	0.134245
1148.834954	0.142774
1148.990237	0.147445
1149.145502	0.146431
1149.300749	0.147664
1149.455977	0.142721
1149.611188	0.147131
1149.766380	0.141214
1149.921553	0.140233
1150.076709	0.140702
1150.231846	0.139241
1150.386966	0.132603
1150.542066	0.143020
1150.697149	0.144933
1150.852214	0.150067
1151.007260	0.141030
1151.162288	0.144550
1151.317298	0.145388
1151.472289	0.150800
1151.627263	0.137859
1151.782218	0.140503
1151.937155	0.136683
1152.092073	0.144502
1152.246974	0.139749
1152.401856	0.143046
1152.556720	0.142982
1152.711566	0.149660
1152.866393	0.153674
1153.021203	0.159258
1153.175994	0.155322
1153.330767	0.146934
1153.485521	0.145184
1153.640258	0.144379
1153.794976	0.149597
1153.949676	0.162524
1154.104358	0.151550
1154.259021	0.147019
1154.413667	0.153178
1154.568294	0.164339
1154.722903	0.169321
1154.877493	0.168809
1155.032066	0.171284
1155.186620	0.164251
1155.341156	0.149601
1155.495674	0.153556
1155.650173	0.155386
1155.804654	0.155682
1155.959118	0.145821
1156.113562	0.149279
1156.267989	0.138587
1156.422397	0.142565
1156.576788	0.153836
1156.731160	0.155368
1156.885513	0.153144
1157.039849	0.159359
1157.194166	0.155745
1157.348465	0.165414
1157.502746	0.166121
1157.657009	0.176319
1157.811253	0.173872
1157.965479	0.159595
1158.119687	0.154081
1158.273877	0.162873
1158.428048	0.157288
1158.582201	0.147300
1158.736337	0.141676
1158.890453	0.141053
1159.044552	0.132699
1159.198632	0.131586
1159.352694	0.134932
1159.506738	0.143059
1159.660764	0.136697
1159.814771	0.128145
1159.968761	0.136544
1160.122732	0.128871
1160.276685	0.118699
1160.430619	0.118122
1160.584535	0.119723
1160.738434	0.114766
1160.892313	0.115730
1161.046175	0.124383
1161.200019	0.128314
1161.353844	0.138785
1161.507651	0.149485
1161.661440	0.149382
1161.815210	0.152974
1161.968962	0.145367
1162.122697	0.157422
1162.276412	0.150945
1162.430110	0.138988
1162.583789	0.141304
1162.737451	0.129728
1162.891094	0.123693
1163.044718	0.128528
1163.198325	0.127331
1163.351913	0.126565
1163.505483	0.122155
1163.659035	0.116904
1163.812569	0.106587
1163.966084	0.105075
1164.119581	0.107210
1164.273060	0.120125
1164.426521	0.120259
1164.579964	0.127939
1164.733388	0.131814
1164.886794	0.139133
1165.040182	0.142359
1165.193551	0.149500
1165.346903	0.157454
1165.500236	0.152082
1165.653551	0.147834
1165.806848	0.155637
1165.960126	0.143259
1166.113386	0.137000
1166.266628	0.137572
1166.419852	0.139915
1166.573058	0.154049
1166.726245	0.151638
1166.879414	0.149424
1167.032565	0.152942
1167.185698	0.137162
1167.338812	0.133482
1167.491909	0.159970
1167.644987	0.147600
1167.798046	0.142108
1167.951088	0.118635
1168.104111	0.120221
1168.257117	0.120080
1168.410103	0.112356
1168.563072	0.125330
1168.716023	0.135360
1168.868955	0.106808
1169.021869	0.107769
1169.174765	0.116070
1169.327642	0.125903
1169.480501	0.121386
1169.633343	0.129459
1169.786165	0.122488
1169.938970	0.117843
1170.091757	0.109964
1170.244525	0.110275
1170.397275	0.100841
1170.550007	0.103359
1170.702720	0.115695
1170.855415	0.100804
1171.008092	0.093996
1171.160751	0.091915
1171.313392	0.086313
1171.466014	0.020448
1171.618619	0.078984
1171.771205	0.078984
1171.923772	0.078984
