sample name	sample
index	815
start time	 03-31-2021  03:31:38 PM
880	0.531784
Peak Time (s)	92.038
Peak Height 	0.5318
calc peak height	90,93
Baseline Time (s)	11.035
Baseline Value 	-3.1172E-4
subtract baseline	10,4
Abs	0.338794
Peak Time (s)	90.54
Peak Height 	0.3388
calc peak height	90,93
Baseline Time (s)	11.535
Baseline Value 	0.001255
subtract baseline	10,3
PK_550	0.136749
Peak Time (s)	90.036
Peak Height 	0.1367
calc peak height	90,93
Baseline Time (s)	9.036
Baseline Value 	6.8351E-4
subtract baseline	10,2
PK_880	0.320986
Peak Time (s)	91.537
Peak Height 	0.321
calc peak height	90,93
Baseline Time (s)	10.534
Baseline Value 	0.00241
subtract baseline	10,1


Time (s)	A880-A510	A880-A775	A880-A975	A880	I510	I775	I975	I880	
0.036500	-0.002836	-0.000202	-0.000952	0.000689	6609.017284	39195.397704	4042.019050	21478.393105
0.536500	-0.001552	-0.000141	-0.003684	0.002132	6607.754009	39080.981672	4033.125831	21417.555517
1.037500	-0.003212	-0.001266	-0.002153	0.002170	6594.225777	38984.952125	4036.296349	21415.954715
1.537500	-0.001255	-0.000234	0.001563	0.001285	6616.897191	39143.356833	4046.134295	21453.248859
2.035000	-0.003204	-0.000256	-0.004436	0.001734	6597.761050	39104.402366	4032.377962	21434.341589
2.536000	-0.002151	-0.000445	-0.002927	0.001692	6606.484359	39092.219228	4035.667720	21436.105911
3.035500	-0.001081	0.000022	0.003031	-0.001398	6639.833039	39387.644593	4055.100534	21566.773659
3.538500	0.001713	-0.000379	-0.000208	0.000319	6648.514153	39211.507970	4044.406393	21494.056269
4.036000	-0.002012	-0.000639	-0.002531	-0.000018	6621.263762	39217.841176	4040.155160	21508.290241
4.536000	-0.002008	-0.001100	-0.001548	-0.000271	6623.326614	39200.588232	4042.799006	21519.009054
5.037000	-0.001016	-0.000643	-0.000517	0.000031	6628.859521	39213.471662	4044.360484	21506.219373
5.537000	0.001134	-0.000396	0.000352	0.000636	6641.288118	39183.757313	4044.928418	21480.640700
6.034500	0.000662	0.001344	-0.001593	0.002117	6625.583839	39205.176027	4037.601635	21418.193916
6.535000	-0.000329	-0.000927	-0.000312	0.000229	6632.786652	39173.463470	4044.375959	21497.841075
7.035500	-0.001548	-0.000057	0.000513	0.000212	6623.139257	39247.061301	4046.182751	21498.542797
7.538000	-0.000750	-0.000611	-0.000850	-0.000548	6635.651058	39264.183800	4044.890617	21530.737188
8.039000	0.001557	-0.000117	-0.001300	0.000122	6648.844696	39249.548129	4042.489313	21502.379608
8.539000	-0.001691	-0.000495	-0.002340	0.000241	6621.762144	39208.358661	4040.009325	21497.351029
9.036000	-0.001587	0.000000	0.002048	0.000882	6617.463659	39196.200261	4048.046262	21470.268506
9.536000	-0.000528	0.000083	0.001687	-0.000036	6633.324661	39279.338834	4049.247560	21509.058831
10.037500	0.001103	0.000281	0.002403	-0.000115	6647.090004	39302.353947	4050.961259	21512.386441
10.534500	0.000000	-0.000160	-0.000430	-0.000109	6638.149989	39265.169701	4044.847273	21512.116886
11.035000	0.000678	-0.000085	-0.004216	0.000000	6642.733908	39262.322977	4036.523485	21507.526707
11.535000	0.000626	0.000433	0.000000	0.000376	6639.288459	39274.157132	4044.729909	21491.625845
12.038000	0.000638	-0.000064	0.000821	-0.000322	6645.012527	39290.826862	4047.995395	21521.151242
12.535500	-0.001208	-0.000019	0.002147	0.000777	6621.332884	39203.320661	4048.485110	21474.675862
13.035500	-0.000486	-0.000020	0.000860	0.001597	6620.545610	39135.198309	4043.954686	21440.077694
13.536000	-0.000746	0.000576	-0.002476	0.001643	6618.099348	39180.860380	4036.731445	21438.152507
14.036500	-0.003501	0.000103	-0.002440	0.002265	6591.176534	39090.149481	4035.484772	21411.969093
14.538500	-0.001217	0.000384	0.000593	0.003580	6598.875310	39004.743221	4039.141923	21356.698017
15.037000	-0.000470	0.000547	0.001083	0.001645	6620.296097	39178.229172	4044.329758	21438.072817
15.537000	-0.001802	-0.000361	-0.000848	0.000826	6616.189761	39170.882397	4041.947974	21472.620124
16.037500	-0.001823	-0.000314	-0.004414	0.001046	6614.269303	39156.597431	4033.882876	21463.350926
16.538000	0.001577	0.000543	-0.000433	0.002721	6628.082573	39088.825234	4038.786924	21392.782345
17.035500	0.001261	0.000248	0.002347	-0.002034	6663.898414	39459.568388	4054.995650	21593.767533
17.535500	0.000068	0.000101	-0.002530	0.001696	6624.205837	39137.084455	4036.503724	21435.942963
18.036500	-0.002447	0.000087	-0.001064	0.001737	6603.764473	39132.495653	4039.539303	21434.185353
18.536500	-0.000775	-0.000065	0.002453	0.001389	6619.904090	39148.767785	4047.826201	21448.850348
19.037000	-0.001429	0.000283	-0.005129	0.001725	6611.985744	39149.779541	4030.930921	21434.722859
19.537000	-0.000099	-0.000007	0.001159	0.001386	6625.343318	39153.803679	4045.048243	21448.975032
20.037000	-0.001980	-0.000471	-0.000966	0.001234	6611.501936	39127.998220	4040.822039	21455.395294
20.535000	-0.001749	0.000149	-0.000928	0.002189	6605.728904	39100.212572	4038.866331	21415.162242
21.038000	0.000243	0.000183	0.004934	0.002111	6622.275301	39109.559166	4051.622578	21418.468703
21.535000	-0.003261	-0.000461	-0.001468	0.001226	6601.348005	39129.428101	4039.766955	21455.725637
22.035500	-0.000178	0.000471	0.000660	0.002145	6618.629056	39130.590353	4042.353393	21417.024655
22.535500	-0.002553	-0.000573	-0.000391	0.001318	6606.260391	39112.579933	4041.872854	21451.849508
23.036000	-0.001227	-0.000572	0.000547	0.001573	6614.814279	39091.524649	4043.334630	21441.099838
23.536000	-0.001550	-0.000032	-0.003543	0.001401	6613.605106	39150.490216	4034.976656	21448.353779
24.036500	-0.002249	-0.000739	-0.001055	0.001121	6610.262228	39115.166884	4040.874937	21460.173901
24.537000	-0.001867	0.000310	-0.003859	0.001628	6609.264919	39160.046687	4033.824865	21438.792411
25.037000	-0.001126	-0.000558	0.008167	0.001461	6616.519858	39101.984496	4060.055225	21445.832841
25.534500	-0.002733	0.000186	-0.000607	0.001948	6599.803052	39123.211168	4040.064168	21425.296768
26.035000	-0.002672	-0.000096	-0.006265	0.001856	6601.024133	39107.553836	4028.255367	21429.202165
26.535000	-0.002096	0.000440	-0.003439	0.001913	6605.156161	39147.181293	4034.110752	21426.778355
27.038500	-0.000611	0.000062	-0.005989	-0.001148	6641.599391	39370.093093	4035.196114	21556.153242
27.535500	-0.001226	-0.000024	0.000005	0.000220	6625.662151	39249.151044	4045.075372	21498.228242
28.036500	-0.001360	-0.000462	-0.001937	0.000573	6621.755721	39183.510759	4040.159670	21483.296999
28.536500	-0.002684	-0.000038	-0.000451	0.004838	6577.256394	38866.436460	4034.244107	21304.012638
29.036500	-0.000122	0.000361	-0.002293	0.001494	6624.292747	39175.305506	4037.436573	21444.427685
29.537500	0.000451	-0.000080	-0.004640	0.001522	6628.665988	39136.549967	4032.394573	21443.265818
30.037000	-0.001667	-0.000440	0.002725	0.000971	6616.114067	39152.295593	4049.312249	21466.500426
30.540000	-0.000892	-0.000404	0.001979	0.002340	6611.359244	39042.049306	4044.761462	21408.792396
31.034500	-0.000182	0.000459	-0.002696	0.002417	6616.425538	39107.031047	4034.619694	21405.589593
31.536000	-0.001278	0.000678	0.002992	0.001731	6613.142593	39181.938330	4048.248524	21434.431201
32.035500	-0.000552	0.000057	-0.004243	0.001395	6621.649049	39158.392445	4033.504655	21448.633286
32.535500	-0.002384	-0.000445	-0.000968	0.005214	6576.660528	38802.094182	4032.350695	21288.286846
33.036000	-0.000092	-0.000003	-0.003542	-0.001180	6646.042149	39367.379762	4040.476886	21557.511564
33.537000	-0.001983	0.000033	0.002992	0.001971	6605.594217	39108.698766	4047.733401	21424.330845
34.037000	-0.002326	-0.000039	0.002658	0.002510	6598.569175	39058.179109	4045.854794	21401.655861
34.537500	-0.001270	-0.000671	-0.004565	0.004552	6590.730820	38837.892823	4026.154960	21315.972453
35.037500	-0.003515	-0.000225	0.000450	0.002255	6591.141553	39063.856811	4041.667063	21412.370489
35.535000	-0.002298	0.000223	-0.002460	0.002151	6601.651274	39109.523423	4035.685605	21416.774172
36.035500	-0.001331	-0.000304	-0.000012	0.002300	6608.180700	39053.683472	4040.584540	21410.510031
36.535500	-0.002224	-0.000702	-0.005775	0.004369	6584.615882	38850.358531	4023.998350	21323.637870
37.035500	-0.002330	0.000179	-0.000005	0.002288	6600.308599	39094.551862	4040.625113	21411.014725
37.536500	-0.001963	-0.000516	-0.001257	0.001621	6608.550670	39092.229281	4039.374912	21439.075889
38.039000	-0.004710	0.000402	0.002613	0.002339	6581.001802	39108.758770	4046.126772	21408.861043
38.536500	-0.000175	0.000478	-0.001429	0.002451	6616.209919	39105.869326	4037.241144	21404.160310
39.034500	-0.000952	0.000425	0.002828	0.002768	6607.466056	39075.206264	4045.667113	21390.829449
39.537500	0.000407	0.000640	-0.002940	0.002181	6623.026803	39141.529922	4034.599864	21415.489728
40.035000	-0.002790	0.000313	0.000383	0.002356	6596.104187	39100.013645	4041.308001	21408.141784
40.534500	-0.001856	0.000388	-0.006327	0.002097	6605.609780	39127.614465	4027.614258	21419.033949
41.038000	-0.001948	0.000065	0.000046	0.002040	6605.328498	39105.622901	4041.262918	21421.424306
41.591000	-0.000983	0.000145	-0.003393	0.002310	6610.869409	39089.858799	4033.365964	21410.059723
42.036000	-0.002736	-0.000981	-0.001532	0.001745	6601.403540	39043.609925	4038.525619	21433.876212
42.535500	-0.003819	0.000639	-0.002503	0.002479	6586.954038	39116.829384	4034.895510	21402.969243
43.036500	-0.002038	-0.000161	-0.000622	0.001540	6608.601314	39128.321569	4040.906042	21442.509593
43.537500	0.002111	0.000241	0.001431	-0.002398	6673.760489	39489.411223	4053.799242	21609.260080
44.038000	-0.002297	0.000308	-0.000080	0.001316	6608.320921	39185.756124	4042.543932	21451.950790
44.535000	0.000057	0.000155	0.002418	0.001463	6625.980193	39160.848805	4047.591560	21445.753097
45.035000	-0.002697	-0.000309	0.000929	0.000932	6608.194534	39166.469816	4045.531279	21468.165873
45.535500	-0.001800	-0.000289	0.001617	0.000863	6615.903784	39173.725002	4047.158496	21471.040349
46.035500	0.001262	-0.000107	0.009076	0.001349	6636.571933	39148.602385	4062.284339	21450.541815
46.536000	0.001695	0.000291	0.002904	0.001694	6637.279462	39152.993377	4048.140628	21436.002193
47.036500	-0.000655	-0.000224	-0.003675	0.002530	6611.740085	39041.243380	4032.302152	21400.822626
47.536500	0.000608	0.000069	0.000760	0.002451	6622.474466	39071.953720	4041.911688	21404.144370
48.037000	-0.000658	0.000536	0.002126	0.001905	6616.706326	39155.743439	4046.012576	21427.110569
48.537500	0.000106	-0.000214	0.002281	0.001011	6630.000954	39167.785018	4048.270764	21464.815854
49.040000	0.001619	0.000615	0.000048	-0.001254	6660.476829	39425.080811	4048.338759	21560.644101
49.538000	0.001793	-0.000272	0.002855	-0.006291	6702.950064	39773.190063	4065.393628	21775.571656
50.035500	0.001318	-0.000030	0.001474	-0.000607	6652.801078	39317.395089	4050.019167	21533.225910
50.535000	-0.034497	-0.002401	0.005463	0.220511	5085.008838	24777.856318	3681.186593	14193.236995
51.038500	-0.044600	0.004419	-0.005709	-0.048269	6666.925571	43925.319995	4141.595268	23667.093126
51.536000	-0.037361	-0.009951	-0.003640	-0.177027	7963.118858	56205.359319	4503.332929	30752.346773
52.036000	-0.003335	-0.033303	0.025829	-0.254920	9380.301734	63301.699142	4893.367549	36177.278023
52.536000	0.011431	-0.033681	0.030919	-0.258212	9645.139931	63706.343473	4928.067823	36428.636052
53.037000	0.041206	-0.007498	0.060524	-0.217690	9486.200697	61740.439421	4883.004808	33462.903543
53.539500	0.071834	0.021117	0.085588	-0.158320	9079.920580	57736.287877	4748.533197	29588.031101
54.037500	0.110168	0.046945	0.115370	-0.090886	8695.098553	52751.690252	4612.675552	25783.895182
54.538000	0.140618	0.068427	0.146701	-0.028319	8299.238974	48276.413485	4508.571165	22745.321318
55.036000	0.174757	0.086882	0.181196	0.050089	7799.462649	42460.747194	4374.318342	19506.370619
55.535500	0.197481	0.103002	0.205162	0.129263	7231.773963	37151.443488	4223.699768	16778.341513
56.036000	0.218761	0.115452	0.223484	0.201547	6778.596182	32778.289201	4093.874429	14686.734812
56.536000	0.233485	0.124553	0.243409	0.271164	6346.811125	28927.479024	3987.777687	12976.055162
57.036500	0.253346	0.135469	0.253841	0.319137	6145.940816	26821.052288	3915.302174	11947.079245
57.536500	0.259994	0.141063	0.270694	0.334163	6088.540992	26312.968499	3918.686143	11647.458294
58.039500	0.271190	0.148848	0.279853	0.366479	5948.680487	25042.207271	3876.829640	11037.174363
58.537500	0.278109	0.152316	0.281804	0.404751	5753.202369	23357.978234	3815.512747	10370.753247
59.035000	0.285018	0.152467	0.292526	0.429820	5646.260986	22232.421546	3792.670401	9965.000289
59.535000	0.288536	0.153831	0.293762	0.440067	5607.761328	21846.589147	3778.705214	9805.790657
60.035500	0.288885	0.156740	0.299353	0.458380	5507.847704	21195.843512	3759.474507	9530.419203
60.536000	0.287837	0.156429	0.292253	0.473247	5422.718967	20576.816530	3727.567735	9315.246877
61.036000	0.293325	0.158730	0.295481	0.469737	5470.464232	20811.262740	3737.182744	9365.386381
61.536500	0.296483	0.159675	0.298890	0.465011	5513.127294	21043.116670	3748.993439	9433.542585
62.036500	0.301014	0.160967	0.298690	0.456977	5582.730265	21431.003252	3760.577755	9551.110824
62.536500	0.302947	0.160199	0.308344	0.453866	5611.238793	21529.807104	3779.908388	9597.226112
63.039500	0.305434	0.162615	0.308430	0.456631	5609.655648	21515.013065	3775.802387	9556.215206
63.537000	0.305385	0.160535	0.310158	0.456826	5608.274978	21419.205077	3778.149915	9553.343410
64.037000	0.304823	0.160100	0.306433	0.458421	5596.051920	21334.095487	3770.043934	9529.809468
64.535500	0.303855	0.159238	0.304598	0.459972	5581.858551	21233.478163	3764.937848	9507.019301
65.035500	0.308940	0.161211	0.306685	0.463349	5591.477636	21175.177164	3763.004311	9457.684575
65.535500	0.308019	0.159905	0.313984	0.465469	5574.384140	21033.737391	3770.807123	9426.897594
66.036000	0.305981	0.159914	0.313751	0.468052	5548.636308	20928.180084	3766.552448	9389.596262
66.535500	0.305833	0.157556	0.305664	0.469180	5541.579546	20786.243890	3752.821591	9373.378773
67.036500	0.307371	0.157929	0.311587	0.472210	5533.350420	20678.826693	3757.101899	9330.023473
67.537000	0.306785	0.156581	0.304329	0.474500	5517.565754	20532.793027	3743.087343	9297.453975
68.036500	0.310762	0.156845	0.310291	0.478215	5518.997611	20395.369371	3746.357339	9244.978318
68.537500	0.309742	0.157161	0.309692	0.481636	5494.815830	20272.680630	3740.518032	9197.052239
69.035000	0.306577	0.155998	0.312173	0.483153	5469.591333	20167.474100	3741.913243	9175.922012
69.535000	0.311504	0.155371	0.308661	0.484833	5487.052329	20077.428189	3734.433343	9152.602396
70.035500	0.311048	0.156095	0.308974	0.486477	5475.746736	20041.674008	3732.531359	9129.878226
70.536000	0.309044	0.156036	0.313172	0.487755	5458.172842	19989.829684	3736.713393	9112.264365
71.036000	0.310734	0.154972	0.315531	0.488631	5462.520687	19914.870930	3738.848434	9100.227480
71.536500	0.311758	0.153996	0.312298	0.489504	5463.327477	19843.748740	3732.954887	9088.245464
72.039000	0.309376	0.153720	0.310786	0.490213	5446.866212	19806.005854	3729.790979	9078.547290
72.536500	0.309499	0.151260	0.309842	0.489048	5453.710419	19756.471660	3730.104511	9094.501211
73.037000	0.312746	0.154044	0.308280	0.493422	5447.716630	19695.842733	3721.721887	9034.800943
73.534500	0.310400	0.152708	0.313486	0.493763	5433.498656	19632.175973	3728.584277	9030.173882
74.035000	0.311987	0.152875	0.317264	0.496022	5429.955230	19553.069338	3730.742832	8999.597523
74.535500	0.312409	0.152325	0.314569	0.502134	5400.172507	19303.743414	3718.333855	8917.668240
75.035000	0.316069	0.153990	0.309116	0.500395	5428.422728	19430.660713	3713.174063	8940.858237
75.535500	0.313645	0.151074	0.313976	0.499766	5418.992779	19345.297869	3720.813310	8949.273564
76.036500	0.312628	0.150401	0.316173	0.500503	5409.816098	19292.864216	3722.861800	8939.417588
76.539000	0.313428	0.149360	0.318951	0.500963	5411.589071	19237.243607	3726.127286	8933.271273
77.040000	0.314074	0.149340	0.319501	0.503347	5402.521879	19148.568691	3723.542433	8901.539639
77.537000	0.314037	0.149422	0.324107	0.504445	5396.623844	19111.225710	3728.496521	8886.982480
78.034500	0.313425	0.147535	0.314847	0.505052	5390.303169	19019.955108	3714.661831	8878.953962
78.535000	0.317383	0.148181	0.320942	0.506670	5402.452065	18984.527735	3720.900463	8857.595904
79.038000	0.312914	0.146625	0.316101	0.506621	5379.559696	18929.770109	3714.225462	8858.243239
79.535500	0.312422	0.146931	0.321006	0.508173	5369.056941	18884.644816	3718.888638	8837.839099
80.036000	0.314018	0.146844	0.322551	0.508846	5373.796941	18857.151826	3720.107442	8829.014434
80.536000	0.313184	0.147823	0.323891	0.510965	5358.671384	18816.036022	3719.017793	8801.298896
81.036500	0.315469	0.144104	0.324084	0.509362	5378.608682	18740.003384	3721.532105	8822.253152
81.536500	0.313718	0.145434	0.313145	0.511198	5360.209321	18721.864771	3703.878730	8798.262677
82.040000	0.314826	0.144083	0.329528	0.511580	5363.917820	18659.956202	3726.071686	8793.286860
82.537500	0.314196	0.143550	0.326916	0.511980	5358.655277	18626.692987	3721.830230	8788.075963
83.037500	0.314920	0.142890	0.311525	0.512500	5359.700858	18584.791856	3699.915036	8781.323555
83.535000	0.315050	0.141835	0.318722	0.513216	5356.710362	18522.061340	3708.745063	8772.020308
84.035500	0.316259	0.143126	0.331610	0.515645	5350.493148	18481.895218	3723.275636	8740.586442
84.541500	0.316469	0.140952	0.323914	0.519020	5334.460600	18287.552141	3707.904859	8697.211200
85.036000	0.317779	0.142575	0.327042	0.517920	5346.662956	18382.615837	3713.729809	8711.317631
85.536000	0.323064	0.143655	0.327793	0.520504	5360.409919	18330.000817	3711.197319	8678.237482
86.036500	0.316543	0.138965	0.324930	0.518242	5338.763137	18245.511373	3710.369286	8707.174506
86.536500	0.318598	0.139631	0.331765	0.521071	5334.851075	18170.640913	3715.909709	8671.012808
87.037000	0.319517	0.139278	0.322240	0.521914	5335.234979	18129.409733	3701.676142	8660.283379
87.535000	0.317592	0.137924	0.327921	0.521663	5326.798337	18091.440234	3709.778061	8663.470723
88.035000	0.315985	0.137104	0.327491	0.522206	5316.009359	18044.723321	3708.441756	8656.566915
88.535500	0.320543	0.139002	0.328771	0.526368	5317.990737	17967.380902	3704.500079	8603.916853
89.035500	0.317403	0.136419	0.327654	0.524771	5310.276941	17933.828763	3705.154701	8624.062123
89.536000	0.317179	0.136352	0.325667	0.526623	5299.936098	17868.771307	3699.939979	8600.714111
90.036000	0.318291	0.136749	0.323670	0.528324	5297.010080	17824.669873	3694.959140	8579.349042
90.539500	0.317438	0.135813	0.338794	0.528468	5292.068988	17788.301661	3715.398133	8577.551274
91.036500	0.320568	0.135652	0.336891	0.530452	5297.750960	17716.303982	3710.026903	8552.756717
91.537000	0.320986	0.134170	0.335394	0.530747	5298.359820	17656.900992	3707.566540	8549.076562
92.037500	0.318767	0.134290	0.331446	0.531784	5282.252220	17626.348380	3700.775380	8536.162587
92.537500	0.318769	0.132755	0.329778	0.531777	5282.297034	17575.578142	3698.530412	8536.251474
93.035500	0.322339	0.132953	0.330912	0.533207	5292.869603	17534.795684	3698.132068	8518.501800
93.535000	0.323864	0.134733	0.347675	0.535794	5287.614519	17508.114334	3717.559391	8486.537493
94.036000	0.321657	0.134004	0.340274	0.536397	5273.780449	17464.222118	3706.512953	8479.117442
94.536000	0.323678	0.134258	0.334958	0.539026	5270.794549	17386.280554	3695.745104	8446.874139
95.039000	0.320438	0.130919	0.332676	0.537248	5263.644256	17335.328272	3695.069962	8468.666381
95.536500	0.320654	0.130184	0.335777	0.537909	5261.469741	17289.854251	3698.351750	8460.551802
