sample name	sample
index	1014
start time	 04-19-2021  11:41:08 AM
880	0.271239
Peak Time (s)	101.535
Peak Height 	0.2712
calc peak height	100,103
Baseline Time (s)	11.536
Baseline Value 	-0.005919
subtract baseline	10,4
Abs	0.172346
Peak Time (s)	102.038
Peak Height 	0.1723
calc peak height	100,103
Baseline Time (s)	8.537
Baseline Value 	0.005901
subtract baseline	10,3
PK_550	0.102621
Peak Time (s)	101.535
Peak Height 	0.1026
calc peak height	100,103
Baseline Time (s)	11.536
Baseline Value 	7.7744E-4
subtract baseline	10,2
PK_880	0.167626
Peak Time (s)	102.038
Peak Height 	0.1676
calc peak height	100,103
Baseline Time (s)	9.037
Baseline Value 	0.00214
subtract baseline	10,1


Time (s)	A880-A510	A880-A775	A880-A975	A880	I510	I775	I975	I880	
0.034000	0.000579	-0.000546	-0.003851	0.002149	6568.702803	45941.589912	3948.591470	24265.858553
0.537500	-0.000402	-0.000727	-0.004960	0.004050	6543.662452	45735.390579	3940.368883	24172.012410
1.035500	-0.001990	-0.001401	-0.006161	0.003261	6536.752729	45746.754974	3939.248507	24210.921158
1.536000	-0.003403	-0.000891	-0.004876	0.007001	6492.469514	45428.653317	3932.591013	24027.142631
2.035500	-0.000366	-0.000779	-0.001492	0.000154	6577.877755	46116.987992	3960.586163	24364.807605
2.535500	-0.001995	-0.001119	-0.005643	-0.000013	6565.115601	46099.712435	3949.607186	24373.101584
3.039000	0.000472	0.000148	-0.000784	0.000043	6586.178029	46220.561118	3962.856366	24370.325473
3.536000	-0.001440	-0.001160	-0.004643	0.000444	6565.974419	46050.058874	3951.098415	24350.394744
4.036500	-0.001285	-0.000399	-0.004854	0.000006	6571.145211	46169.672593	3951.722310	24372.164844
4.537500	0.000231	-0.000131	0.001335	0.000265	6582.127228	46170.499741	3968.130062	24359.295388
5.034500	-0.002008	-0.000339	-0.001665	0.000438	6561.080561	46132.454583	3959.322655	24350.685318
5.534000	0.001231	0.000003	-0.003522	0.000884	6585.458000	46122.159752	3952.970567	24328.548054
6.035000	-0.000901	0.000120	-0.003707	0.000047	6574.134521	46217.344536	3954.764586	24370.128201
6.535000	-0.000194	0.000519	-0.003107	0.000558	6575.843757	46206.150724	3955.009968	24344.741117
7.036000	-0.001667	-0.001143	-0.001553	-0.000644	6573.480304	46160.202347	3962.627733	24404.485065
7.539000	-0.000786	-0.000139	0.000259	0.000271	6573.186077	46169.140192	3965.121010	24359.007098
8.036500	-0.001317	-0.000236	-0.006300	-0.000053	6571.379210	46191.873485	3947.916484	24375.115812
8.537000	0.001406	0.000622	0.000000	0.000603	6589.447979	46211.930013	3963.477112	24342.480768
9.037000	0.000000	0.000425	0.000109	0.000102	6581.527656	46242.337989	3965.171721	24367.388911
9.537500	0.002196	0.000400	-0.002895	0.000360	6598.518680	46214.033343	3956.140190	24354.566411
10.037500	-0.000733	-0.000299	-0.003064	-0.000195	6577.711051	46199.658270	3957.204586	24382.142434
10.535500	-0.000625	-0.000359	0.000564	-0.000083	6577.676663	46182.450187	3966.951986	24376.580289
11.035000	-0.000234	-0.000350	-0.001461	-0.000089	6581.152349	46183.986288	3961.343947	24376.871856
11.536000	0.000677	0.000000	0.000063	0.000000	6588.345776	46210.089827	3965.328005	24372.464507
12.039000	0.000865	-0.000488	-0.004814	-0.000092	6590.805477	46170.562528	3952.101513	24377.046780
12.536000	-0.001461	-0.000264	-0.000672	-0.000625	6575.114736	46246.197294	3965.021910	24403.572628
13.036500	0.000809	-0.000543	-0.001440	-0.000785	6596.393474	46234.262980	3963.332327	24411.514184
13.537500	-0.000005	0.000471	-0.002505	-0.000176	6583.919865	46274.865500	3958.699499	24381.240863
14.037000	-0.001445	-0.000544	-0.003290	0.001499	6556.748132	46006.424747	3951.914278	24298.047590
14.538000	-0.000416	-0.000079	-0.002344	0.002124	6560.266755	45990.496288	3952.799944	24267.118809
15.035000	-0.000740	0.000109	-0.004300	-0.000504	6580.356182	46271.370522	3954.651216	24397.554426
15.535000	0.000361	0.000517	0.000068	-0.000038	6585.917054	46265.566110	3965.449190	24374.365330
16.035500	0.000602	-0.000722	0.000811	-0.000845	6595.107718	46222.390721	3969.764424	24414.534974
16.539000	-0.000673	-0.000092	-0.000423	-0.000124	6577.617867	46213.231555	3964.322050	24378.617139
17.035500	0.000505	0.000532	-0.000903	-0.000544	6591.609550	46317.707653	3964.155558	24399.514089
17.536000	-0.000772	-0.000203	-0.002193	0.000606	6570.377503	46129.259607	3957.397536	24342.343054
18.036500	0.000019	-0.000271	-0.003594	0.000610	6577.252788	46122.213072	3953.525126	24342.163477
18.537000	0.001543	0.000199	-0.001804	0.001369	6583.940765	46093.318969	3956.365208	24304.491552
19.037500	0.000036	-0.000088	-0.004834	0.001012	6573.885651	46100.253662	3949.013861	24322.185670
19.535000	-0.000287	0.000247	-0.003102	0.001025	6570.959584	46132.407048	3953.737974	24321.568443
20.035000	0.000640	-0.000932	-0.001136	0.000649	6582.343488	46052.362686	3960.201624	24340.205830
20.535000	0.000198	0.000298	-0.001498	0.001041	6575.054111	46135.960748	3958.116623	24320.765742
21.035500	-0.001751	-0.001192	-0.002857	0.000267	6564.802253	46064.553332	3956.500973	24359.170735
21.535500	-0.000610	-0.000010	-0.000766	0.000709	6570.893673	46138.327586	3961.061073	24337.227245
22.036500	-0.000486	-0.000427	-0.004381	0.000586	6573.055194	46108.975917	3951.426819	24343.345645
22.536500	-0.000091	0.000100	-0.002378	0.000781	6574.799361	46142.103560	3956.404800	24333.667414
23.036500	0.000699	0.000365	0.004019	0.001251	6577.589012	46121.661701	3972.870563	24310.345667
23.537000	-0.000243	0.000071	-0.004770	0.001167	6570.096962	46100.668765	3948.762919	24314.495078
24.034000	-0.002121	0.000198	0.000059	0.001394	6551.792365	46090.815496	3961.450707	24303.286098
24.535000	-0.003889	-0.000501	-0.001852	0.000429	6544.833728	46117.322547	3958.830082	24351.165465
25.035000	-0.000796	0.000295	-0.005220	0.001055	6566.255059	46134.176702	3947.838109	24320.066036
25.538000	-0.001259	0.000229	-0.002849	0.001711	6556.528956	46062.303151	3952.545249	24287.567530
26.035500	-0.000562	0.000140	0.004144	0.001597	6563.580036	46064.761268	3972.252072	24293.202987
26.536000	0.001895	0.000161	-0.002331	0.001026	6590.032382	46123.778068	3955.859348	24321.523265
27.036000	-0.002233	-0.000027	-0.001931	0.002729	6539.258281	45935.578956	3952.271912	24237.222605
27.536500	0.000172	0.000406	-0.000315	-0.000118	6584.959073	46262.530310	3964.606421	24378.340908
28.036500	-0.001201	0.000040	0.000949	0.000046	6571.526793	46209.468802	3967.664619	24370.159126
28.537000	0.000070	0.000876	-0.000090	0.000511	6578.566756	46246.549848	3963.485374	24347.080936
29.034500	-0.002932	-0.000056	-0.003349	0.003979	6522.424031	45808.739989	3944.956180	24175.509522
29.535000	-0.001745	0.000449	0.000017	0.000315	6564.439842	46223.470959	3964.326628	24356.822010
30.038000	0.000851	0.000440	0.002095	0.000877	6582.189334	46166.435247	3968.540817	24328.882131
30.535500	-0.001344	-0.000113	0.001027	0.002439	6549.466413	45955.825219	3961.234846	24251.549106
31.036000	-0.002266	-0.000325	-0.005256	0.003139	6535.416082	45865.343222	3942.045693	24216.936260
31.536500	0.002274	0.000691	-0.003048	0.000214	6600.489928	46257.788943	3956.120429	24361.820115
32.036500	0.001785	0.000850	0.002471	0.000692	6592.001507	46225.859917	3970.109061	24338.098111
32.537000	-0.000374	0.000079	-0.004282	-0.000140	6580.375056	46232.015472	3953.696575	24379.444026
33.037500	-0.000858	0.000005	-0.000792	0.003538	6544.145567	45858.498745	3953.178234	24197.249331
33.537000	0.000648	0.000078	-0.000095	-0.000393	6591.534696	46257.142283	3965.980304	24392.003471
34.035000	-0.000896	-0.000183	0.001172	0.001875	6558.255633	46004.946160	3963.201898	24279.438179
34.538000	0.000960	-0.000238	0.000118	0.001803	6575.053222	46006.586668	3960.478422	24282.995276
35.035000	-0.000825	-0.000207	-0.002055	0.003244	6546.983885	45866.705372	3950.515005	24211.782729
35.536000	-0.000746	0.000304	-0.001067	0.002517	6553.982049	45989.519102	3955.234763	24247.681578
36.036000	-0.001261	-0.000603	-0.002292	0.001455	6558.726100	46004.892015	3954.783745	24300.231686
36.536500	-0.002352	-0.001333	0.000540	0.001065	6552.647576	45971.223365	3963.695296	24319.597474
37.036500	-0.001154	0.000422	-0.005486	0.003659	6540.543197	45887.814855	3940.002832	24191.290871
37.537000	-0.001357	0.000251	0.000339	0.002319	6550.394847	46004.005503	3959.662403	24257.477788
38.037000	-0.000632	-0.000292	-0.004077	0.002045	6559.069637	45977.168347	3948.257282	24271.012084
38.534500	-0.000763	-0.000666	-0.000042	0.001610	6561.711656	45983.234968	3960.569104	24292.542775
39.038000	0.000867	-0.000063	0.001609	0.002056	6572.036787	45998.962212	3963.913705	24270.501737
39.535000	-0.002572	-0.000179	-0.001061	0.001389	6547.917705	46053.702296	3958.364037	24303.514836
40.035000	0.000119	0.000372	-0.004320	0.001915	6566.743560	46056.188337	3947.949087	24277.458543
40.535500	-0.001535	0.000295	-0.008427	0.001547	6555.549186	46085.171430	3937.748258	24295.690984
41.036500	0.000450	0.000267	-0.000577	0.001611	6572.272070	46075.960079	3959.088014	24292.499760
41.536000	-0.002879	-0.000538	-0.005375	0.000927	6549.268779	46063.953877	3947.765915	24326.433507
42.037000	0.000779	0.000256	-0.000782	0.001656	6574.752325	46070.425182	3958.395453	24290.287512
42.537000	0.000869	0.000468	-0.000344	0.001767	6574.572231	46080.486204	3959.302446	24284.801524
43.037000	-0.000433	0.000223	-0.002840	0.001843	6562.558912	46048.566462	3952.208651	24281.042892
43.538000	-0.000309	-0.000601	-0.003683	0.000737	6573.277433	46076.585645	3952.930528	24335.858910
44.035500	0.002687	0.000311	0.001739	0.001206	6595.399079	46120.750250	3966.634926	24312.563988
44.535500	-0.000427	0.000512	-0.000492	0.001337	6567.021582	46127.771920	3960.081042	24306.095600
45.035500	-0.004213	0.000484	-0.000042	0.006162	6492.721003	45646.481450	3948.033004	24068.243777
45.536000	0.002782	0.000623	0.002292	0.000604	6601.527555	46211.988132	3969.852335	24342.442327
46.036500	0.001497	0.000532	0.000709	0.001424	6583.059961	46121.024911	3963.167643	24301.773227
46.536500	-0.002275	-0.000533	-0.004278	0.001457	6549.909508	46011.697490	3949.319802	24300.152209
47.036500	-0.001321	-0.000225	-0.004298	0.003444	6540.958673	45845.010916	3943.826114	24201.894050
47.537500	-0.000177	0.000723	-0.002557	0.002828	6556.219313	46000.271938	3950.278867	24232.288389
48.040500	-0.000010	0.000225	0.001455	0.000708	6576.140949	46161.799221	3967.229834	24337.273964
48.535000	-0.000398	0.000255	-0.003161	0.001457	6566.222450	46090.108191	3952.386934	24300.126913
49.035500	-0.002168	0.000188	-0.003148	0.005480	6516.089027	45684.538053	3941.411504	24101.714157
49.535500	0.002500	0.000661	-0.000390	-0.002160	6623.410460	46492.828162	3970.082310	24480.109269
50.036000	0.001460	0.001995	-0.003031	0.000401	6591.700116	46369.661658	3955.654607	24352.553689
50.536000	0.002394	-0.001196	0.002983	0.029362	6353.636014	43261.694537	3894.022306	22960.795987
51.036000	0.012548	-0.005305	0.025512	0.330567	4609.589941	22839.870996	3356.078232	12865.678120
51.536500	-0.009869	-0.015640	-0.035630	-0.091062	7363.568933	54440.221565	4129.474502	29409.862430
52.037000	-0.027821	-0.065368	-0.043175	-0.218252	8673.702272	64520.504626	4564.436751	38471.466115
52.536500	-0.028395	-0.070396	-0.035021	-0.225842	8769.651608	64885.629936	4631.121414	39100.733236
53.034000	-0.014685	-0.096628	-0.024397	-0.256593	9415.068634	65535.000000	4818.338356	41765.886338
53.535000	-0.007649	-0.055263	-0.011107	-0.204135	8756.415183	63953.257222	4640.665278	37329.942686
54.035500	0.001415	-0.020873	-0.003149	-0.125125	7867.762967	57983.646814	4356.550616	31582.760197
54.535000	-0.000649	-0.012415	0.000895	-0.085614	7403.529995	54176.723780	4231.202424	29077.876349
55.036000	-0.003809	-0.009085	-0.009246	-0.087566	7390.699856	54805.255944	4203.687900	29196.378830
55.536000	0.009455	-0.011516	0.005521	-0.123894	7948.117760	59025.545125	4384.164687	31501.201141
56.036500	0.021281	-0.003792	0.011608	-0.100380	7810.952486	57018.554199	4320.208905	29987.409821
56.536500	0.020428	-0.000133	0.008724	-0.099879	7795.302458	57414.308861	4308.081839	29956.094354
57.039500	0.022220	0.002445	0.015364	-0.079082	7580.668486	55171.097312	4258.369539	28685.298168
57.537500	0.033302	0.008811	0.024170	-0.046617	7350.143224	52117.436733	4178.828945	26819.293103
58.035000	0.040390	0.014478	0.030623	-0.018190	7131.138778	49600.144228	4108.734302	25296.088799
58.535000	0.047127	0.017679	0.036513	0.003142	6987.438051	47687.194731	4061.554802	24216.804029
59.035500	0.050900	0.022462	0.036741	0.036593	6709.680532	44820.813977	3965.564746	22627.540623
59.536000	0.058038	0.026983	0.052812	0.055684	6603.072014	43435.036914	3957.198423	21773.934101
60.036500	0.065005	0.033266	0.060832	0.077296	6476.388002	42026.202751	3920.252286	20851.773080
60.536500	0.074474	0.036591	0.064319	0.089335	6454.588598	41247.304302	3897.590427	20357.655661
61.036500	0.074469	0.040777	0.075924	0.118820	6213.526737	39072.508167	3851.634826	19203.830069
61.539500	0.086746	0.046619	0.084539	0.111999	6367.765991	40145.211925	3891.196114	19463.815673
62.037500	0.090890	0.049503	0.090851	0.145089	6136.598913	37637.061154	3823.444559	18239.744474
62.535000	0.097207	0.055556	0.095365	0.164810	6034.659593	36558.229051	3786.787234	17553.389857
63.035000	0.102449	0.059183	0.101454	0.148785	6197.881847	38120.255239	3840.524371	18108.753747
63.536000	0.111624	0.062476	0.112165	0.163808	6152.196421	37179.389630	3829.828802	17587.499812
64.035500	0.111421	0.066556	0.112010	0.173882	6073.393744	36708.390366	3804.881178	17247.956936
64.536000	0.117276	0.068614	0.118022	0.168138	6162.473477	37322.742100	3833.603162	17440.603777
65.036000	0.120441	0.070923	0.118685	0.165086	6211.203057	37751.391090	3842.843788	17543.996006
65.537000	0.123241	0.074502	0.122924	0.147047	6379.732471	39534.460766	3899.938764	18170.219629
66.039000	0.125315	0.075915	0.119501	0.139821	6457.598659	40272.180787	3909.981742	18428.463204
66.537500	0.128736	0.076784	0.121680	0.143054	6459.189957	40068.868297	3907.188309	18312.391506
67.034500	0.127266	0.076793	0.123996	0.149640	6391.615105	39508.878697	3895.946151	18078.588262
67.535000	0.134040	0.079407	0.130098	0.152558	6423.801648	39483.183176	3904.316742	17976.138816
68.037500	0.132491	0.080476	0.126472	0.160323	6346.546642	38922.195808	3874.645385	17706.838026
68.535500	0.134486	0.079370	0.131286	0.162504	6345.014189	38649.902415	3881.433686	17632.032079
69.035500	0.134568	0.081084	0.134047	0.172409	6265.336884	37980.363908	3863.108096	17297.103990
69.536000	0.140842	0.082415	0.140490	0.172934	6311.754000	38045.737351	3878.267299	17279.571195
70.039000	0.137176	0.082232	0.133849	0.177170	6248.116013	37689.048833	3850.562013	17138.817978
70.539500	0.142630	0.083535	0.140921	0.181903	6253.884104	37414.746062	3856.463443	16983.188662
71.037000	0.139849	0.084139	0.140211	0.188276	6181.475177	36958.155435	3838.696251	16776.262702
71.537000	0.142500	0.085901	0.139421	0.190212	6187.079282	36944.477066	3831.933564	16714.000375
72.035000	0.145235	0.086111	0.143727	0.195247	6169.096631	36567.461442	3830.132711	16553.377223
72.535000	0.144225	0.086671	0.143231	0.197576	6143.155860	36430.194141	3823.182341	16479.699715
73.035500	0.145107	0.087559	0.141352	0.205695	6087.619870	35875.193230	3798.943598	16225.956927
73.535500	0.146805	0.088410	0.151657	0.205392	6102.883919	35963.102999	3824.678545	16235.331914
74.036000	0.146560	0.089083	0.146608	0.209470	6069.994887	35704.274949	3802.498121	16109.563218
74.536000	0.148279	0.088856	0.147812	0.211821	6065.207801	35509.567215	3799.742489	16037.578499
75.042000	0.147793	0.090002	0.148178	0.217743	6017.133525	35151.999161	3786.503068	15858.022902
75.536500	0.151645	0.090444	0.149287	0.218197	6042.545429	35151.132847	3788.056439	15844.363708
76.037000	0.151639	0.090971	0.148612	0.223399	6003.678467	34804.871582	3774.212661	15688.782310
76.534500	0.153341	0.090958	0.155155	0.224300	6009.629864	34737.655957	3787.498507	15662.043549
77.034500	0.151747	0.091471	0.155171	0.228494	5966.902670	34468.172227	3777.644192	15538.210749
77.535500	0.153506	0.092026	0.154766	0.229683	5971.088801	34422.006356	3773.908149	15503.329042
78.035500	0.152049	0.091694	0.153061	0.232988	5936.317652	34158.442653	3762.257044	15406.859868
78.535500	0.154140	0.092679	0.152786	0.234023	5943.992909	34154.854126	3759.234151	15376.803036
79.036000	0.153830	0.092670	0.155322	0.239457	5902.454482	33764.548557	3752.575985	15220.167005
79.539000	0.157924	0.092823	0.154974	0.237163	5948.683698	33939.387905	3757.042167	15286.055916
80.036500	0.154751	0.093805	0.156343	0.239890	5905.963174	33814.578238	3753.924013	15207.761848
80.536500	0.154495	0.093575	0.155484	0.240983	5896.276598	33720.303073	3749.457453	15176.529012
81.040000	0.156402	0.093670	0.160069	0.245582	5877.033537	33401.456849	3749.426503	15045.922534
81.537500	0.158858	0.094108	0.154108	0.244540	5902.060351	33505.835480	3738.259999	15075.383622
82.035000	0.159526	0.094654	0.160874	0.245860	5897.382606	33451.238219	3750.630950	15038.082680
82.535000	0.159511	0.096094	0.163108	0.247891	5882.740757	33409.606548	3751.094138	14980.887884
83.035500	0.156585	0.095239	0.156126	0.250471	5843.683771	33168.496314	3729.470837	14908.606816
83.535500	0.158745	0.095599	0.163409	0.249528	5865.633130	33259.729306	3748.042860	14934.960694
84.038500	0.159053	0.096028	0.162762	0.251108	5856.615594	33179.094589	3742.978775	14890.810064
84.536500	0.160699	0.095437	0.164489	0.251338	5866.658850	33121.801502	3746.380698	14884.421177
85.037000	0.159208	0.095822	0.164313	0.254502	5833.776438	32928.477450	3738.809135	14796.541224
85.537000	0.160621	0.097554	0.161136	0.254252	5845.478286	33066.227824	3732.222872	14803.449271
86.037000	0.159419	0.096362	0.166289	0.257009	5817.688305	32792.391097	3737.612348	14727.363333
86.534500	0.161847	0.097992	0.166370	0.256711	5836.800482	32925.777779	3738.466685	14735.556963
87.035000	0.159771	0.097124	0.159522	0.257873	5814.111182	32785.392682	3720.552005	14703.616301
87.535000	0.161887	0.098633	0.166671	0.258417	5825.104464	32852.006216	3735.299471	14688.674802
88.035500	0.158058	0.097194	0.161264	0.259527	5790.693009	32676.235587	3720.744334	14658.271741
88.538500	0.162476	0.097620	0.165515	0.259001	5825.139593	32741.751488	3731.393030	14672.674765
89.036500	0.164390	0.099113	0.165874	0.262195	5816.183867	32624.786133	3725.060635	14585.522914
89.536500	0.161631	0.098826	0.165572	0.260866	5806.218083	32696.427578	3727.351203	14621.726153
90.037000	0.160789	0.097420	0.161549	0.262166	5791.338234	32510.795275	3715.542161	14586.309826
90.537500	0.166005	0.098861	0.166077	0.262014	5828.754167	32619.879823	3725.915867	14590.444467
91.037500	0.162664	0.098148	0.167677	0.262990	5798.626178	32504.259901	3727.308065	14563.939493
91.535000	0.165052	0.100076	0.166317	0.264040	5807.929048	32564.326782	3721.944134	14535.467004
92.035500	0.161434	0.099435	0.161680	0.265222	5774.681805	32439.726332	3709.118258	14503.533981
92.535500	0.163595	0.099232	0.166601	0.263837	5799.207221	32520.442915	3723.024160	14540.970285
93.038500	0.164228	0.100018	0.168850	0.266206	5787.175275	32412.392334	3722.759843	14476.988551
93.536000	0.162621	0.099565	0.171056	0.264429	5788.348528	32502.750186	3731.644954	14524.944952
94.036500	0.159462	0.099358	0.169879	0.267136	5748.025055	32304.156578	3722.978561	14451.956533
94.536500	0.166731	0.100651	0.168443	0.266877	5799.873840	32409.789984	3720.368076	14458.924138
95.037000	0.163683	0.099899	0.164511	0.267843	5772.119779	32292.937680	3709.577159	14432.984350
95.537000	0.166460	0.100732	0.167133	0.266639	5799.644980	32431.504599	3717.995089	14465.323221
96.037500	0.165505	0.100694	0.174203	0.269932	5770.278968	32205.206678	3726.378229	14377.041123
96.535000	0.163787	0.100685	0.168513	0.267283	5776.691246	32384.450642	3719.624337	14448.018440
97.035000	0.164370	0.101116	0.168607	0.268622	5771.478852	32322.637893	3716.869756	14412.076721
97.538500	0.165398	0.101719	0.168013	0.269208	5774.529626	32323.855205	3714.269943	14396.415482
98.036000	0.166929	0.102948	0.171576	0.270159	5778.525189	32342.715058	3720.036814	14370.984237
98.536000	0.166927	0.101475	0.170697	0.269287	5784.531824	32301.856372	3720.022612	14394.285713
99.037000	0.167324	0.101056	0.171524	0.270314	5780.180125	32203.845646	3719.578204	14366.841861
99.536500	0.163753	0.100114	0.165433	0.268682	5766.828331	32250.633402	3709.758231	14410.485574
100.037000	0.166425	0.102409	0.171291	0.270441	5773.107058	32286.961733	3718.781052	14363.453463
100.537500	0.166839	0.101368	0.167895	0.270061	5778.581120	32242.098960	3712.133094	14373.597461
101.035000	0.165430	0.101705	0.170053	0.271054	5762.058982	32197.731765	3714.697739	14347.137518
101.535000	0.164685	0.102621	0.171995	0.271239	5755.679610	32247.239079	3718.573833	14342.196895
102.038500	0.167626	0.101694	0.172346	0.270541	5780.702817	32231.706680	3720.898587	14360.803747
102.535500	0.167405	0.101710	0.168430	0.271234	5774.395532	32185.911563	3710.734647	14342.333792
103.036000	0.164763	0.102385	0.171906	0.272442	5747.992297	32149.831030	3715.722251	14310.208193
103.536500	0.166979	0.102171	0.167137	0.271656	5768.559356	32188.509848	3706.979533	14331.090647
104.036500	0.169472	0.101378	0.168626	0.271306	5788.171646	32158.593862	3711.005059	14340.410468
104.536500	0.165588	0.102908	0.171216	0.272461	5753.498869	32183.941114	3714.159276	14309.715291
105.037500	0.166956	0.103174	0.169801	0.273375	5756.609428	32140.124283	3709.046269	14285.459416
105.534500	0.166228	0.103359	0.172933	0.273698	5749.416891	32130.847325	3715.215633	14276.909087
106.035000	0.169832	0.102352	0.169756	0.275505	5761.721967	31941.496068	3704.295717	14229.167823
106.538000	0.167367	0.103684	0.167715	0.274292	5753.146143	32112.669801	3702.495758	14261.207361
107.035500	0.168303	0.102854	0.172410	0.274276	5759.662475	32057.788505	3712.791779	14261.608818
107.535500	0.167455	0.103714	0.172845	0.275240	5747.266586	32050.818619	3711.630607	14236.157417
108.036500	0.167812	0.102668	0.172490	0.277482	5734.430666	31830.319232	3705.946379	14177.161063
108.536500	0.167295	0.102297	0.171229	0.273961	5754.916101	32041.495315	3710.892205	14269.948974
109.036500	0.169084	0.103023	0.172523	0.275429	5757.109590	31991.585918	3710.509250	14231.163162
109.537000	0.165797	0.102383	0.173930	0.274245	5742.747047	32028.185668	3716.209487	14262.431192
110.037000	0.167230	0.104018	0.172582	0.278381	5724.381135	31860.442367	3704.187820	14153.596715
