sample name	sample
index	514
start time	 03-11-2021  03:30:03 PM


Wavelength (nm)	Absorbance
494.344910	0.108362
494.563924	0.108362
494.782919	0.108362
495.001897	1.557808
495.220856	0.462267
495.439797	0.395782
495.658719	0.223054
495.877624	0.213559
496.096510	0.190898
496.315378	0.021834
496.534227	-0.006297
496.753059	-0.010682
496.971872	-0.046795
497.190667	0.100173
497.409444	0.110614
497.628203	0.112175
497.846943	0.111968
498.065665	0.110968
498.284369	0.111888
498.503055	0.111853
498.721723	0.110954
498.940372	0.111275
499.159003	0.110290
499.377616	0.109594
499.596210	0.108886
499.814787	0.108988
500.033345	0.108422
500.251885	0.107908
500.470406	0.107263
500.688910	0.107581
500.907395	0.107616
501.125862	0.109192
501.344311	0.108724
501.562742	0.110250
501.781154	0.110799
501.999548	0.111620
502.217924	0.110977
502.436282	0.111473
502.654621	0.111701
502.872942	0.111521
503.091245	0.110963
503.309530	0.111806
503.527797	0.110317
503.746045	0.109531
503.964275	0.109067
504.182487	0.108555
504.400681	0.108288
504.618856	0.108120
504.837013	0.107961
505.055152	0.108281
505.273273	0.107554
505.491376	0.109020
505.709460	0.109777
505.927526	0.110664
506.145574	0.111284
506.363604	0.111925
506.581615	0.112160
506.799608	0.112280
507.017583	0.111856
507.235540	0.111827
507.453478	0.111735
507.671399	0.110968
507.889301	0.110860
508.107185	0.111586
508.325050	0.111344
508.542898	0.111190
508.760727	0.111190
508.978538	0.111460
509.196330	0.111545
509.414105	0.110317
509.631861	0.110921
509.849599	0.110688
510.067319	0.110913
510.285021	0.110966
510.502704	0.111082
510.720369	0.110725
510.938016	0.110238
511.155645	0.110232
511.373255	0.111356
511.590848	0.110896
511.808422	0.110490
512.025977	0.110131
512.243515	0.110121
512.461034	0.110300
512.678536	0.110659
512.896018	0.110770
513.113483	0.111462
513.330930	0.110161
513.548358	0.110237
513.765768	0.110255
513.983160	0.110434
514.200533	0.110452
514.417889	0.110335
514.635226	0.110437
514.852545	0.110772
515.069845	0.110469
515.287128	0.110791
515.504392	0.110407
515.721638	0.110820
515.938866	0.111180
516.156075	0.111400
516.373267	0.112150
516.590440	0.112717
516.807594	0.112535
517.024731	0.113624
517.241850	0.114337
517.458950	0.115117
517.676032	0.115709
517.893095	0.115684
518.110141	0.116259
518.327168	0.115960
518.544177	0.115781
518.761168	0.116681
518.978141	0.116450
519.195095	0.116311
519.412031	0.116117
519.628949	0.115906
519.845849	0.115870
520.062731	0.114572
520.279594	0.114647
520.496439	0.114246
520.713266	0.113886
520.930074	0.113196
521.146865	0.113760
521.363637	0.113653
521.580391	0.113083
521.797127	0.113229
522.013844	0.114012
522.230543	0.114381
522.447224	0.115001
522.663887	0.114726
522.880532	0.114849
523.097158	0.114802
523.313766	0.115045
523.530356	0.115257
523.746928	0.115095
523.963481	0.114829
524.180017	0.114759
524.396534	0.115103
524.613032	0.115723
524.829513	0.115885
525.045975	0.115865
525.262420	0.115934
525.478845	0.116546
525.695253	0.116834
525.911643	0.117541
526.128014	0.117798
526.344367	0.117372
526.560702	0.117265
526.777018	0.117598
526.993316	0.117692
527.209597	0.118246
527.425858	0.118539
527.642102	0.118710
527.858328	0.118449
528.074535	0.118212
528.290724	0.118813
528.506894	0.119017
528.723047	0.119003
528.939181	0.119224
529.155297	0.119035
529.371395	0.118858
529.587475	0.118759
529.803536	0.119077
530.019579	0.119462
530.235604	0.119293
530.451611	0.118951
530.667600	0.119160
530.883570	0.119232
531.099522	0.119335
531.315456	0.119741
531.531372	0.120305
531.747269	0.120568
531.963148	0.119923
532.179009	0.120078
532.394852	0.120287
532.610676	0.120444
532.826482	0.120326
533.042271	0.120348
533.258040	0.119772
533.473792	0.119552
533.689525	0.119888
533.905240	0.120533
534.120937	0.120400
534.336616	0.121241
534.552277	0.121035
534.767919	0.121250
534.983543	0.121315
535.199149	0.121835
535.414736	0.122377
535.630306	0.122346
535.845857	0.122829
536.061390	0.122916
536.276904	0.122656
536.492401	0.123042
536.707879	0.123046
536.923339	0.123149
537.138781	0.123137
537.354204	0.122950
537.569610	0.123017
537.784997	0.123121
538.000366	0.123599
538.215716	0.123448
538.431049	0.123556
538.646363	0.123192
538.861659	0.123185
539.076937	0.123624
539.292196	0.123567
539.507438	0.123418
539.722661	0.123433
539.937866	0.123443
540.153052	0.123922
540.368221	0.124191
540.583371	0.124682
540.798503	0.125056
541.013617	0.125095
541.228712	0.125423
541.443789	0.125862
541.658848	0.125665
541.873889	0.126269
542.088912	0.126129
542.303916	0.125965
542.518902	0.126245
542.733870	0.126331
542.948820	0.126321
543.163752	0.126043
543.378665	0.125643
543.593560	0.126217
543.808437	0.125894
544.023295	0.125743
544.238136	0.125941
544.452958	0.126279
544.667762	0.126431
544.882548	0.126470
545.097315	0.126998
545.312064	0.127516
545.526795	0.127219
545.741508	0.126792
545.956203	0.126873
546.170879	0.127149
546.385537	0.126927
546.600177	0.127399
546.814799	0.127541
547.029402	0.127716
547.243988	0.127480
547.458555	0.127496
547.673103	0.128176
547.887634	0.128802
548.102146	0.128944
548.316640	0.128982
548.531116	0.129021
548.745574	0.129061
548.960013	0.128688
549.174435	0.128960
549.388838	0.129294
549.603222	0.129206
549.817589	0.129127
550.031937	0.128750
550.246267	0.129160
550.460579	0.128843
550.674873	0.128593
550.889148	0.128927
551.103405	0.129006
551.317644	0.129007
551.531865	0.128726
551.746068	0.128623
551.960252	0.128802
552.174418	0.129068
552.388566	0.129243
552.602696	0.129586
552.816807	0.130156
553.030900	0.130166
553.244975	0.129956
553.459032	0.130517
553.673070	0.130482
553.887091	0.130902
554.101093	0.131056
554.315077	0.131264
554.529042	0.131440
554.742990	0.131120
554.956919	0.131714
555.170830	0.131666
555.384722	0.131791
555.598597	0.132234
555.812453	0.132182
556.026291	0.131502
556.240111	0.131371
556.453913	0.131609
556.667696	0.132224
556.881461	0.131749
557.095208	0.132362
557.308937	0.132471
557.522647	0.132417
557.736339	0.132927
557.950013	0.133442
558.163669	0.133533
558.377307	0.133768
558.590926	0.133444
558.804527	0.133364
559.018110	0.133333
559.231675	0.133598
559.445221	0.133861
559.658749	0.133295
559.872259	0.133703
560.085751	0.133722
560.299225	0.133735
560.512680	0.133471
560.726117	0.133675
560.939536	0.133802
561.152937	0.133775
561.366319	0.133609
561.579683	0.133849
561.793029	0.133553
562.006357	0.133448
562.219667	0.133626
562.432958	0.134131
562.646231	0.134582
562.859486	0.134557
563.072723	0.134627
563.285941	0.135051
563.499141	0.135168
563.712323	0.135744
563.925487	0.136339
564.138632	0.135899
564.351760	0.135533
564.564869	0.135449
564.777960	0.135501
564.991032	0.135423
565.204087	0.135339
565.417123	0.135382
565.630141	0.135144
565.843140	0.135150
566.056122	0.135671
566.269085	0.136264
566.482030	0.136443
566.694957	0.136821
566.907866	0.137011
567.120756	0.137093
567.333628	0.137250
567.546482	0.137171
567.759318	0.137176
567.972135	0.137191
568.184935	0.136823
568.397716	0.137003
568.610478	0.136921
568.823223	0.137114
569.035949	0.137090
569.248657	0.137036
569.461347	0.137238
569.674019	0.137506
569.886672	0.137446
570.099308	0.137708
570.311925	0.137606
570.524523	0.137870
570.737104	0.137943
570.949666	0.137915
571.162210	0.138194
571.374736	0.138329
571.587244	0.138486
571.799733	0.138716
572.012205	0.139018
572.224658	0.138995
572.437092	0.139057
572.649509	0.138736
572.861907	0.138965
573.074287	0.139211
573.286649	0.139390
573.498993	0.139271
573.711318	0.139258
573.923625	0.139403
574.135914	0.139760
574.348185	0.139814
574.560438	0.140319
574.772672	0.140339
574.984888	0.140447
575.197086	0.140210
575.409266	0.140357
575.621427	0.140423
575.833570	0.140095
576.045695	0.139775
576.257802	0.139676
576.469890	0.139353
576.681961	0.139805
576.894013	0.139726
577.106046	0.139909
577.318062	0.139760
577.530059	0.139760
577.742039	0.139950
577.954000	0.140074
578.165942	0.140472
578.377867	0.141240
578.589773	0.141087
578.801661	0.141016
579.013531	0.141082
579.225382	0.141610
579.437216	0.141864
579.649031	0.141904
579.860828	0.142241
580.072606	0.142273
580.284367	0.142065
580.496109	0.141956
580.707833	0.142133
580.919539	0.142113
581.131227	0.141708
581.342896	0.141976
581.554547	0.142250
581.766180	0.142316
581.977795	0.142338
582.189391	0.142351
582.400969	0.142418
582.612529	0.142249
582.824071	0.142727
583.035595	0.143258
583.247100	0.143185
583.458587	0.143214
583.670056	0.143547
583.881506	0.143445
584.092939	0.143275
584.304353	0.143378
584.515749	0.143752
584.727127	0.143620
584.938486	0.143423
585.149828	0.143322
585.361151	0.143648
585.572456	0.143623
585.783742	0.143602
585.995011	0.143729
586.206261	0.143776
586.417493	0.143884
586.628706	0.143928
586.839902	0.144022
587.051079	0.144125
587.262238	0.144260
587.473379	0.143855
587.684502	0.143919
587.895606	0.144088
588.106692	0.144223
588.317760	0.144197
588.528810	0.144289
588.739841	0.144603
588.950855	0.144491
589.161850	0.143971
589.372827	0.144569
589.583785	0.144740
589.794726	0.144866
590.005648	0.145246
590.216552	0.145345
590.427437	0.145432
590.638305	0.145331
590.849154	0.145780
591.059985	0.146139
591.270798	0.146064
591.481592	0.146127
591.692369	0.146460
591.903127	0.146326
592.113867	0.146532
592.324588	0.146849
592.535292	0.146822
592.745977	0.146733
592.956644	0.146583
593.167293	0.146497
593.377923	0.146628
593.588536	0.146465
593.799130	0.146565
594.009706	0.146407
594.220263	0.146153
594.430803	0.146304
594.641324	0.146198
594.851827	0.146367
595.062312	0.146491
595.272778	0.146688
595.483227	0.146817
595.693657	0.147006
595.904069	0.147387
596.114462	0.147615
596.324838	0.147445
596.535195	0.147819
596.745534	0.147937
596.955855	0.147894
597.166157	0.147534
597.376441	0.147816
597.586707	0.147941
597.796955	0.147877
598.007185	0.147955
598.217396	0.148193
598.427589	0.148146
598.637764	0.148333
598.847921	0.148387
599.058060	0.148781
599.268180	0.148559
599.478282	0.148479
599.688366	0.148644
599.898431	0.148442
600.108479	0.148606
600.318508	0.148524
600.528519	0.148482
600.738511	0.148620
600.948486	0.148451
601.158442	0.148560
601.368380	0.148590
601.578300	0.148508
601.788202	0.148773
601.998085	0.148723
602.207950	0.148873
602.417797	0.149312
602.627626	0.149726
602.837436	0.150073
603.047228	0.150073
603.257002	0.150408
603.466758	0.150566
603.676496	0.150789
603.886215	0.150968
604.095916	0.151503
604.305599	0.151692
604.515264	0.151523
604.724910	0.151621
604.934538	0.152104
605.144148	0.152204
605.353740	0.152040
605.563314	0.152166
605.772869	0.152286
605.982406	0.151822
606.191925	0.151435
606.401425	0.151465
606.610908	0.151515
606.820372	0.151193
607.029818	0.150914
607.239246	0.151085
607.448655	0.150853
607.658047	0.150709
607.867420	0.150930
608.076775	0.150820
608.286111	0.150824
608.495430	0.150963
608.704730	0.150899
608.914012	0.150943
609.123275	0.151098
609.332521	0.151069
609.541748	0.151269
609.750957	0.151290
609.960148	0.151547
610.169321	0.151621
610.378475	0.151364
610.587611	0.151358
610.796729	0.151402
611.005829	0.151506
611.214910	0.151882
611.423974	0.152166
611.633019	0.152091
611.842045	0.152282
612.051054	0.152517
612.260044	0.152546
612.469017	0.153022
612.677970	0.153050
612.886906	0.152922
613.095824	0.152905
613.304723	0.152808
613.513604	0.153038
613.722467	0.153057
613.931311	0.153173
614.140138	0.153594
614.348946	0.153716
614.557736	0.153919
614.766507	0.153964
614.975261	0.153975
615.183996	0.153914
615.392713	0.154085
615.601412	0.154058
615.810092	0.154040
616.018754	0.153938
616.227399	0.153751
616.436024	0.153822
616.644632	0.154139
616.853222	0.154072
617.061793	0.154336
617.270346	0.154224
617.478880	0.154267
617.687397	0.154267
617.895895	0.154652
618.104375	0.154751
618.312837	0.154764
618.521281	0.154664
618.729706	0.154974
618.938113	0.155194
619.146502	0.155634
619.354873	0.155962
619.563226	0.155996
619.771560	0.155967
619.979876	0.156034
620.188174	0.156234
620.396453	0.156386
620.604715	0.156294
620.812958	0.155959
621.021183	0.155768
621.229390	0.155537
621.437578	0.155582
621.645748	0.155470
621.853900	0.155392
622.062034	0.155365
622.270150	0.155557
622.478247	0.155638
622.686326	0.155934
622.894387	0.156009
623.102430	0.156107
623.310454	0.156466
623.518461	0.156548
623.726449	0.156691
623.934418	0.156902
624.142370	0.156923
624.350303	0.156805
624.558218	0.156606
624.766115	0.156763
624.973994	0.156888
625.181855	0.156868
625.389697	0.156849
625.597521	0.156856
625.805327	0.156544
626.013114	0.156265
626.220883	0.156502
626.428634	0.156740
626.636367	0.156792
626.844082	0.156736
627.051778	0.156542
627.259457	0.156616
627.467117	0.156680
627.674758	0.156849
627.882382	0.157175
628.089987	0.157276
628.297574	0.157194
628.505143	0.156851
628.712694	0.156930
628.920226	0.157127
629.127740	0.157478
629.335236	0.157629
629.542714	0.157773
629.750174	0.157734
629.957615	0.157831
630.165038	0.158225
630.372443	0.158584
630.579829	0.158717
630.787198	0.158565
630.994548	0.158340
631.201880	0.158548
631.409194	0.158682
631.616489	0.158707
631.823766	0.158734
632.031025	0.158433
632.238266	0.158412
632.445489	0.158472
632.652693	0.158641
632.859879	0.158895
633.067047	0.158758
633.274197	0.158834
633.481329	0.159084
633.688442	0.159143
633.895537	0.159592
634.102614	0.159725
634.309672	0.159830
634.516713	0.159984
634.723735	0.159884
634.930739	0.160129
635.137724	0.160326
635.344692	0.160401
635.551641	0.160214
635.758572	0.160014
635.965485	0.160021
636.172379	0.160091
636.379256	0.160214
636.586114	0.160373
636.792954	0.160259
636.999775	0.160299
637.206579	0.160548
637.413364	0.160696
637.620131	0.160633
637.826880	0.160686
638.033610	0.160470
638.240323	0.160525
638.447017	0.160536
638.653692	0.160634
638.860350	0.160531
639.066990	0.160031
639.273611	0.160056
639.480214	0.160451
639.686798	0.160618
639.893365	0.161038
640.099913	0.161042
640.306443	0.160987
640.512955	0.160936
640.719449	0.160870
640.925924	0.161296
641.132381	0.161505
641.338820	0.161264
641.545241	0.161242
641.751644	0.161045
641.958028	0.161199
642.164394	0.161278
642.370742	0.161486
642.577071	0.161789
642.783383	0.161690
642.989676	0.161858
643.195951	0.161945
643.402207	0.161874
643.608446	0.162188
643.814666	0.162248
644.020868	0.162413
644.227052	0.162379
644.433218	0.162579
644.639365	0.162875
644.845494	0.162820
645.051605	0.163207
645.257698	0.163481
645.463772	0.163469
645.669828	0.163492
645.875866	0.163471
646.081886	0.163661
646.287888	0.163569
646.493871	0.163471
646.699836	0.163575
646.905783	0.163322
647.111712	0.163317
647.317622	0.163355
647.523514	0.163343
647.729388	0.163471
647.935244	0.163304
648.141082	0.163392
648.346901	0.163408
648.552702	0.163486
648.758485	0.163724
648.964250	0.163715
649.169996	0.163878
649.375724	0.164135
649.581434	0.164374
649.787126	0.164629
649.992800	0.164724
650.198455	0.165008
650.404092	0.165296
650.609711	0.165426
650.815311	0.165818
651.020894	0.165847
651.226458	0.165833
651.432004	0.165792
651.637532	0.165862
651.843041	0.165962
652.048532	0.165996
652.254006	0.166055
652.459460	0.166070
652.664897	0.165775
652.870315	0.165848
653.075716	0.165864
653.281097	0.165715
653.486461	0.165856
653.691807	0.166000
653.897134	0.166118
654.102443	0.166146
654.307734	0.166247
654.513006	0.166424
654.718261	0.166508
654.923497	0.166750
655.128715	0.167005
655.333915	0.167154
655.539096	0.166998
655.744259	0.167016
655.949404	0.167129
656.154531	0.166936
656.359640	0.167141
656.564730	0.167007
656.769802	0.167034
656.974856	0.167168
657.179892	0.167349
657.384909	0.167576
657.589908	0.167624
657.794889	0.167598
657.999852	0.167961
658.204797	0.168163
658.409723	0.168392
658.614631	0.168534
658.819521	0.168544
659.024393	0.168557
659.229246	0.168517
659.434081	0.168556
659.638898	0.168908
659.843697	0.169038
660.048478	0.169095
660.253240	0.169248
660.457984	0.169249
660.662710	0.169328
660.867417	0.169329
661.072107	0.169656
661.276778	0.169919
661.481431	0.169771
661.686066	0.169693
661.890682	0.169731
662.095281	0.169920
662.299861	0.169927
662.504422	0.170130
662.708966	0.170116
662.913491	0.169976
663.117999	0.169825
663.322488	0.170143
663.526958	0.170371
663.731411	0.170611
663.935845	0.170816
664.140261	0.171127
664.344659	0.171013
664.549038	0.171145
664.753400	0.171293
664.957743	0.171610
665.162068	0.171573
665.366375	0.171654
665.570663	0.171620
665.774933	0.171531
665.979185	0.171424
666.183419	0.171682
666.387635	0.172019
666.591832	0.171942
666.796011	0.171831
667.000172	0.172023
667.204315	0.172120
667.408439	0.172212
667.612545	0.172316
667.816634	0.172497
668.020703	0.172634
668.224755	0.172662
668.428788	0.172963
668.632803	0.173083
668.836800	0.172816
669.040779	0.173025
669.244739	0.173018
669.448681	0.173026
669.652605	0.173026
669.856511	0.173068
670.060399	0.173137
670.264268	0.173299
670.468119	0.173282
670.671952	0.173582
670.875767	0.173297
671.079563	0.173414
671.283341	0.173571
671.487101	0.173798
671.690843	0.173805
671.894567	0.173709
672.098272	0.173805
672.301959	0.174057
672.505628	0.173943
672.709278	0.174069
672.912911	0.174198
673.116525	0.174238
673.320121	0.174252
673.523699	0.174530
673.727258	0.174774
673.930799	0.174863
674.134322	0.175019
674.337827	0.175224
674.541314	0.175521
674.744782	0.175603
674.948232	0.175884
675.151664	0.176146
675.355078	0.176234
675.558474	0.176409
675.761851	0.176387
675.965210	0.176393
676.168551	0.176518
676.371873	0.176467
676.575178	0.176473
676.778464	0.176494
676.981732	0.176439
677.184981	0.176497
677.388213	0.176601
677.591426	0.176734
677.794621	0.177195
677.997798	0.177236
678.200956	0.177411
678.404097	0.177559
678.607219	0.177629
678.810323	0.177664
679.013408	0.177774
679.216476	0.177969
679.419525	0.178105
679.622556	0.178076
679.825569	0.178333
680.028563	0.178725
680.231540	0.179007
680.434498	0.179046
680.637438	0.179448
680.840359	0.179305
681.043263	0.179414
681.246148	0.179568
681.449015	0.179408
681.651864	0.179539
681.854694	0.179473
682.057506	0.179359
682.260301	0.179730
682.463076	0.179648
682.665834	0.180134
682.868573	0.179970
683.071295	0.180056
683.273998	0.180242
683.476682	0.180351
683.679349	0.180405
683.881997	0.180673
684.084627	0.180639
684.287239	0.180688
684.489833	0.180510
684.692408	0.180473
684.894965	0.180614
685.097504	0.180712
685.300025	0.180809
685.502527	0.181025
685.705012	0.180916
685.907478	0.180959
686.109925	0.181039
686.312355	0.181235
686.514766	0.181626
686.717159	0.181775
686.919534	0.181937
687.121891	0.181723
687.324230	0.181949
687.526550	0.182099
687.728852	0.182056
687.931136	0.182157
688.133401	0.182099
688.335649	0.181821
688.537878	0.181756
688.740089	0.181831
688.942281	0.182174
689.144456	0.182063
689.346612	0.182185
689.548750	0.182266
689.750870	0.182420
689.952971	0.182626
690.155055	0.182834
690.357120	0.182951
690.559167	0.182871
690.761195	0.182841
690.963206	0.182962
691.165198	0.182966
691.367172	0.183077
691.569128	0.182921
691.771065	0.183064
691.972984	0.183184
692.174885	0.183342
692.376768	0.183515
692.578633	0.183737
692.780479	0.183680
692.982308	0.183956
693.184118	0.184100
693.385909	0.184186
693.587683	0.184285
693.789438	0.184281
693.991175	0.184226
694.192894	0.184322
694.394595	0.184391
694.596277	0.184484
694.797941	0.184617
694.999587	0.184644
695.201215	0.184781
695.402824	0.184718
695.604416	0.184862
695.805989	0.184900
696.007543	0.184973
696.209080	0.184811
696.410598	0.184894
696.612099	0.184843
696.813580	0.184926
697.015044	0.185085
697.216490	0.185173
697.417917	0.185328
697.619326	0.185282
697.820717	0.185372
698.022089	0.185349
698.223444	0.185612
698.424780	0.185641
698.626098	0.185632
698.827397	0.185729
699.028679	0.185689
699.229942	0.185795
699.431187	0.186015
699.632414	0.186153
699.833622	0.186406
700.034813	0.186481
700.235985	0.186499
700.437139	0.186710
700.638274	0.186871
700.839392	0.187247
701.040491	0.187131
701.241572	0.187417
701.442635	0.187576
701.643679	0.187727
701.844706	0.187625
702.045714	0.187714
702.246704	0.187783
702.447675	0.187609
702.648629	0.187288
702.849564	0.187579
703.050481	0.187552
703.251380	0.187247
703.452260	0.187269
703.653122	0.187325
703.853966	0.187506
704.054792	0.187320
704.255600	0.187245
704.456389	0.187630
704.657160	0.187464
704.857913	0.187274
705.058648	0.187420
705.259365	0.187382
705.460063	0.187181
705.660743	0.187047
705.861405	0.187182
706.062048	0.187530
706.262674	0.187312
706.463281	0.187429
706.663870	0.187514
706.864441	0.187435
707.064993	0.187321
707.265527	0.187454
707.466043	0.187506
707.666541	0.187557
707.867021	0.187397
708.067482	0.187305
708.267925	0.187690
708.468350	0.187793
708.668757	0.188056
708.869145	0.188436
709.069516	0.188454
709.269868	0.188541
709.470201	0.188626
709.670517	0.188913
709.870814	0.189386
710.071093	0.189047
710.271354	0.188908
710.471597	0.188904
710.671821	0.188830
710.872028	0.188830
711.072216	0.188890
711.272385	0.188930
711.472537	0.188696
711.672670	0.188409
711.872785	0.188336
712.072882	0.188429
712.272961	0.188323
712.473021	0.188187
712.673063	0.188273
712.873087	0.188160
713.073093	0.188220
713.273081	0.188081
713.473050	0.188202
713.673001	0.188172
713.872934	0.188390
714.072849	0.188380
714.272745	0.188421
714.472623	0.188356
714.672483	0.188406
714.872325	0.188145
715.072148	0.188301
715.271954	0.188295
715.471741	0.188389
715.671509	0.188118
715.871260	0.188104
716.070992	0.188187
716.270707	0.188161
716.470403	0.188146
716.670080	0.188209
716.869740	0.188314
717.069381	0.188313
717.269004	0.188398
717.468609	0.188592
717.668195	0.188499
717.867764	0.188474
718.067314	0.188493
718.266846	0.188380
718.466360	0.188312
718.665855	0.188241
718.865332	0.188241
719.064791	0.188085
719.264232	0.187834
719.463655	0.187957
719.663059	0.187726
719.862445	0.187638
720.061813	0.187672
720.261163	0.187552
720.460494	0.187512
720.659807	0.187252
720.859102	0.187302
721.058379	0.187289
721.257638	0.187178
721.456878	0.187250
721.656100	0.187296
721.855304	0.187331
722.054490	0.187617
722.253657	0.187521
722.452806	0.187472
722.651937	0.187435
722.851050	0.187496
723.050145	0.187735
723.249221	0.187799
723.448279	0.187818
723.647319	0.187892
723.846340	0.187742
724.045344	0.187834
724.244329	0.187895
724.443296	0.187902
724.642245	0.187977
724.841175	0.188042
725.040088	0.188032
725.238982	0.187883
725.437857	0.187701
725.636715	0.187803
725.835554	0.187741
726.034376	0.187848
726.233179	0.187744
726.431963	0.187806
726.630730	0.187738
726.829478	0.187743
727.028208	0.187735
727.226920	0.187697
727.425614	0.187716
727.624289	0.187755
727.822946	0.187635
728.021585	0.187572
728.220206	0.187339
728.418808	0.187017
728.617392	0.186932
728.815958	0.187006
729.014506	0.187087
729.213036	0.186814
729.411547	0.186742
729.610040	0.186688
729.808515	0.186709
730.006972	0.186701
730.205410	0.186678
730.403831	0.186487
730.602233	0.186398
730.800616	0.186135
730.998982	0.186233
731.197329	0.186057
731.395658	0.186159
731.593969	0.185940
731.792262	0.185655
731.990536	0.185600
732.188793	0.185654
732.387031	0.185479
732.585250	0.185481
732.783452	0.185312
732.981635	0.185225
733.179800	0.184952
733.377947	0.184867
733.576076	0.184847
733.774186	0.184813
733.972278	0.184911
734.170352	0.184791
734.368408	0.184642
734.566446	0.184601
734.764465	0.184525
734.962466	0.184330
735.160449	0.184388
735.358413	0.184551
735.556360	0.184360
735.754288	0.184033
735.952198	0.183979
736.150090	0.184030
736.347963	0.183941
736.545818	0.183881
736.743655	0.183945
736.941474	0.183893
737.139275	0.183704
737.337057	0.183611
737.534821	0.183497
737.732567	0.183378
737.930295	0.183106
738.128005	0.182863
738.325696	0.182746
738.523369	0.182714
738.721024	0.182256
738.918660	0.181991
739.116279	0.181793
739.313879	0.181643
739.511461	0.181627
739.709024	0.181602
739.906570	0.181608
740.104097	0.181353
740.301606	0.181173
740.499097	0.181427
740.696569	0.181488
740.894024	0.181490
741.091460	0.181462
741.288878	0.181458
741.486277	0.181671
741.683659	0.181565
741.881022	0.181456
742.078367	0.181489
742.275694	0.181287
742.473002	0.181148
742.670293	0.181091
742.867565	0.181145
743.064819	0.181096
743.262054	0.180813
743.459272	0.180876
743.656471	0.180964
743.853652	0.181010
744.050815	0.181012
744.247959	0.181083
744.445085	0.181180
744.642194	0.181048
744.839283	0.180993
745.036355	0.180977
745.233408	0.180580
745.430444	0.180548
745.627461	0.180219
745.824459	0.180132
746.021440	0.180064
746.218402	0.179791
746.415346	0.179607
746.612272	0.179584
746.809180	0.179441
747.006069	0.179573
747.202940	0.179386
747.399793	0.179369
747.596628	0.179263
747.793444	0.179163
747.990243	0.179340
748.187023	0.179492
748.383784	0.179336
748.580528	0.179246
748.777253	0.179165
748.973960	0.179268
749.170649	0.179332
749.367320	0.179205
749.563973	0.179069
749.760607	0.178845
749.957223	0.178519
750.153821	0.178213
750.350400	0.177834
750.546962	0.177766
750.743505	0.177771
750.940030	0.177669
751.136536	0.177659
751.333025	0.177530
751.529495	0.177494
751.725947	0.177422
751.922381	0.177370
752.118796	0.177603
752.315194	0.177773
752.511573	0.177369
752.707934	0.177203
752.904276	0.177210
753.100601	0.177055
753.296907	0.176814
753.493195	0.176604
753.689465	0.176753
753.885716	0.176614
754.081949	0.176179
754.278164	0.176366
754.474361	0.176280
754.670540	0.176277
754.866700	0.176299
755.062843	0.176247
755.258967	0.176391
755.455072	0.176282
755.651160	0.176314
755.847229	0.176523
756.043280	0.176201
756.239313	0.176013
756.435328	0.175932
756.631324	0.175766
756.827302	0.175719
757.023262	0.175530
757.219204	0.175422
757.415127	0.175433
757.611033	0.175282
757.806920	0.175490
758.002788	0.175513
758.198639	0.175239
758.394471	0.175369
758.590286	0.175409
758.786081	0.175526
758.981859	0.175620
759.177619	0.175409
759.373360	0.175296
759.569083	0.174872
759.764788	0.174619
759.960474	0.174528
760.156143	0.174282
760.351793	0.174125
760.547425	0.174141
760.743038	0.173937
760.938634	0.173929
761.134211	0.173678
761.329770	0.173695
761.525311	0.173556
761.720833	0.173614
761.916338	0.173612
762.111824	0.173481
762.307292	0.173194
762.502741	0.173230
762.698173	0.173175
762.893586	0.173298
763.088981	0.173527
763.284358	0.173563
763.479716	0.173485
763.675057	0.173449
763.870379	0.173433
764.065683	0.173553
764.260968	0.173466
764.456236	0.173330
764.651485	0.173176
764.846716	0.172946
765.041929	0.172934
765.237123	0.172963
765.432299	0.172493
765.627457	0.172559
765.822597	0.172174
766.017719	0.172074
766.212822	0.171904
766.407907	0.172078
766.602974	0.172158
766.798023	0.172446
766.993054	0.172057
767.188066	0.172345
767.383060	0.172133
767.578036	0.172364
767.772993	0.172240
767.967933	0.172173
768.162854	0.171862
768.357757	0.171706
768.552642	0.171492
768.747508	0.171675
768.942356	0.171671
769.137186	0.171608
769.331998	0.171389
769.526792	0.171549
769.721567	0.171585
769.916324	0.171659
770.111063	0.171632
770.305784	0.171685
770.500486	0.171641
770.695171	0.171676
770.889837	0.171813
771.084484	0.171883
771.279114	0.171536
771.473725	0.171590
771.668318	0.171440
771.862893	0.171432
772.057450	0.171120
772.251988	0.171243
772.446509	0.171021
772.641011	0.170891
772.835494	0.170762
773.029960	0.170531
773.224407	0.170353
773.418836	0.170344
773.613247	0.170070
773.807640	0.170103
774.002014	0.169930
774.196370	0.170140
774.390708	0.170127
774.585028	0.170130
774.779330	0.170618
774.973613	0.170618
775.167878	0.170792
775.362125	0.171121
775.556354	0.171309
775.750564	0.171510
775.944756	0.171332
776.138930	0.171401
776.333086	0.171414
776.527223	0.171192
776.721343	0.171275
776.915444	0.171061
777.109526	0.170861
777.303591	0.170880
777.497637	0.170737
777.691666	0.170699
777.885676	0.170516
778.079667	0.170435
778.273641	0.170599
778.467596	0.170682
778.661533	0.170908
778.855452	0.171160
779.049352	0.171085
779.243235	0.171082
779.437099	0.171135
779.630945	0.171303
779.824773	0.171403
780.018582	0.171456
780.212373	0.171427
780.406146	0.171287
780.599901	0.171300
780.793638	0.171100
780.987356	0.171183
781.181056	0.171248
781.374738	0.171088
781.568402	0.171225
781.762047	0.170930
781.955674	0.171024
782.149283	0.171156
782.342874	0.171111
782.536447	0.171167
782.730001	0.171203
782.923537	0.171165
783.117055	0.171363
783.310555	0.171385
783.504036	0.171536
783.697499	0.171413
783.890944	0.171425
784.084371	0.171282
784.277780	0.171454
784.471170	0.171209
784.664542	0.171330
784.857896	0.171324
785.051231	0.171221
785.244549	0.171190
785.437848	0.171334
785.631129	0.171289
785.824392	0.171412
786.017636	0.171328
786.210863	0.171407
786.404071	0.171278
786.597260	0.170964
786.790432	0.171195
786.983585	0.171171
787.176721	0.170991
787.369838	0.170903
787.562936	0.170989
787.756017	0.171165
787.949079	0.171132
788.142123	0.171289
788.335149	0.171684
788.528156	0.171649
788.721146	0.171693
788.914117	0.171695
789.107070	0.171993
789.300005	0.171937
789.492921	0.171949
789.685819	0.172124
789.878699	0.171919
790.071561	0.172009
790.264405	0.171795
790.457230	0.171899
790.650037	0.172273
790.842826	0.172050
791.035597	0.172011
791.228349	0.171874
791.421084	0.171979
791.613800	0.172108
791.806497	0.172099
791.999177	0.172255
792.191838	0.172232
792.384481	0.172092
792.577106	0.172300
792.769713	0.172390
792.962301	0.172407
793.154871	0.172293
793.347423	0.172448
793.539957	0.172455
793.732473	0.172513
793.924970	0.172738
794.117449	0.172870
794.309910	0.172919
794.502353	0.173018
794.694777	0.173111
794.887183	0.173257
795.079571	0.173450
795.271941	0.173769
795.464293	0.173951
795.656626	0.174016
795.848941	0.173906
796.041238	0.174036
796.233516	0.174165
796.425777	0.174445
796.618019	0.174470
796.810243	0.174502
797.002449	0.174246
797.194636	0.174365
797.386805	0.174542
797.578956	0.174564
797.771089	0.174551
797.963204	0.174524
798.155300	0.174565
798.347378	0.174711
798.539438	0.174556
798.731480	0.174728
798.923503	0.174701
799.115509	0.174890
799.307496	0.175596
799.499465	0.175708
799.691415	0.175785
799.883348	0.176035
800.075262	0.176127
800.267158	0.176453
800.459035	0.176527
800.650895	0.176712
800.842736	0.176714
801.034559	0.176409
801.226364	0.176495
801.418150	0.176891
801.609919	0.177013
801.801669	0.177019
801.993401	0.176987
802.185114	0.177219
802.376810	0.177215
802.568487	0.177277
802.760146	0.177263
802.951787	0.177260
803.143409	0.177151
803.335014	0.176908
803.526600	0.177056
803.718168	0.177204
803.909717	0.177352
804.101249	0.177468
804.292762	0.177365
804.484257	0.177332
804.675734	0.177698
804.867192	0.177829
805.058632	0.178108
805.250054	0.178220
805.441458	0.178310
805.632844	0.178284
805.824211	0.178650
806.015561	0.178761
806.206891	0.179054
806.398204	0.178932
806.589499	0.178926
806.780775	0.179072
806.972033	0.179051
807.163273	0.179147
807.354495	0.179289
807.545698	0.178989
807.736883	0.179213
807.928050	0.179480
808.119199	0.179828
808.310329	0.180334
808.501441	0.180472
808.692535	0.180918
808.883611	0.181164
809.074669	0.181119
809.265708	0.181489
809.456729	0.181539
809.647732	0.181585
809.838717	0.181475
810.029683	0.181219
810.220632	0.181196
810.411562	0.181258
810.602474	0.181377
810.793367	0.181701
810.984242	0.181758
811.175100	0.181890
811.365938	0.181977
811.556759	0.182132
811.747562	0.182388
811.938346	0.182592
812.129112	0.182772
812.319860	0.182844
812.510589	0.182932
812.701300	0.183137
812.891994	0.183448
813.082668	0.183671
813.273325	0.184018
813.463964	0.184349
813.654584	0.184698
813.845186	0.184894
814.035769	0.185094
814.226335	0.185204
814.416882	0.185174
814.607411	0.185368
814.797922	0.185480
814.988415	0.185538
815.178889	0.185411
815.369345	0.185360
815.559783	0.185573
815.750203	0.186110
815.940605	0.186440
816.130988	0.186852
816.321353	0.186875
816.511700	0.187113
816.702028	0.187360
816.892339	0.187565
817.082631	0.187935
817.272905	0.187901
817.463161	0.187640
817.653398	0.187532
817.843617	0.187629
818.033819	0.188045
818.224001	0.188163
818.414166	0.188224
818.604312	0.188649
818.794440	0.188742
818.984550	0.188963
819.174642	0.189020
819.364716	0.189158
819.554771	0.189318
819.744808	0.189412
819.934827	0.189507
820.124827	0.189646
820.314810	0.189459
820.504774	0.189703
820.694720	0.189789
820.884647	0.190093
821.074557	0.190563
821.264448	0.190727
821.454321	0.190697
821.644176	0.190822
821.834012	0.191047
822.023831	0.191408
822.213631	0.191524
822.403413	0.191631
822.593176	0.191766
822.782922	0.191897
822.972649	0.191962
823.162358	0.192223
823.352049	0.192623
823.541721	0.192987
823.731376	0.192896
823.921012	0.193072
824.110629	0.193340
824.300229	0.193490
824.489811	0.193608
824.679374	0.194160
824.868919	0.194103
825.058445	0.194223
825.247954	0.194285
825.437444	0.194717
825.626916	0.195012
825.816370	0.195380
826.005806	0.195687
826.195223	0.195857
826.384622	0.195635
826.574003	0.195970
826.763366	0.196291
826.952711	0.196591
827.142037	0.196803
827.331345	0.196770
827.520635	0.196824
827.709906	0.196983
827.899160	0.197014
828.088395	0.197281
828.277612	0.197525
828.466810	0.197757
828.655991	0.197645
828.845153	0.197706
829.034297	0.198151
829.223423	0.198438
829.412531	0.198825
829.601620	0.198930
829.790691	0.199310
829.979744	0.199499
830.168779	0.199504
830.357795	0.199738
830.546793	0.199916
830.735773	0.199754
830.924735	0.199901
831.113679	0.199922
831.302604	0.200172
831.491511	0.200428
831.680400	0.200706
831.869271	0.201007
832.058123	0.201153
832.246957	0.201555
832.435773	0.201769
832.624571	0.201971
832.813351	0.202248
833.002112	0.202583
833.190855	0.202367
833.379580	0.202475
833.568287	0.202580
833.756975	0.202775
833.945645	0.202902
834.134297	0.203112
834.322931	0.203406
834.511547	0.203577
834.700144	0.203792
834.888723	0.204112
835.077284	0.204251
835.265826	0.204171
835.454351	0.204606
835.642857	0.204747
835.831345	0.205083
836.019815	0.205359
836.208266	0.205540
836.396699	0.205813
836.585114	0.206117
836.773511	0.206274
836.961890	0.206969
837.150250	0.207023
837.338592	0.207390
837.526916	0.207578
837.715222	0.207401
837.903510	0.207390
838.091779	0.207587
838.280030	0.207903
838.468263	0.208582
838.656477	0.208665
838.844674	0.208808
839.032852	0.209023
839.221012	0.209340
839.409153	0.209646
839.597277	0.210290
839.785382	0.210550
839.973469	0.210896
840.161538	0.210751
840.349589	0.210947
840.537621	0.211427
840.725635	0.211719
840.913631	0.212092
841.101609	0.212242
841.289568	0.212265
841.477509	0.212623
841.665432	0.212673
841.853337	0.213116
842.041224	0.213421
842.229092	0.213600
842.416942	0.213791
842.604774	0.213800
842.792588	0.214570
842.980383	0.214919
843.168160	0.215145
843.355919	0.215395
843.543660	0.215413
843.731382	0.215634
843.919087	0.215854
844.106773	0.216002
844.294441	0.216186
844.482090	0.216107
844.669722	0.216174
844.857335	0.216322
845.044930	0.216264
845.232507	0.216198
845.420065	0.216202
845.607605	0.216198
845.795127	0.216429
845.982631	0.216613
846.170117	0.216793
846.357584	0.216992
846.545033	0.217146
846.732464	0.217616
846.919877	0.218027
847.107272	0.218374
847.294648	0.219096
847.482006	0.219328
847.669346	0.219409
847.856667	0.219595
848.043971	0.219961
848.231256	0.220421
848.418523	0.220675
848.605771	0.221025
848.793002	0.221214
848.980214	0.221182
849.167408	0.221599
849.354584	0.222109
849.541742	0.222741
849.728881	0.222988
849.916002	0.223056
850.103105	0.223578
850.290190	0.223649
850.477256	0.223926
850.664304	0.224289
850.851334	0.224197
851.038346	0.224374
851.225340	0.224200
851.412315	0.224592
851.599272	0.225044
851.786211	0.225230
851.973132	0.225881
852.160034	0.226109
852.346918	0.226263
852.533784	0.226657
852.720632	0.227114
852.907462	0.227633
853.094273	0.227696
853.281066	0.227933
853.467841	0.227828
853.654598	0.227863
853.841336	0.228558
854.028056	0.228933
854.214758	0.229337
854.401442	0.229578
854.588107	0.230026
854.774755	0.230248
854.961384	0.230224
855.147995	0.230571
855.334587	0.231160
855.521162	0.231112
855.707718	0.231443
855.894256	0.231340
856.080775	0.231186
856.267277	0.230917
856.453760	0.231391
856.640225	0.231616
856.826672	0.231713
857.013101	0.231708
857.199511	0.231836
857.385903	0.231845
857.572277	0.232223
857.758633	0.232555
857.944970	0.232571
858.131290	0.232574
858.317591	0.232520
858.503873	0.233177
858.690138	0.233259
858.876384	0.233626
859.062612	0.233925
859.248822	0.234204
859.435014	0.234341
859.621188	0.234802
859.807343	0.234720
859.993480	0.235366
860.179599	0.235365
860.365699	0.235424
860.551781	0.235695
860.737846	0.235497
860.923891	0.235754
861.109919	0.235908
861.295929	0.236202
861.481920	0.236914
861.667893	0.236941
861.853848	0.236973
862.039784	0.237307
862.225702	0.237248
862.411603	0.237786
862.597484	0.237976
862.783348	0.238496
862.969193	0.238729
863.155021	0.238577
863.340830	0.238740
863.526620	0.239255
863.712393	0.239604
863.898147	0.239725
864.083883	0.239960
864.269601	0.239947
864.455301	0.239821
864.640982	0.239876
864.826645	0.240172
865.012290	0.240577
865.197917	0.240792
865.383526	0.240884
865.569116	0.241305
865.754688	0.241475
865.940242	0.241926
866.125777	0.242454
866.311295	0.242597
866.496794	0.242941
866.682275	0.242732
866.867737	0.242928
867.053182	0.242936
867.238608	0.243163
867.424016	0.243243
867.609406	0.242933
867.794778	0.242881
867.980131	0.243193
868.165466	0.243541
868.350783	0.243832
868.536082	0.243741
868.721362	0.244026
868.906625	0.244079
869.091869	0.244334
869.277094	0.245380
869.462302	0.245864
869.647491	0.246247
869.832662	0.246242
870.017815	0.246735
870.202950	0.247268
870.388066	0.247737
870.573165	0.248040
870.758245	0.248353
870.943306	0.247684
871.128350	0.247529
871.313375	0.247375
871.498382	0.247259
871.683371	0.247497
871.868342	0.247369
872.053294	0.247619
872.238229	0.247446
872.423144	0.247361
872.608042	0.248062
872.792922	0.248514
872.977783	0.248892
873.162626	0.249199
873.347451	0.249219
873.532258	0.249632
873.717046	0.249830
873.901816	0.250252
874.086568	0.250208
874.271302	0.250239
874.456017	0.250305
874.640715	0.250469
874.825394	0.250619
875.010055	0.250932
875.194697	0.250657
875.379322	0.250625
875.563928	0.250597
875.748516	0.250976
875.933085	0.251109
876.117637	0.251023
876.302170	0.251087
876.486685	0.251088
876.671182	0.250991
876.855661	0.251082
877.040121	0.250987
877.224563	0.251199
877.408987	0.251321
877.593393	0.251221
877.777780	0.251460
877.962150	0.251475
878.146501	0.251784
878.330833	0.251586
878.515148	0.252174
878.699444	0.252237
878.883722	0.252336
879.067982	0.252273
879.252224	0.252757
879.436447	0.253126
879.620653	0.253242
879.804840	0.253199
879.989008	0.253313
880.173159	0.253230
880.357291	0.253764
880.541405	0.253727
880.725501	0.253938
880.909579	0.253511
881.093638	0.253605
881.277680	0.253842
881.461703	0.254145
881.645707	0.254564
881.829694	0.254577
882.013662	0.254282
882.197612	0.254552
882.381544	0.254572
882.565458	0.254964
882.749353	0.254759
882.933230	0.255226
883.117089	0.255098
883.300930	0.255365
883.484753	0.255190
883.668557	0.255527
883.852343	0.255478
884.036111	0.255939
884.219861	0.255710
884.403592	0.255913
884.587305	0.255629
884.771000	0.255600
884.954677	0.255613
885.138335	0.255619
885.321976	0.255284
885.505598	0.255683
885.689201	0.255632
885.872787	0.256161
886.056354	0.256048
886.239904	0.256135
886.423434	0.256191
886.606947	0.255871
886.790442	0.256426
886.973918	0.256578
887.157376	0.256388
887.340816	0.255980
887.524237	0.255575
887.707641	0.255636
887.891026	0.255572
888.074393	0.255791
888.257741	0.256009
888.441072	0.255840
888.624384	0.255941
888.807678	0.256284
888.990954	0.256286
889.174211	0.256425
889.357451	0.256243
889.540672	0.256071
889.723875	0.255846
889.907059	0.255914
890.090226	0.255615
890.273374	0.255314
890.456504	0.254858
890.639616	0.254947
890.822709	0.254864
891.005785	0.255026
891.188842	0.254930
891.371881	0.255096
891.554901	0.254834
891.737904	0.255185
891.920888	0.255574
892.103854	0.255116
892.286802	0.255189
892.469731	0.255374
892.652643	0.254978
892.835536	0.255391
893.018410	0.254715
893.201267	0.254706
893.384106	0.254650
893.566926	0.254716
893.749728	0.255510
893.932511	0.255571
894.115277	0.255550
894.298024	0.256160
894.480753	0.255393
894.663464	0.255666
894.846157	0.255663
895.028831	0.255383
895.211487	0.255322
895.394125	0.254700
895.576745	0.254219
895.759346	0.254017
895.941930	0.253863
896.124495	0.254231
896.307041	0.254160
896.489570	0.254292
896.672080	0.254317
896.854573	0.254163
897.037046	0.254005
897.219502	0.254078
897.401940	0.253915
897.584359	0.253731
897.766760	0.253500
897.949143	0.253648
898.131507	0.253038
898.313854	0.252900
898.496182	0.252505
898.678492	0.252473
898.860783	0.252580
899.043057	0.252874
899.225312	0.252874
899.407549	0.252551
899.589768	0.252450
899.771968	0.252642
899.954151	0.252267
900.136315	0.252388
900.318461	0.252524
900.500588	0.252251
900.682698	0.251492
900.864789	0.251188
901.046862	0.251171
901.228917	0.251027
901.410953	0.251108
901.592971	0.250819
901.774972	0.250454
901.956953	0.250116
902.138917	0.250012
902.320862	0.249887
902.502790	0.250039
902.684699	0.249683
902.866589	0.249913
903.048462	0.249445
903.230316	0.249641
903.412152	0.249452
903.593970	0.249417
903.775770	0.249134
903.957551	0.249100
904.139314	0.248726
904.321059	0.248629
904.502786	0.248061
904.684494	0.247854
904.866185	0.247520
905.047857	0.247382
905.229510	0.247432
905.411146	0.247094
905.592763	0.246605
905.774363	0.245853
905.955943	0.246062
906.137506	0.246108
906.319051	0.245753
906.500577	0.245716
906.682085	0.245307
906.863575	0.244418
907.045046	0.244329
907.226500	0.244382
907.407935	0.244442
907.589352	0.244244
907.770750	0.243506
907.952131	0.243195
908.133493	0.242843
908.314837	0.242935
908.496163	0.243183
908.677470	0.243427
908.858760	0.243042
909.040031	0.242936
909.221284	0.242520
909.402518	0.242726
909.583735	0.242765
909.764933	0.242573
909.946113	0.242420
910.127275	0.242217
910.308418	0.241690
910.489544	0.241549
910.670651	0.241346
910.851740	0.241349
911.032810	0.241098
911.213863	0.240557
911.394897	0.240163
911.575913	0.239817
911.756911	0.239338
911.937890	0.238651
912.118851	0.238716
912.299794	0.238306
912.480719	0.237686
912.661626	0.237309
912.842514	0.237214
913.023384	0.237122
913.204236	0.236639
913.385070	0.236099
913.565886	0.235808
913.746683	0.235297
913.927462	0.234802
914.108223	0.234621
914.288965	0.234099
914.469690	0.233721
914.650396	0.233148
914.831084	0.232746
915.011754	0.232895
915.192405	0.232918
915.373038	0.232534
915.553653	0.232345
915.734250	0.231739
915.914829	0.231220
916.095389	0.231209
916.275931	0.230832
916.456455	0.230669
916.636961	0.230175
916.817448	0.229809
916.997917	0.229726
917.178368	0.229748
917.358801	0.229400
917.539216	0.229167
917.719612	0.228677
917.899990	0.228382
918.080350	0.228098
918.260692	0.227811
918.441015	0.227513
918.621320	0.226833
918.801607	0.225972
918.981876	0.226081
919.162127	0.225549
919.342359	0.224812
919.522573	0.224499
919.702769	0.224145
919.882947	0.223661
920.063106	0.222875
920.243247	0.222658
920.423370	0.222118
920.603475	0.221251
920.783562	0.221186
920.963630	0.221190
921.143680	0.220939
921.323712	0.220170
921.503725	0.219637
921.683721	0.219580
921.863698	0.219162
922.043657	0.218777
922.223598	0.218410
922.403520	0.217721
922.583424	0.217178
922.763311	0.216840
922.943178	0.216758
923.123028	0.216739
923.302859	0.216258
923.482673	0.215324
923.662467	0.215387
923.842244	0.215301
924.022003	0.215118
924.201743	0.215085
924.381465	0.214485
924.561169	0.213885
924.740854	0.212917
924.920522	0.212291
925.100171	0.212304
925.279802	0.211481
925.459414	0.210443
925.639009	0.209663
925.818585	0.208250
925.998143	0.207374
926.177683	0.206655
926.357205	0.205848
926.536708	0.205473
926.716193	0.204938
926.895660	0.204164
927.075109	0.204124
927.254539	0.203768
927.433951	0.203544
927.613345	0.203316
927.792721	0.203666
927.972079	0.203598
928.151418	0.203169
928.330739	0.202983
928.510042	0.203002
928.689327	0.202087
928.868593	0.202108
929.047841	0.202088
929.227071	0.201629
929.406283	0.200167
929.585476	0.199398
929.764652	0.199007
929.943809	0.198677
930.122948	0.197860
930.302068	0.197629
930.481171	0.196332
930.660255	0.195455
930.839321	0.195162
931.018369	0.194658
931.197398	0.194751
931.376409	0.194337
931.555402	0.192864
931.734377	0.192377
931.913334	0.192022
932.092272	0.191804
932.271192	0.190783
932.450094	0.189734
932.628978	0.189757
932.807844	0.188465
932.986691	0.187729
933.165520	0.187148
933.344331	0.186631
933.523123	0.186099
933.701898	0.186026
933.880654	0.187570
934.059392	0.187407
934.238111	0.186657
934.416813	0.186615
934.595496	0.187000
934.774161	0.186961
934.952808	0.187145
935.131437	0.186430
935.310047	0.186195
935.488639	0.184467
935.667213	0.183524
935.845769	0.182634
936.024306	0.182227
936.202825	0.181015
936.381326	0.180326
936.559809	0.178756
936.738274	0.177556
936.916720	0.175678
937.095148	0.174118
937.273558	0.173298
937.451950	0.173039
937.630323	0.172640
937.808678	0.171210
937.987015	0.170561
938.165334	0.170765
938.343635	0.170367
938.521917	0.170956
938.700181	0.170814
938.878427	0.170390
939.056655	0.169348
939.234864	0.167829
939.413055	0.168090
939.591228	0.166940
939.769383	0.166031
939.947519	0.166474
940.125638	0.165487
940.303738	0.164364
940.481820	0.164667
940.659883	0.165307
940.837929	0.165431
941.015956	0.164179
941.193965	0.163246
941.371955	0.161810
941.549928	0.160464
941.727882	0.158882
941.905818	0.159038
942.083736	0.158472
942.261636	0.155903
942.439517	0.155323
942.617380	0.155366
942.795225	0.156353
942.973052	0.155881
943.150860	0.155329
943.328651	0.156608
943.506423	0.155763
943.684176	0.154429
943.861912	0.154073
944.039629	0.153051
944.217328	0.151523
944.395009	0.150660
944.572672	0.150530
944.750317	0.150186
944.927943	0.148224
945.105551	0.148189
945.283141	0.147084
945.460712	0.148557
945.638265	0.146994
945.815801	0.147285
945.993317	0.146470
946.170816	0.145826
946.348297	0.145131
946.525759	0.143771
946.703203	0.144527
946.880629	0.145099
947.058036	0.142428
947.235425	0.142410
947.412797	0.142269
947.590149	0.140940
947.767484	0.141640
947.944800	0.140863
948.122099	0.141799
948.299379	0.139996
948.476640	0.138601
948.653884	0.138419
948.831109	0.138979
949.008316	0.136333
949.185505	0.136274
949.362676	0.133996
949.539828	0.134035
949.716962	0.134002
949.894078	0.133324
950.071176	0.133489
950.248256	0.134909
950.425317	0.133249
950.602360	0.133550
950.779385	0.133000
950.956391	0.133795
951.133380	0.132939
951.310350	0.130973
951.487302	0.130758
951.664235	0.130511
951.841151	0.129376
952.018048	0.128786
952.194927	0.128987
952.371788	0.128778
952.548631	0.127287
952.725455	0.127000
952.902261	0.127022
953.079049	0.128721
953.255819	0.127304
953.432570	0.126070
953.609303	0.126859
953.786018	0.125843
953.962715	0.124124
954.139394	0.123178
954.316054	0.122348
954.492696	0.121922
954.669320	0.120020
954.845926	0.120512
955.022513	0.121288
955.199083	0.118953
955.375634	0.118423
955.552166	0.120084
955.728681	0.120389
955.905177	0.120638
956.081655	0.118485
956.258115	0.117754
956.434557	0.117235
956.610980	0.116362
956.787385	0.117910
956.963772	0.116900
957.140141	0.115918
957.316492	0.117089
957.492824	0.117679
957.669138	0.120137
957.845434	0.117578
958.021712	0.118507
958.197971	0.118613
958.374212	0.118203
958.550435	0.119094
958.726640	0.117257
958.902826	0.116631
959.078995	0.114332
959.255145	0.113975
959.431277	0.115538
959.607390	0.114712
959.783486	0.113937
959.959563	0.114728
960.135622	0.114795
960.311662	0.118056
960.487685	0.118053
960.663689	0.118745
960.839675	0.119911
961.015643	0.117214
961.191593	0.114997
961.367524	0.114096
961.543437	0.111688
961.719332	0.112950
961.895209	0.112059
962.071067	0.110302
962.246907	0.108397
962.422730	0.107240
962.598533	0.108644
962.774319	0.110589
962.950086	0.111241
963.125835	0.113174
963.301566	0.111123
963.477279	0.109307
963.652973	0.110926
963.828650	0.113522
964.004308	0.111791
964.179947	0.110252
964.355569	0.109289
964.531172	0.107722
964.706757	0.106325
964.882324	0.106878
965.057873	0.107566
965.233403	0.107342
965.408916	0.104407
965.584410	0.102886
965.759885	0.104911
965.935343	0.105516
966.110782	0.104221
966.286203	0.104043
966.461606	0.102861
966.636991	0.104215
966.812357	0.105379
966.987705	0.108210
967.163035	0.111079
967.338347	0.110949
967.513641	0.108610
967.688916	0.108988
967.864173	0.109832
968.039412	0.109775
968.214632	0.106041
968.389835	0.105046
968.565019	0.104764
968.740185	0.103789
968.915333	0.103717
969.090462	0.105795
969.265573	0.109335
969.440667	0.108701
969.615741	0.108352
969.790798	0.111257
969.965836	0.108149
970.140856	0.107169
970.315858	0.107285
970.490842	0.106824
970.665808	0.107845
970.840755	0.105664
971.015684	0.105707
971.190595	0.105720
971.365487	0.104508
971.540362	0.105546
971.715218	0.105808
971.890056	0.106555
972.064875	0.107088
972.239677	0.106932
972.414460	0.108023
972.589225	0.107180
972.763972	0.110432
972.938700	0.109939
973.113411	0.111326
973.288103	0.111912
973.462777	0.113155
973.637432	0.113311
973.812070	0.112014
973.986689	0.112736
974.161290	0.113347
974.335873	0.110847
974.510437	0.112128
974.684984	0.112869
974.859512	0.111181
975.034022	0.109193
975.208513	0.110707
975.382987	0.111398
975.557442	0.108631
975.731879	0.108265
975.906298	0.107963
976.080698	0.107807
976.255080	0.107124
976.429445	0.107240
976.603790	0.108623
976.778118	0.107055
976.952427	0.107525
977.126719	0.109199
977.300992	0.110437
977.475246	0.110845
977.649483	0.108399
977.823701	0.107399
977.997901	0.107370
978.172083	0.105665
978.346247	0.105682
978.520392	0.103828
978.694519	0.103822
978.868628	0.102529
979.042719	0.103753
979.216791	0.105562
979.390845	0.107307
979.564882	0.109238
979.738899	0.110175
979.912899	0.111065
980.086880	0.110425
980.260843	0.109846
980.434788	0.111901
980.608715	0.112443
980.782623	0.112607
980.956514	0.112010
981.130386	0.110585
981.304240	0.112240
981.478075	0.112661
981.651892	0.113658
981.825692	0.115185
981.999472	0.114668
982.173235	0.114796
982.346980	0.113894
982.520706	0.112399
982.694414	0.113632
982.868104	0.112165
983.041775	0.111131
983.215428	0.111851
983.389064	0.110733
983.562680	0.110403
983.736279	0.110108
983.909860	0.110130
984.083422	0.112008
984.256966	0.112303
984.430491	0.111535
984.603999	0.111818
984.777488	0.112539
984.950959	0.111949
985.124412	0.112005
985.297847	0.112299
985.471263	0.112288
985.644661	0.110535
985.818041	0.107700
985.991403	0.108058
986.164747	0.108049
986.338072	0.107010
986.511379	0.107124
986.684668	0.105972
986.857938	0.104403
987.031191	0.105421
987.204425	0.105217
987.377641	0.106660
987.550839	0.106045
987.724018	0.103656
987.897179	0.103037
988.070322	0.103620
988.243447	0.103200
988.416554	0.103907
988.589642	0.105291
988.762712	0.106471
988.935764	0.104865
989.108798	0.104720
989.281813	0.106706
989.454811	0.105727
989.627790	0.105319
989.800751	0.107820
989.973693	0.107395
990.146617	0.105679
990.319524	0.106346
990.492412	0.107729
990.665281	0.109620
990.838133	0.109606
991.010966	0.110670
991.183781	0.110938
991.356578	0.108190
991.529356	0.109453
991.702117	0.109328
991.874859	0.108069
992.047583	0.108541
992.220288	0.109219
992.392976	0.109917
992.565645	0.109484
992.738296	0.109586
992.910929	0.110454
993.083543	0.110347
993.256139	0.110814
993.428718	0.112194
993.601277	0.113914
993.773819	0.112615
993.946342	0.110611
994.118848	0.111805
994.291335	0.112232
994.463803	0.112664
994.636254	0.111206
994.808686	0.112811
994.981100	0.111839
995.153496	0.110874
995.325874	0.110006
995.498233	0.110242
995.670574	0.110861
995.842897	0.110339
996.015202	0.109645
996.187488	0.108969
996.359757	0.107501
996.532007	0.106582
996.704239	0.105347
996.876452	0.104273
997.048648	0.104482
997.220825	0.103712
997.392984	0.104887
997.565124	0.105501
997.737247	0.105541
997.909351	0.103657
998.081437	0.104409
998.253505	0.104664
998.425554	0.105428
998.597586	0.105728
998.769599	0.104810
998.941594	0.102673
999.113571	0.102749
999.285529	0.103838
999.457469	0.107927
999.629391	0.108716
999.801295	0.108497
999.973181	0.108485
1000.145048	0.108764
1000.316897	0.108684
1000.488728	0.110431
1000.660541	0.111196
1000.832335	0.111419
1001.004111	0.108536
1001.175869	0.108097
1001.347609	0.108033
1001.519331	0.108161
1001.691034	0.106875
1001.862719	0.108880
1002.034386	0.107581
1002.206035	0.107737
1002.377665	0.106783
1002.549277	0.108062
1002.720871	0.108665
1002.892447	0.108740
1003.064004	0.109187
1003.235544	0.110610
1003.407065	0.108189
1003.578568	0.108553
1003.750052	0.107808
1003.921519	0.108232
1004.092967	0.107114
1004.264397	0.106925
1004.435809	0.105417
1004.607202	0.105112
1004.778577	0.105641
1004.949934	0.107295
1005.121273	0.107099
1005.292594	0.107524
1005.463896	0.107743
1005.635180	0.110087
1005.806446	0.110924
1005.977694	0.112027
1006.148923	0.111287
1006.320135	0.110188
1006.491328	0.109879
1006.662503	0.110257
1006.833659	0.109986
1007.004798	0.110155
1007.175918	0.108602
1007.347020	0.106003
1007.518103	0.108030
1007.689169	0.108669
1007.860216	0.109439
1008.031245	0.109576
1008.202256	0.107776
1008.373248	0.107050
1008.544223	0.106243
1008.715179	0.106081
1008.886117	0.107612
1009.057036	0.104875
1009.227938	0.105507
1009.398821	0.106327
1009.569686	0.106342
1009.740533	0.109345
1009.911361	0.109572
1010.082172	0.111694
1010.252964	0.110300
1010.423738	0.111382
1010.594493	0.113187
1010.765231	0.114026
1010.935950	0.112493
1011.106651	0.113419
1011.277334	0.112584
1011.447998	0.111468
1011.618645	0.111490
1011.789273	0.112845
1011.959882	0.110370
1012.130474	0.109276
1012.301048	0.106753
1012.471603	0.107340
1012.642140	0.106390
1012.812658	0.104416
1012.983159	0.104518
1013.153641	0.100865
1013.324105	0.101376
1013.494551	0.102353
1013.664979	0.102228
1013.835388	0.103250
1014.005779	0.102383
1014.176152	0.101912
1014.346507	0.101384
1014.516843	0.102694
1014.687162	0.104945
1014.857462	0.104687
1015.027744	0.102985
1015.198007	0.103333
1015.368252	0.102980
1015.538480	0.103429
1015.708689	0.105142
1015.878879	0.105677
1016.049052	0.105739
1016.219206	0.106631
1016.389342	0.106632
1016.559460	0.107142
1016.729559	0.107692
1016.899641	0.108489
1017.069704	0.108279
1017.239749	0.106753
1017.409775	0.108373
1017.579784	0.107813
1017.749774	0.105633
1017.919746	0.105829
1018.089700	0.106325
1018.259635	0.106384
1018.429553	0.104634
1018.599452	0.103465
1018.769333	0.103521
1018.939195	0.103853
1019.109040	0.103560
1019.278866	0.103103
1019.448674	0.102512
1019.618464	0.101988
1019.788235	0.101611
1019.957989	0.102607
1020.127724	0.104688
1020.297441	0.104073
1020.467139	0.103706
1020.636820	0.104269
1020.806482	0.104736
1020.976126	0.103125
1021.145752	0.103660
1021.315359	0.103650
1021.484948	0.103481
1021.654519	0.102273
1021.824072	0.104204
1021.993607	0.103126
1022.163123	0.103908
1022.332621	0.103253
1022.502101	0.104498
1022.671563	0.104697
1022.841007	0.105466
1023.010432	0.105474
1023.179839	0.103641
1023.349228	0.101431
1023.518598	0.101525
1023.687951	0.100636
1023.857285	0.101557
1024.026601	0.102706
1024.195899	0.102925
1024.365178	0.101368
1024.534439	0.100355
1024.703682	0.101997
1024.872907	0.103248
1025.042114	0.104066
1025.211302	0.102958
1025.380472	0.101371
1025.549624	0.099830
1025.718758	0.100570
1025.887873	0.102659
1026.056970	0.104031
1026.226049	0.104008
1026.395110	0.102292
1026.564153	0.100032
1026.733177	0.101605
1026.902183	0.104759
1027.071171	0.103944
1027.240141	0.103850
1027.409092	0.102435
1027.578026	0.101646
1027.746940	0.101768
1027.915837	0.103092
1028.084716	0.104856
1028.253576	0.103124
1028.422418	0.101873
1028.591242	0.101751
1028.760048	0.100303
1028.928835	0.099116
1029.097604	0.101327
1029.266355	0.101497
1029.435088	0.100345
1029.603803	0.101777
1029.772499	0.102703
1029.941177	0.103230
1030.109837	0.104618
1030.278478	0.105138
1030.447102	0.105021
1030.615707	0.104220
1030.784294	0.103626
1030.952863	0.103943
1031.121413	0.102058
1031.289945	0.101987
1031.458460	0.102168
1031.626955	0.100895
1031.795433	0.101399
1031.963892	0.102879
1032.132334	0.101574
1032.300756	0.101082
1032.469161	0.101653
1032.637548	0.101694
1032.805916	0.102300
1032.974266	0.099146
1033.142598	0.098971
1033.310911	0.097466
1033.479207	0.097910
1033.647484	0.096863
1033.815743	0.097992
1033.983983	0.096617
1034.152206	0.097839
1034.320410	0.097378
1034.488596	0.099437
1034.656764	0.101433
1034.824914	0.101993
1034.993045	0.102067
1035.161158	0.104746
1035.329253	0.102153
1035.497330	0.104313
1035.665388	0.101383
1035.833428	0.101585
1036.001450	0.101035
1036.169454	0.101626
1036.337440	0.101226
1036.505407	0.100757
1036.673356	0.100498
1036.841287	0.101821
1037.009200	0.100265
1037.177094	0.102373
1037.344970	0.102319
1037.512828	0.102549
1037.680668	0.102230
1037.848489	0.104315
1038.016293	0.103770
1038.184078	0.102408
1038.351845	0.103962
1038.519593	0.105234
1038.687324	0.105631
1038.855036	0.106833
1039.022730	0.105879
1039.190406	0.103200
1039.358063	0.101906
1039.525702	0.101301
1039.693323	0.102434
1039.860926	0.101778
1040.028511	0.100247
1040.196077	0.099884
1040.363625	0.098241
1040.531155	0.099011
1040.698667	0.098922
1040.866161	0.099759
1041.033636	0.101707
1041.201093	0.100237
1041.368532	0.099530
1041.535952	0.100162
1041.703355	0.099865
1041.870739	0.102088
1042.038105	0.103272
1042.205452	0.103814
1042.372782	0.104317
1042.540093	0.104891
1042.707386	0.106577
1042.874661	0.107493
1043.041918	0.106436
1043.209156	0.105236
1043.376376	0.103741
1043.543578	0.102665
1043.710762	0.103477
1043.877927	0.102237
1044.045074	0.100881
1044.212203	0.099137
1044.379314	0.101147
1044.546407	0.103154
1044.713481	0.104673
1044.880537	0.103938
1045.047575	0.103899
1045.214595	0.103252
1045.381596	0.102078
1045.548579	0.100150
1045.715544	0.101435
1045.882491	0.100105
1046.049420	0.099964
1046.216330	0.099978
1046.383222	0.099766
1046.550096	0.099441
1046.716951	0.099739
1046.883789	0.100763
1047.050608	0.102331
1047.217409	0.102180
1047.384192	0.100777
1047.550956	0.099034
1047.717703	0.098574
1047.884431	0.099292
1048.051140	0.099771
1048.217832	0.101090
1048.384505	0.101201
1048.551161	0.100806
1048.717798	0.100553
1048.884416	0.101948
1049.051017	0.104222
1049.217599	0.104654
1049.384163	0.103694
1049.550709	0.102393
1049.717237	0.100356
1049.883746	0.102276
1050.050237	0.102757
1050.216710	0.101485
1050.383165	0.100139
1050.549601	0.098283
1050.716019	0.097329
1050.882420	0.096665
1051.048801	0.096938
1051.215165	0.097867
1051.381510	0.096796
1051.547837	0.099146
1051.714146	0.099126
1051.880437	0.100081
1052.046709	0.101078
1052.212964	0.102438
1052.379200	0.103702
1052.545417	0.105954
1052.711617	0.105492
1052.877798	0.105096
1053.043961	0.101993
1053.210106	0.105623
1053.376233	0.106067
1053.542341	0.104402
1053.708432	0.101989
1053.874504	0.102859
1054.040557	0.100900
1054.206593	0.101926
1054.372610	0.100791
1054.538609	0.101088
1054.704590	0.097022
1054.870553	0.096600
1055.036497	0.096508
1055.202424	0.098111
1055.368331	0.097038
1055.534221	0.098138
1055.700093	0.097811
1055.865946	0.097508
1056.031781	0.098579
1056.197598	0.099336
1056.363397	0.098902
1056.529177	0.099529
1056.694939	0.100010
1056.860683	0.101922
1057.026409	0.100893
1057.192116	0.102046
1057.357806	0.102769
1057.523477	0.101279
1057.689130	0.103704
1057.854764	0.105597
1058.020381	0.107266
1058.185979	0.108241
1058.351559	0.108100
1058.517120	0.109279
1058.682664	0.106759
1058.848189	0.107872
1059.013696	0.107930
1059.179185	0.105914
1059.344656	0.105552
1059.510108	0.103427
1059.675542	0.101224
1059.840958	0.100849
1060.006356	0.100225
1060.171735	0.102686
1060.337096	0.101681
1060.502439	0.102727
1060.667764	0.105559
1060.833071	0.103889
1060.998359	0.106887
1061.163629	0.107916
1061.328881	0.107666
1061.494115	0.109921
1061.659330	0.111336
1061.824527	0.112264
1061.989706	0.112334
1062.154867	0.110305
1062.320010	0.111551
1062.485134	0.110352
1062.650240	0.111732
1062.815328	0.110526
1062.980398	0.109699
1063.145449	0.107666
1063.310482	0.106872
1063.475497	0.106255
1063.640494	0.106913
1063.805473	0.105633
1063.970433	0.103674
1064.135375	0.102831
1064.300299	0.104331
1064.465204	0.105371
1064.630092	0.105308
1064.794961	0.104784
1064.959812	0.103526
1065.124645	0.102749
1065.289459	0.103181
1065.454256	0.102880
1065.619034	0.103834
1065.783793	0.102387
1065.948535	0.100822
1066.113258	0.100895
1066.277964	0.103112
1066.442651	0.103811
1066.607319	0.106544
1066.771970	0.107966
1066.936602	0.109431
1067.101216	0.107065
1067.265812	0.109360
1067.430389	0.108241
1067.594949	0.107540
1067.759490	0.105150
1067.924013	0.105902
1068.088518	0.101721
1068.253004	0.097881
1068.417472	0.098918
1068.581922	0.099318
1068.746354	0.096588
1068.910768	0.097993
1069.075163	0.097131
1069.239540	0.097293
1069.403899	0.096786
1069.568240	0.098465
1069.732562	0.100912
1069.896866	0.101296
1070.061152	0.100744
1070.225420	0.101053
1070.389670	0.099749
1070.553901	0.101324
1070.718114	0.100001
1070.882309	0.098912
1071.046486	0.099558
1071.210644	0.100862
1071.374784	0.099873
1071.538906	0.100851
1071.703010	0.100010
1071.867096	0.102183
1072.031163	0.102509
1072.195212	0.105013
1072.359243	0.107710
1072.523256	0.108011
1072.687250	0.106142
1072.851226	0.106357
1073.015184	0.106612
1073.179124	0.107083
1073.343045	0.104457
1073.506949	0.102886
1073.670834	0.100958
1073.834701	0.101509
1073.998549	0.100237
1074.162380	0.100988
1074.326192	0.103672
1074.489986	0.104689
1074.653761	0.107409
1074.817519	0.109295
1074.981258	0.113066
1075.144979	0.113776
1075.308682	0.112864
1075.472367	0.112789
1075.636033	0.113292
1075.799681	0.110154
1075.963311	0.108791
1076.126923	0.108480
1076.290516	0.111042
1076.454092	0.107578
1076.617649	0.108079
1076.781187	0.108658
1076.944708	0.110140
1077.108210	0.109115
1077.271695	0.111178
1077.435160	0.112115
1077.598608	0.110434
1077.762038	0.107031
1077.925449	0.107290
1078.088842	0.108876
1078.252217	0.106562
1078.415573	0.105616
1078.578912	0.106170
1078.742232	0.103777
1078.905534	0.103921
1079.068817	0.105955
1079.232083	0.104349
1079.395330	0.105609
1079.558559	0.103075
1079.721770	0.105786
1079.884962	0.105113
1080.048136	0.105635
1080.211293	0.106149
1080.374430	0.106989
1080.537550	0.104475
1080.700651	0.108374
1080.863735	0.109145
1081.026800	0.109370
1081.189846	0.110371
1081.352875	0.109022
1081.515885	0.106366
1081.678877	0.107392
1081.841851	0.106333
1082.004807	0.107718
1082.167744	0.105416
1082.330663	0.104573
1082.493564	0.106795
1082.656447	0.102912
1082.819312	0.105549
1082.982158	0.107286
1083.144986	0.106524
1083.307796	0.104427
1083.470587	0.103472
1083.633361	0.105543
1083.796116	0.104902
1083.958853	0.102687
1084.121571	0.106019
1084.284272	0.107322
1084.446954	0.105591
1084.609618	0.104502
1084.772264	0.105982
1084.934892	0.108504
1085.097501	0.108632
1085.260092	0.107919
1085.422665	0.109265
1085.585220	0.109890
1085.747756	0.107054
1085.910274	0.110165
1086.072774	0.113020
1086.235256	0.114635
1086.397720	0.112400
1086.560165	0.112141
1086.722592	0.113967
1086.885001	0.115101
1087.047392	0.114639
1087.209764	0.113828
1087.372119	0.111423
1087.534455	0.108551
1087.696772	0.105792
1087.859072	0.107166
1088.021353	0.104259
1088.183616	0.104096
1088.345861	0.104895
1088.508088	0.103632
1088.670296	0.105712
1088.832486	0.107949
1088.994658	0.107575
1089.156812	0.109481
1089.318948	0.109581
1089.481065	0.111559
1089.643164	0.110161
1089.805245	0.106492
1089.967308	0.105754
1090.129352	0.107567
1090.291378	0.106664
1090.453386	0.109493
1090.615376	0.110453
1090.777347	0.108240
1090.939301	0.108930
1091.101236	0.109596
1091.263153	0.111075
1091.425051	0.110069
1091.586932	0.109434
1091.748794	0.110838
1091.910638	0.108999
1092.072463	0.108482
1092.234271	0.108957
1092.396060	0.106192
1092.557831	0.106549
1092.719584	0.107921
1092.881319	0.110211
1093.043035	0.107207
1093.204733	0.107252
1093.366413	0.111308
1093.528075	0.116260
1093.689718	0.117282
1093.851343	0.117877
1094.012950	0.118966
1094.174539	0.117198
1094.336110	0.114792
1094.497662	0.116206
1094.659196	0.113302
1094.820712	0.111808
1094.982210	0.106670
1095.143689	0.106351
1095.305151	0.107790
1095.466594	0.108432
1095.628018	0.109895
1095.789425	0.109664
1095.950813	0.113198
1096.112183	0.113512
1096.273535	0.113662
1096.434869	0.115704
1096.596184	0.115793
1096.757482	0.117235
1096.918761	0.115689
1097.080021	0.113803
1097.241264	0.116511
1097.402488	0.111350
1097.563694	0.111583
1097.724882	0.108660
1097.886052	0.106202
1098.047203	0.107034
1098.208336	0.107293
1098.369451	0.105842
1098.530548	0.108861
1098.691627	0.109947
1098.852687	0.115650
1099.013729	0.116427
1099.174753	0.117432
1099.335758	0.117734
1099.496746	0.118355
1099.657715	0.118730
1099.818666	0.120010
1099.979599	0.120935
1100.140513	0.118797
1100.301409	0.116498
1100.462287	0.119745
1100.623147	0.120817
1100.783989	0.121058
1100.944812	0.121033
1101.105617	0.119825
1101.266404	0.121610
1101.427173	0.119288
1101.587923	0.122016
1101.748656	0.122058
1101.909370	0.119727
1102.070066	0.121085
1102.230743	0.120472
1102.391403	0.118899
1102.552044	0.117594
1102.712667	0.116995
1102.873271	0.114031
1103.033858	0.112399
1103.194426	0.113798
1103.354976	0.112433
1103.515508	0.118384
1103.676021	0.117021
1103.836517	0.118335
1103.996994	0.117489
1104.157453	0.119694
1104.317893	0.122061
1104.478316	0.123665
1104.638720	0.118559
1104.799106	0.119966
1104.959474	0.112274
1105.119823	0.115345
1105.280155	0.113955
1105.440468	0.118701
1105.600763	0.112238
1105.761039	0.111552
1105.921298	0.105795
1106.081538	0.107278
1106.241760	0.105313
1106.401964	0.104792
1106.562149	0.104829
1106.722316	0.103853
1106.882465	0.098849
1107.042596	0.100055
1107.202709	0.100947
1107.362803	0.107593
1107.522879	0.104951
1107.682937	0.107617
1107.842977	0.109138
1108.002999	0.108901
1108.163002	0.107672
1108.322987	0.109124
1108.482954	0.113401
1108.642902	0.114406
1108.802833	0.110927
1108.962745	0.112880
1109.122639	0.112648
1109.282515	0.109861
1109.442372	0.109535
1109.602211	0.110540
1109.762032	0.112277
1109.921835	0.112953
1110.081620	0.109119
1110.241386	0.108816
1110.401134	0.112862
1110.560864	0.113694
1110.720576	0.114503
1110.880269	0.112816
1111.039945	0.119302
1111.199602	0.114295
1111.359240	0.112368
1111.518861	0.115917
1111.678463	0.118847
1111.838047	0.118938
1111.997613	0.116074
1112.157161	0.115625
1112.316690	0.114622
1112.476202	0.107316
1112.635695	0.113428
1112.795169	0.112275
1112.954626	0.110918
1113.114064	0.108969
1113.273484	0.109760
1113.432886	0.111743
1113.592270	0.115468
1113.751635	0.120127
1113.910983	0.123320
1114.070312	0.124304
1114.229622	0.129599
1114.388915	0.130026
1114.548189	0.129361
1114.707445	0.124817
1114.866683	0.125593
1115.025903	0.122141
1115.185104	0.122073
1115.344287	0.122500
1115.503452	0.115237
1115.662599	0.107037
1115.821727	0.107026
1115.980838	0.106629
1116.139930	0.109502
1116.299004	0.110130
1116.458059	0.112188
1116.617097	0.113455
1116.776116	0.113188
1116.935117	0.122013
1117.094099	0.126583
1117.253064	0.132962
1117.412010	0.130972
1117.570938	0.129993
1117.729848	0.128539
1117.888740	0.129396
1118.047613	0.126833
1118.206468	0.127651
1118.365305	0.128471
1118.524124	0.133570
1118.682924	0.130695
1118.841707	0.135037
1119.000471	0.138485
1119.159216	0.138743
1119.317944	0.136881
1119.476653	0.132311
1119.635344	0.132484
1119.794017	0.126317
1119.952672	0.120838
1120.111308	0.116509
1120.269927	0.117075
1120.428527	0.111650
1120.587108	0.110234
1120.745672	0.114269
1120.904217	0.115840
1121.062744	0.112808
1121.221253	0.115009
1121.379744	0.115994
1121.538216	0.112258
1121.696671	0.115300
1121.855107	0.117311
1122.013524	0.121180
1122.171924	0.121177
1122.330305	0.119592
1122.488668	0.125299
1122.647013	0.125508
1122.805340	0.121147
1122.963648	0.132385
1123.121938	0.126061
1123.280210	0.126169
1123.438464	0.124308
1123.596700	0.116633
1123.754917	0.117219
1123.913116	0.115882
1124.071297	0.114330
1124.229459	0.120759
1124.387604	0.118704
1124.545730	0.122543
1124.703838	0.122806
1124.861928	0.122164
1125.019999	0.122632
1125.178052	0.125220
1125.336088	0.124924
1125.494104	0.129488
1125.652103	0.128297
1125.810083	0.128884
1125.968045	0.124085
1126.125989	0.123905
1126.283915	0.128068
1126.441823	0.135317
1126.599712	0.135856
1126.757583	0.135529
1126.915436	0.131038
1127.073270	0.132187
1127.231087	0.130397
1127.388885	0.135051
1127.546665	0.137995
1127.704426	0.137061
1127.862170	0.131208
1128.019895	0.131983
1128.177602	0.136039
1128.335291	0.138885
1128.492961	0.133932
1128.650614	0.138874
1128.808248	0.142684
1128.965864	0.146882
1129.123461	0.140985
1129.281041	0.151704
1129.438602	0.146502
1129.596145	0.140529
1129.753670	0.138628
1129.911176	0.138868
1130.068665	0.132159
1130.226135	0.125554
1130.383587	0.122970
1130.541020	0.122346
1130.698436	0.115702
1130.855833	0.117825
1131.013212	0.117681
1131.170573	0.116915
1131.327915	0.114438
1131.485239	0.108798
1131.642545	0.109715
1131.799833	0.107413
1131.957103	0.112536
1132.114354	0.115328
1132.271588	0.122844
1132.428803	0.127431
1132.585999	0.129994
1132.743178	0.130102
1132.900338	0.132620
1133.057480	0.137334
1133.214604	0.138218
1133.371710	0.134826
1133.528797	0.126791
1133.685866	0.121939
1133.842917	0.117475
1133.999950	0.111507
1134.156964	0.117671
1134.313960	0.119514
1134.470938	0.116416
1134.627898	0.107965
1134.784840	0.114526
1134.941763	0.119283
1135.098668	0.118753
1135.255555	0.120641
1135.412424	0.127668
1135.569274	0.130922
1135.726107	0.125582
1135.882921	0.131737
1136.039716	0.137759
1136.196494	0.133285
1136.353253	0.135427
1136.509995	0.125964
1136.666717	0.129006
1136.823422	0.127549
1136.980109	0.121622
1137.136777	0.124855
1137.293427	0.113904
1137.450059	0.123194
1137.606672	0.129381
1137.763267	0.119674
1137.919844	0.131410
1138.076403	0.132197
1138.232944	0.129976
1138.389466	0.126063
1138.545971	0.133222
1138.702457	0.139190
1138.858924	0.129811
1139.015374	0.119520
1139.171805	0.127075
1139.328218	0.124590
1139.484613	0.120431
1139.640990	0.120986
1139.797348	0.120532
1139.953688	0.114590
1140.110010	0.111074
1140.266314	0.105886
1140.422600	0.105085
1140.578867	0.100811
1140.735116	0.106241
1140.891347	0.110633
1141.047559	0.121729
1141.203754	0.124638
1141.359930	0.124252
1141.516088	0.125316
1141.672228	0.126666
1141.828349	0.134538
1141.984452	0.137327
1142.140537	0.132984
1142.296604	0.131275
1142.452653	0.117530
1142.608683	0.122391
1142.764695	0.131000
1142.920689	0.139481
1143.076665	0.142754
1143.232622	0.136256
1143.388562	0.139436
1143.544483	0.139983
1143.700385	0.134399
1143.856270	0.142352
1144.012136	0.145900
1144.167985	0.136358
1144.323814	0.132431
1144.479626	0.130769
1144.635420	0.132155
1144.791195	0.130352
1144.946952	0.128165
1145.102691	0.131126
1145.258411	0.127311
1145.414113	0.121843
1145.569798	0.125348
1145.725463	0.126357
1145.881111	0.134586
1146.036741	0.134776
1146.192352	0.133239
1146.347945	0.139944
1146.503519	0.136369
1146.659076	0.133246
1146.814614	0.126507
1146.970134	0.126731
1147.125636	0.123222
1147.281120	0.120670
1147.436585	0.124151
1147.592032	0.127139
1147.747461	0.112962
1147.902872	0.114019
1148.058265	0.111884
1148.213639	0.123564
1148.368995	0.120097
1148.524333	0.121861
1148.679653	0.120918
1148.834954	0.124212
1148.990237	0.122602
1149.145502	0.143520
1149.300749	0.145144
1149.455977	0.152852
1149.611188	0.148582
1149.766380	0.161013
1149.921553	0.144656
1150.076709	0.149818
1150.231846	0.133942
1150.386966	0.139466
1150.542066	0.122409
1150.697149	0.112695
1150.852214	0.111211
1151.007260	0.116706
1151.162288	0.107193
1151.317298	0.115316
1151.472289	0.105009
1151.627263	0.122520
1151.782218	0.111846
1151.937155	0.114659
1152.092073	0.127132
1152.246974	0.120799
1152.401856	0.116105
1152.556720	0.123477
1152.711566	0.128956
1152.866393	0.132702
1153.021203	0.128792
1153.175994	0.129039
1153.330767	0.141393
1153.485521	0.140679
1153.640258	0.143671
1153.794976	0.143652
1153.949676	0.140120
1154.104358	0.135592
1154.259021	0.136534
1154.413667	0.128327
1154.568294	0.132157
1154.722903	0.120349
1154.877493	0.122519
1155.032066	0.124430
1155.186620	0.124607
1155.341156	0.116594
1155.495674	0.118898
1155.650173	0.116726
1155.804654	0.123720
1155.959118	0.122318
1156.113562	0.120213
1156.267989	0.120019
1156.422397	0.115063
1156.576788	0.115252
1156.731160	0.123048
1156.885513	0.120583
1157.039849	0.130704
1157.194166	0.125725
1157.348465	0.128701
1157.502746	0.137303
1157.657009	0.126165
1157.811253	0.128623
1157.965479	0.129737
1158.119687	0.130888
1158.273877	0.130419
1158.428048	0.125403
1158.582201	0.132022
1158.736337	0.136198
1158.890453	0.136683
1159.044552	0.150720
1159.198632	0.150988
1159.352694	0.143099
1159.506738	0.143056
1159.660764	0.139456
1159.814771	0.130852
1159.968761	0.131533
1160.122732	0.131024
1160.276685	0.124848
1160.430619	0.110547
1160.584535	0.116384
1160.738434	0.122099
1160.892313	0.108062
1161.046175	0.113234
1161.200019	0.119903
1161.353844	0.112422
1161.507651	0.116268
1161.661440	0.120921
1161.815210	0.132921
1161.968962	0.136152
1162.122697	0.124853
1162.276412	0.141845
1162.430110	0.139574
1162.583789	0.133839
1162.737451	0.140808
1162.891094	0.130824
1163.044718	0.129575
1163.198325	0.130023
1163.351913	0.123240
1163.505483	0.115297
1163.659035	0.108632
1163.812569	0.112737
1163.966084	0.112452
1164.119581	0.110167
1164.273060	0.113196
1164.426521	0.118063
1164.579964	0.109568
1164.733388	0.106932
1164.886794	0.121544
1165.040182	0.128576
1165.193551	0.130329
1165.346903	0.132570
1165.500236	0.119162
1165.653551	0.109126
1165.806848	0.101265
1165.960126	0.095137
1166.113386	0.101251
1166.266628	0.107125
1166.419852	0.100512
1166.573058	0.085279
1166.726245	0.079526
1166.879414	0.088688
1167.032565	0.098341
1167.185698	0.098444
1167.338812	0.105877
1167.491909	0.096231
1167.644987	0.086341
1167.798046	0.089372
1167.951088	0.109241
1168.104111	0.116110
1168.257117	0.123733
1168.410103	0.128341
1168.563072	0.143119
1168.716023	0.146862
1168.868955	0.147070
1169.021869	0.161875
1169.174765	0.159606
1169.327642	0.163696
1169.480501	0.185339
1169.633343	0.187193
1169.786165	0.178826
1169.938970	0.168763
1170.091757	0.165112
1170.244525	0.168420
1170.397275	0.146545
1170.550007	0.145252
1170.702720	0.140115
1170.855415	0.115371
1171.008092	0.113191
1171.160751	0.120028
1171.313392	0.122669
1171.466014	0.086019
1171.618619	0.188361
1171.771205	0.188361
1171.923772	0.188361
