sample name	sample
index	936
start time	 04-12-2021  12:40:45 PM
880	0.415951
Peak Time (s)	102.536
Peak Height 	0.416
calc peak height	100,103
Baseline Time (s)	10.035
Baseline Value 	-0.00327
subtract baseline	10,4
Abs	0.332551
Peak Time (s)	102.039
Peak Height 	0.3326
calc peak height	100,103
Baseline Time (s)	10.035
Baseline Value 	0.003645
subtract baseline	10,3
PK_550	0.181619
Peak Time (s)	102.039
Peak Height 	0.1816
calc peak height	100,103
Baseline Time (s)	9.534
Baseline Value 	2.6491E-4
subtract baseline	10,2
PK_880	0.304538
Peak Time (s)	100.038
Peak Height 	0.3045
calc peak height	100,103
Baseline Time (s)	9.534
Baseline Value 	2.1131E-4
subtract baseline	10,1


Time (s)	A880-A510	A880-A775	A880-A975	A880	I510	I775	I975	I880	
0.035000	-0.003485	-0.000258	-0.006541	0.007453	7082.763852	42928.596856	3916.842996	23060.390113
0.535500	-0.002106	-0.001406	-0.004910	0.003112	7138.367333	43223.665107	3931.466128	23262.987688
1.035500	-0.000800	-0.000187	-0.007302	0.003575	7146.610590	43293.728226	3924.446714	23241.248475
1.539000	-0.000096	0.000115	-0.002808	0.001096	7177.940688	43552.961345	3941.665596	23357.756611
2.036000	-0.004825	-0.000772	-0.009309	0.005863	7085.179185	43027.775510	3913.982033	23134.359043
2.536000	0.001104	-0.000452	-0.001654	0.000773	7193.009870	43530.164330	3945.347243	23372.974317
3.037000	0.004101	0.000612	-0.001084	-0.000925	7239.789051	43789.056504	3951.024792	23453.199378
3.534000	0.000614	0.000471	-0.002322	0.000782	7188.062750	43615.656961	3943.657659	23372.551017
4.037000	0.001845	0.000309	-0.000931	0.001162	7196.491536	43564.861949	3946.180836	23354.637073
4.534500	0.000451	0.000460	-0.003176	0.000123	7192.980176	43676.429828	3943.170958	23403.670242
5.035000	0.001566	-0.000502	-0.004083	-0.000270	7207.942191	43623.059657	3941.891440	23422.218079
5.535500	0.002381	0.000541	-0.003766	0.000217	7211.212833	43675.097195	3941.468447	23399.206367
6.038500	0.000178	-0.000172	-0.000251	-0.000309	7194.555367	43657.679931	3951.569796	23424.080638
6.536000	-0.001471	-0.000708	-0.001296	-0.000643	7181.537919	43638.718144	3949.787208	23439.889001
7.036000	0.000336	-0.000622	0.002715	-0.000113	7194.172303	43597.100920	3958.548414	23414.791681
7.536000	-0.000509	-0.000701	-0.003609	-0.000608	7190.706843	43636.100449	3943.913267	23438.214084
8.036500	-0.001747	-0.000479	-0.004090	-0.000709	7179.460195	43666.358223	3942.967043	23443.011494
8.534500	-0.000457	-0.000092	-0.001369	-0.000443	7189.589866	43677.682150	3949.101394	23430.397090
9.037000	0.002608	0.000442	0.000784	0.000209	7213.553707	43666.621054	3952.868386	23399.595818
9.534500	0.000000	0.000000	-0.003564	-0.000607	7195.745814	43701.725811	3944.025587	23438.177896
10.035000	0.000341	0.000054	0.000000	0.000000	7193.108687	43649.831609	3951.424719	23409.472315
10.535500	-0.000026	-0.000505	-0.002844	0.003138	7158.506515	43304.839091	3936.505562	23261.751736
11.036000	-0.000136	0.000507	0.000807	0.000336	7185.063756	43660.858995	3952.609336	23393.622617
11.535500	0.000703	-0.000483	0.000747	-0.000527	7201.920833	43648.862021	3954.627926	23434.376968
12.036500	0.001289	0.000152	-0.004672	-0.000034	7202.847142	43662.159108	3939.837321	23411.058041
12.536500	-0.000320	-0.000015	-0.000799	0.003456	7152.497014	43320.835208	3940.791584	23246.840138
13.037000	0.000896	-0.000474	-0.000450	-0.000349	7202.070590	43633.058441	3951.170695	23425.947864
13.538000	-0.000386	-0.000213	-0.000399	-0.000262	7188.502782	43649.393636	3951.079927	23421.849770
14.034500	-0.002484	0.000254	-0.002462	0.002828	7137.444680	43404.286400	3938.220690	23276.319121
14.535000	-0.002275	-0.001041	-0.010723	0.002351	7144.159783	43328.125678	3919.082852	23298.704555
15.035000	-0.000064	-0.000264	-0.002273	-0.000237	7191.447772	43642.294018	3946.325019	23420.684748
15.535500	-0.000260	-0.000365	-0.000618	0.000554	7181.679326	43558.793863	3948.485382	23383.331587
16.036500	0.002363	0.001512	0.002255	0.000925	7203.989713	43699.846366	3954.769767	23365.820598
16.536000	-0.001051	-0.000269	-0.004882	0.004497	7135.139776	43200.616632	3928.124229	23198.126512
17.036500	0.003218	0.001277	0.004070	-0.002560	7247.332437	44005.922851	3968.202877	23530.772385
17.537000	0.001753	-0.000252	-0.006411	0.001035	7196.844213	43524.354188	3932.884560	23360.615628
18.037000	-0.000666	-0.000324	-0.000801	0.001166	7171.617690	43505.342778	3946.495642	23354.438090
18.534500	0.001114	0.000704	-0.003894	0.002424	7176.775290	43483.886728	3935.673620	23295.264772
19.034500	0.000799	-0.000090	-0.002000	0.001694	7180.874512	43477.966080	3942.187621	23329.606201
19.535000	0.000713	0.000346	-0.004113	0.001441	7182.523569	43542.272724	3937.564863	23341.508259
20.038000	0.000045	-0.000651	0.001580	0.000866	7181.608228	43502.925292	3953.219788	23368.613856
20.535500	-0.001521	-0.000191	-0.007833	0.003101	7144.192096	43337.417908	3924.309073	23263.478062
21.036500	-0.001303	-0.000144	-0.005961	0.000831	7168.643894	43553.495449	3934.500278	23370.246148
21.536500	0.001177	-0.000077	0.002833	0.002001	7181.572604	43450.538203	3953.517311	23315.156549
22.036000	0.000627	-0.000158	-0.002952	0.001575	7180.350436	43482.687030	3940.116288	23335.207724
22.537000	0.001106	0.000783	-0.002868	0.002764	7173.341650	43459.516844	3937.373050	23279.298005
23.037000	0.002142	0.001154	-0.001712	0.002347	7187.699055	43533.147433	3941.279491	23298.879740
23.534500	0.000731	0.000679	-0.001774	0.001929	7177.880706	43527.825672	3942.167481	23318.563690
24.034500	-0.000701	-0.000466	-0.000067	0.001082	7172.106735	43500.007101	3948.542858	23358.413668
24.538000	0.001969	0.000262	-0.003586	0.002326	7186.191701	43451.784556	3936.677613	23299.877306
25.036000	-0.000631	0.000355	-0.005164	0.001665	7167.051707	43522.178146	3934.409062	23330.959108
25.536000	-0.000322	-0.000155	-0.005827	0.002750	7159.416273	43373.475442	3930.096531	23279.974912
26.036500	0.000659	0.000597	-0.001097	0.001827	7178.183085	43529.726705	3944.108230	23323.360924
26.536000	0.001350	0.000114	-0.001808	0.002619	7177.177376	43410.638081	3940.363099	23286.094512
27.037500	0.001365	0.000756	0.003337	-0.000485	7208.080584	43761.212389	3961.064223	23432.380246
27.536500	-0.000717	0.000311	0.001222	0.003190	7151.207059	43375.894301	3946.492939	23259.316256
28.037500	-0.000651	0.000179	-0.003911	0.000311	7180.207103	43632.377156	3940.872954	23394.774013
28.535000	0.001954	-0.000128	-0.005670	0.000142	7207.702807	43619.430938	3936.926232	23402.748029
29.035500	0.000485	-0.000277	0.000353	-0.000229	7196.800931	43640.303738	3952.887321	23420.277907
29.535500	-0.000089	-0.000410	0.001777	0.003525	7154.080407	43277.638304	3947.043591	23243.598948
30.035500	0.002106	0.000327	-0.001203	0.000522	7205.451116	43626.545571	3947.102031	23384.845000
30.536000	-0.000105	-0.000190	-0.002022	0.003011	7158.980688	43345.845581	3938.856687	23267.697618
31.036500	-0.001986	-0.000461	0.000177	0.002268	7147.801878	43389.835228	3946.187223	23302.601168
31.536500	-0.000744	0.000400	-0.003798	0.004178	7141.258815	43292.296917	3931.577019	23213.038506
32.037000	0.001491	0.000777	-0.002744	0.000571	7198.846589	43664.081583	3943.132863	23382.522357
32.540000	-0.001524	0.000229	-0.002399	0.005689	7118.890176	43136.340237	3931.302184	23142.472478
33.037500	0.001385	0.000680	0.002850	0.000788	7195.650505	43634.684393	3956.616151	23372.295935
33.540500	0.000996	-0.000364	-0.000016	0.003467	7165.324338	43287.337452	3942.712417	23246.339744
34.038000	0.001547	0.001236	-0.001162	0.003129	7174.085346	43467.723690	3940.700523	23262.164589
34.541000	-0.000579	-0.000545	0.001413	0.001846	7165.782700	43421.379308	3950.338530	23322.453268
35.036000	-0.001294	0.000958	-0.002487	0.002598	7151.363041	43491.412288	3938.730545	23287.103145
35.544000	-0.000365	-0.000016	0.000807	0.003463	7151.991270	43320.117283	3944.776314	23246.541224
36.036500	-0.000168	-0.000177	-0.002916	0.001995	7168.357029	43441.761877	3939.161199	23315.416985
36.539000	-0.000853	-0.000200	0.001281	0.002393	7157.709211	43402.531212	3948.637001	23296.737521
37.037000	0.002061	0.000034	0.000367	0.002076	7189.578404	43453.832880	3947.139454	23311.609832
37.542500	-0.000545	-0.000126	-0.002451	0.002074	7163.867678	43439.133782	3940.119214	23311.723327
38.035000	0.000538	0.000906	0.001014	0.002810	7167.283136	43466.738191	3946.922922	23277.127626
38.538000	-0.000707	0.000174	-0.006718	0.003334	7149.898327	43349.798362	3926.472740	23252.587914
39.035500	0.001839	0.001355	-0.000278	0.003026	7177.992764	43488.488805	3943.157651	23267.003662
39.535500	-0.001571	0.000233	0.002000	0.002084	7153.682175	43471.698151	3951.215021	23311.262434
40.036000	0.001371	0.000235	-0.002764	0.002432	7179.232570	43439.422230	3938.455779	23294.912769
40.541500	0.001250	0.000687	-0.004067	0.003296	7169.513434	43400.971508	3933.090798	23254.338513
41.036500	0.000216	0.000440	-0.002812	0.002893	7163.300667	43415.524487	3937.190705	23273.234802
41.537000	0.000820	0.000350	-0.004167	0.002518	7172.948260	43442.113844	3934.766540	23290.854169
42.036500	-0.000982	-0.000848	-0.002213	0.001758	7162.683407	43401.367788	3941.500154	23326.604543
42.540000	0.000410	0.000237	0.000761	0.002354	7170.517907	43446.881158	3947.431572	23298.573341
43.038000	0.000549	-0.000018	-0.002116	0.002205	7173.364477	43437.031478	3940.628019	23305.563416
43.535500	-0.000185	0.000137	-0.000875	0.004607	7142.539482	43228.120919	3937.746761	23192.991297
44.035500	0.000820	-0.000573	-0.002077	-0.000528	7203.096655	43640.569225	3947.540965	23434.415591
44.536000	-0.002103	0.000115	-0.003785	0.005265	7117.376153	43165.022266	3928.933483	23162.224532
45.035500	0.000340	0.000058	-0.003027	0.000232	7190.796520	43628.509153	3943.272536	23398.517491
45.536000	-0.001935	-0.000476	-0.002926	0.005932	7112.514015	43048.695552	3929.403057	23131.106695
46.036000	0.001649	-0.000235	-0.000026	0.000574	7200.382748	43569.055186	3949.919134	23382.371262
46.543500	-0.001278	0.000615	-0.001210	0.005439	7123.717579	43195.167814	3934.853780	23154.105469
47.037000	0.000808	0.000845	0.001977	0.003221	7165.891992	43422.756528	3948.304465	23257.851900
47.540500	-0.001186	0.000634	0.004593	0.005982	7119.326996	43146.678665	3947.942545	23128.790003
48.034500	0.002320	0.000546	0.003596	0.001257	7200.266341	43578.204116	3957.313464	23350.176627
48.535000	-0.003671	-0.000228	-0.001978	0.005617	7098.728069	43100.751895	3932.518509	23145.827101
49.035000	0.000903	0.000111	0.002691	0.000789	7190.851215	43581.265790	3956.210663	23372.215106
49.535500	0.000771	0.000871	0.002170	0.006246	7135.851258	43144.184238	3941.237868	23116.509348
50.036000	-0.000401	-0.000201	-0.004341	0.004464	7141.813919	43209.941656	3929.535362	23199.647989
50.538500	-0.064694	-0.014804	0.018515	0.251112	4967.358321	25009.539628	3499.179639	14400.272150
51.036500	-0.094281	-0.020773	-0.014665	0.039943	6046.281251	38334.959680	3822.563248	21606.617437
51.536500	-0.085192	-0.031303	-0.019157	-0.147429	7852.423371	56120.703633	4326.171807	31702.703839
52.036500	-0.058982	-0.157028	-0.005657	-0.343948	11178.258258	65535.000000	5237.454469	48189.383311
52.537500	-0.043386	-0.176009	0.013253	-0.362930	11865.222208	65535.000000	5454.126529	50213.099031
53.035000	-0.035325	-0.122067	0.023817	-0.308988	10965.271613	65535.000000	5207.619012	44685.855384
53.535500	-0.023384	-0.061271	0.019451	-0.242221	10007.440251	64680.506245	4853.062299	38730.165412
54.035000	-0.011246	-0.029907	0.019016	-0.194097	9441.357587	62343.505991	4642.307008	34971.057031
54.535500	0.006011	-0.017503	0.025798	-0.173872	9396.745757	61283.398772	4588.009218	33511.410030
55.036000	0.029947	-0.003642	0.039617	-0.150947	9411.905604	60078.418546	4552.172112	31936.989247
55.542000	0.054416	0.013591	0.048732	-0.108968	9154.136423	56914.158485	4428.902087	29260.904669
56.037000	0.069979	0.024223	0.066911	-0.080989	8977.563560	54801.111194	4393.915926	27615.707234
56.542500	0.080326	0.036701	0.078048	-0.024673	8366.024527	49822.362073	4242.444823	24608.863408
57.038000	0.101202	0.046638	0.095495	-0.004812	8378.833174	48763.370413	4234.784610	23638.066045
57.535000	0.119780	0.059133	0.113137	0.031882	8154.536243	46280.216923	4175.813419	21957.198913
58.035500	0.134949	0.067810	0.130962	0.061127	7986.608624	44275.932225	4141.684143	20715.643349
58.536000	0.140380	0.073565	0.139510	0.081422	7815.083823	42915.108111	4107.501676	19901.874952
59.036000	0.143684	0.081069	0.158898	0.113509	7499.182387	40715.618946	4071.577933	18690.442941
59.536000	0.147118	0.083816	0.165762	0.126575	7398.053266	39828.787398	4054.409315	18222.199016
60.037500	0.153743	0.088341	0.167610	0.126222	7471.100055	40245.374705	4060.475981	18234.691921
60.537000	0.159781	0.090998	0.163909	0.124342	7555.397199	40637.032902	4055.452831	18301.222088
61.037500	0.170309	0.095664	0.171071	0.125160	7660.921053	40972.503225	4073.034149	18272.253390
61.545500	0.175119	0.097966	0.179444	0.134634	7609.936324	40349.637722	4069.963109	17940.349070
62.040500	0.182126	0.101035	0.183028	0.136307	7668.288298	40470.122133	4075.297295	17882.514729
62.535000	0.181730	0.103517	0.182776	0.145856	7560.082207	39864.494356	4048.197278	17556.505637
63.035000	0.193887	0.105584	0.189824	0.145102	7701.037110	40105.025900	4069.718553	17581.979928
63.541000	0.192451	0.107437	0.186315	0.154244	7585.233778	39486.568802	4035.011738	17275.971235
64.036000	0.200088	0.109813	0.192279	0.155278	7657.192494	39599.689261	4048.415842	17241.765620
64.542000	0.201602	0.111364	0.199232	0.164005	7578.649014	38999.058579	4043.574521	16956.285003
65.036500	0.208059	0.114216	0.205040	0.166553	7621.049223	39024.293496	4052.485917	16874.014425
65.536500	0.207679	0.115508	0.204136	0.175784	7517.475471	38370.756544	4024.999349	16579.956946
66.040000	0.212895	0.116612	0.210025	0.175864	7572.531260	38454.337338	4040.673949	16577.427737
66.535000	0.212991	0.118427	0.209192	0.186611	7459.069987	37731.597301	4009.632857	16242.949322
67.035000	0.221812	0.121172	0.221736	0.186317	7555.994152	37975.829305	4044.097664	16251.962682
67.534500	0.221681	0.122734	0.217012	0.196412	7447.388841	37294.304554	4004.400629	15944.997246
68.035500	0.226651	0.123786	0.225142	0.195173	7513.028414	37475.991382	4029.341935	15982.292018
68.536000	0.227256	0.125348	0.226396	0.206184	7403.552377	36732.903091	4003.380919	15654.588036
69.036500	0.231669	0.127458	0.227946	0.206023	7451.352980	36909.944426	4007.890755	15659.306603
69.536500	0.234634	0.129624	0.228510	0.216341	7374.756390	36278.446170	3982.415701	15359.557929
70.036500	0.239779	0.131155	0.237934	0.214959	7442.680166	36502.784665	4010.674118	15399.301599
70.539000	0.238803	0.132690	0.238699	0.225400	7324.530673	35821.686535	3985.340166	15102.201708
71.037500	0.244539	0.134399	0.241618	0.225349	7384.023983	35955.102258	3993.054172	15103.612456
71.535000	0.246046	0.136438	0.241764	0.235671	7293.716450	35331.539355	3966.833280	14816.813011
72.035500	0.249780	0.137177	0.243606	0.235401	7334.515627	35406.883128	3972.227956	14824.236522
72.535500	0.248477	0.138616	0.248398	0.246068	7213.651783	34724.446066	3957.291447	14534.724405
73.035500	0.255471	0.139843	0.255604	0.245225	7292.401987	34876.195447	3977.801963	14557.324402
73.536000	0.253067	0.141442	0.256719	0.252693	7193.432905	34447.715556	3961.582719	14358.461339
74.036500	0.260311	0.144272	0.255236	0.254869	7243.955567	34495.164713	3952.346671	14301.142522
74.536500	0.257701	0.145598	0.260831	0.261013	7157.053610	34147.130572	3950.968210	14140.885061
75.037000	0.266363	0.148134	0.268492	0.264385	7209.368712	34087.159108	3961.788802	14053.884970
75.537500	0.264023	0.148625	0.263029	0.272192	7109.582069	33566.872661	3928.655188	13855.003347
76.037500	0.271421	0.150212	0.265155	0.273221	7171.940723	33606.330984	3931.357784	13829.078329
76.535000	0.268618	0.151523	0.265296	0.280989	7068.948063	33153.858629	3912.720694	13635.191595
77.035500	0.274504	0.151971	0.269330	0.280783	7127.991114	33199.334133	3923.037749	13640.275913
77.535000	0.272438	0.152223	0.268788	0.287882	7039.476021	32726.151888	3904.514339	13466.017152
78.036000	0.279748	0.156037	0.276157	0.289384	7095.353472	32885.068289	3918.709141	13429.510730
78.536500	0.280395	0.156170	0.277021	0.292537	7071.149358	32677.604219	3913.146545	13353.274629
79.036000	0.283694	0.157390	0.276585	0.296660	7063.223650	32479.534186	3902.158187	13254.432001
79.537000	0.282813	0.158506	0.277540	0.303633	6988.409371	32083.942288	3887.827018	13089.378725
80.039500	0.284382	0.160217	0.285703	0.304541	6994.648868	32137.839605	3905.128630	13068.078813
80.537000	0.289343	0.161888	0.285193	0.309058	6998.850464	31947.155734	3893.110268	12962.786990
81.037500	0.290549	0.162225	0.284543	0.312498	6977.767779	31740.731088	3883.434012	12883.341703
81.535000	0.288671	0.162739	0.280760	0.319817	6892.089966	31293.128092	3857.625752	12716.377796
82.035000	0.290807	0.163241	0.286319	0.319583	6913.988780	31341.185841	3871.008442	12721.661731
82.535500	0.291973	0.164153	0.286944	0.322722	6895.749304	31195.898664	3865.177174	12650.865015
83.036000	0.292637	0.165162	0.288511	0.327353	6859.313980	30961.342445	3858.117343	12547.369427
83.536500	0.292702	0.165830	0.289333	0.334284	6797.038134	30560.214111	3844.188442	12394.499045
84.036500	0.291469	0.167133	0.295037	0.334433	6784.615367	30633.689481	3856.846175	12391.227534
84.539500	0.294558	0.168983	0.301773	0.338777	6773.374796	30475.096483	3862.345802	12296.679912
85.037000	0.296297	0.169552	0.293744	0.341761	6762.255967	30322.504188	3837.269402	12232.286914
85.537000	0.294262	0.169220	0.297837	0.347817	6690.760109	29922.785319	3832.865586	12102.939401
86.037500	0.297795	0.170774	0.298436	0.348560	6715.267541	29973.217982	3832.544463	12087.208407
86.535000	0.294204	0.171020	0.296279	0.356069	6618.711173	29524.960892	3811.153996	11929.579750
87.035000	0.295780	0.170039	0.305015	0.353533	6654.193259	29620.309868	3836.142795	11982.516360
87.536000	0.295131	0.170303	0.299627	0.358484	6605.952725	29334.025011	3813.198734	11879.463288
88.036000	0.297358	0.171779	0.307306	0.360157	6610.697616	29322.027213	3826.461048	11844.908709
88.536500	0.295676	0.171851	0.302907	0.367354	6535.375369	28892.875980	3801.018012	11697.761556
89.039500	0.296601	0.173148	0.307088	0.366026	6554.342335	29050.177946	3813.020364	11724.732662
89.537000	0.296891	0.171428	0.305900	0.369059	6531.265228	28766.027638	3803.810240	11663.256972
90.037500	0.297481	0.174035	0.306138	0.371164	6518.583512	28795.926925	3799.765177	11620.856009
90.537500	0.293671	0.173282	0.304007	0.378260	6428.560126	28332.920822	3780.027025	11479.382364
91.038000	0.300516	0.173942	0.308361	0.375971	6503.799366	28505.905206	3794.194697	11524.772620
91.535000	0.300307	0.174509	0.308085	0.378076	6484.589113	28415.560557	3789.092519	11483.027447
92.038500	0.298917	0.176171	0.316470	0.381372	6445.997654	28319.883069	3800.033247	11418.062223
92.535500	0.296676	0.175208	0.313973	0.387095	6381.366705	27932.258587	3782.423750	11306.455003
93.036500	0.300627	0.176435	0.315028	0.385316	6427.752990	28105.798865	3788.456367	11340.989610
93.536500	0.302127	0.175669	0.315630	0.386836	6427.587471	27973.707041	3786.497819	11311.471850
94.036500	0.299790	0.177048	0.317865	0.388827	6392.492055	27938.499836	3787.018483	11272.958029
94.537000	0.300216	0.177174	0.311932	0.395074	6345.849686	27588.728653	3761.404291	11153.278130
95.037500	0.301586	0.178412	0.316267	0.392277	6379.183790	27818.744008	3776.316373	11206.653707
95.534500	0.302994	0.178956	0.321777	0.394634	6371.564957	27715.139882	3782.987397	11161.648242
96.035000	0.300508	0.179210	0.312745	0.396273	6338.637584	27636.241897	3760.603231	11130.495120
96.535000	0.299316	0.177462	0.318945	0.400955	6292.296952	27273.425509	3763.753901	11042.160139
97.035500	0.301099	0.178669	0.316167	0.398846	6322.929797	27459.890618	3762.363804	11081.833750
97.536000	0.302107	0.179296	0.316001	0.399898	6322.575884	27435.840165	3759.837098	11062.003609
98.039000	0.301956	0.178052	0.327396	0.400463	6316.928004	27334.129784	3782.541406	11051.395495
98.539000	0.303572	0.180922	0.323744	0.403372	6306.733360	27331.905037	3768.718749	10996.911416
99.037000	0.302536	0.179991	0.317760	0.404501	6289.733592	27216.517330	3753.969165	10975.869565
99.537000	0.302825	0.178672	0.322211	0.404513	6291.902277	27142.251855	3763.146307	10975.646546
100.037500	0.304538	0.180355	0.323187	0.406076	6293.082348	27148.945489	3761.928106	10946.617808
100.535000	0.303515	0.180616	0.319811	0.407714	6272.286232	27072.315244	3751.584679	10916.284052
101.038000	0.304386	0.181033	0.326211	0.408541	6272.630164	27049.562066	3763.088985	10901.023910
101.535000	0.304269	0.181130	0.328723	0.410360	6257.580301	26954.144645	3764.529503	10867.541975
102.039000	0.304237	0.181619	0.332551	0.410855	6253.501929	26953.848067	3771.492558	10858.470859
102.536000	0.301825	0.180855	0.326582	0.415951	6195.826900	26632.076511	3748.581857	10765.523917
103.042500	0.305965	0.181235	0.326607	0.412453	6254.502846	26844.547068	3755.813448	10829.209479
103.537000	0.303198	0.182031	0.324625	0.414810	6215.024949	26758.762125	3746.914514	10786.239451
104.037000	0.307670	0.183705	0.328611	0.416449	6236.793127	26760.699908	3751.718120	10756.507188
