sample name	sample
index	237
start time	 02-22-2021  11:18:18 AM
880	0.454628
Peak Time (s)	92.037
Peak Height 	0.4546
calc peak height	90,93
Baseline Time (s)	10.537
Baseline Value 	-0.001486
subtract baseline	10,4
Abs	0.328529
Peak Time (s)	92.538
Peak Height 	0.3285
calc peak height	90,93
Baseline Time (s)	10.037
Baseline Value 	0.002191
subtract baseline	10,3
PK_550	0.158967
Peak Time (s)	91.036
Peak Height 	0.159
calc peak height	90,93
Baseline Time (s)	11.534
Baseline Value 	2.0988E-4
subtract baseline	10,2
PK_880	0.308219
Peak Time (s)	91.036
Peak Height 	0.3082
calc peak height	90,93
Baseline Time (s)	9.036
Baseline Value 	2.9146E-4
subtract baseline	10,1


Time (s)	A880-A510	A880-A775	A880-A975	A880	I510	I775	I975	I880	
0.036000	-0.003093	-0.000814	-0.002611	0.005543	6832.114281	46344.663535	3974.150217	24456.656576
0.536500	-0.002102	-0.000169	-0.001508	0.003884	6856.280301	46575.826109	3981.305551	24539.290706
1.037000	-0.001838	0.000598	-0.003497	0.003874	6858.788620	46654.067308	3976.175193	24539.815403
1.537500	0.000111	-0.000878	0.001404	0.000146	6911.084156	46881.474435	3998.717520	24726.631355
2.034000	-0.003924	0.000047	-0.004034	0.006254	6818.123932	46359.697774	3968.657579	24421.366913
2.535000	-0.000308	-0.000210	0.000790	0.000391	6904.930383	46924.354162	3996.453703	24714.292188
3.035000	0.000208	0.000177	-0.000376	-0.000904	6921.730640	47095.232672	3996.791953	24779.532680
3.535500	0.002685	-0.000384	-0.001256	0.000044	6935.980729	46941.929996	3991.989174	24731.775957
4.035500	-0.003191	-0.000607	-0.000509	0.003926	6845.950426	46527.575457	3983.795660	24537.217249
4.536000	-0.000912	-0.000799	-0.004769	-0.000497	6907.562667	46954.757542	3984.219033	24759.036705
5.036000	-0.000203	0.000485	-0.000875	0.000579	6904.160352	46975.817294	3991.584805	24704.838273
5.537000	-0.000523	-0.000113	0.000356	0.000217	6904.555669	46951.899081	3995.769094	24723.071944
6.036500	0.000333	-0.000549	-0.000202	-0.000314	6917.407400	46961.507792	3995.697260	24749.785799
6.536500	-0.000331	0.000350	-0.001760	0.000360	6905.004792	46984.295322	3989.838950	24715.863332
7.037500	0.000817	-0.000175	-0.000920	-0.000455	6923.224307	47013.865877	3994.182139	24756.934699
7.535000	0.000009	-0.001010	0.000094	-0.001157	6922.234507	47000.272689	3998.697982	24792.319474
8.035500	-0.000661	0.000278	-0.004463	-0.000076	6905.991083	47021.361207	3983.921286	24737.830254
8.535000	0.001826	0.000320	0.000507	0.000123	6927.238101	47005.336745	3996.414627	24727.801700
9.036000	0.000000	-0.000414	0.000143	-0.000207	6913.334167	46964.343146	3996.324995	24744.432949
9.536500	-0.000199	-0.001429	0.003242	-0.001456	6923.086655	46988.128790	4007.830799	24807.432102
10.036500	-0.000659	0.000216	0.000000	0.000089	6904.474935	46998.268933	3995.168625	24729.495001
10.536500	0.000597	-0.000125	-0.000453	0.000000	6916.951014	46972.636840	3994.213021	24733.991664
11.037000	0.000865	0.000144	-0.001816	0.000102	6918.491866	46989.560502	3990.368032	24728.842793
11.534000	-0.001126	0.000000	-0.000194	-0.000370	6904.405813	47022.987158	3995.867299	24752.649231
12.035000	-0.001897	-0.000351	-0.003900	0.004677	6850.906786	46477.947879	3973.061928	24499.788918
12.535500	0.001974	0.000433	-0.002855	0.000454	6925.534646	46983.224769	3986.730866	24711.152525
13.035500	0.000659	0.000470	0.003046	-0.002017	6936.295560	47238.490531	4008.800090	24835.762187
13.535500	-0.000327	-0.000253	0.002189	-0.000322	6911.367019	46992.336969	4002.029587	24750.216371
14.035500	-0.003998	-0.000943	-0.006638	0.004709	6831.465252	46415.282073	3965.936805	24498.164593
14.536500	-0.002270	-0.000014	-0.001030	0.002786	6864.793921	46701.958815	3985.408005	24594.148058
15.036500	-0.002238	-0.000801	0.005407	-0.000063	6891.294045	46910.519932	4009.884850	24737.176267
15.541000	-0.000033	0.000083	-0.000547	-0.000409	6914.900218	47035.368656	3995.041210	24754.600684
16.037000	-0.004916	0.000293	-0.006913	0.004932	6821.111315	46516.946475	3964.662332	24487.066349
16.538000	0.000004	0.000690	-0.001076	0.000481	6906.986515	47006.544005	3991.313654	24709.769388
17.035000	-0.000902	-0.000309	-0.002090	-0.000624	6908.825300	47017.344448	3991.552805	24765.410424
17.534500	0.003168	0.000583	0.002862	-0.002686	6966.067709	47318.447020	4010.091759	24869.644074
18.035500	-0.003019	0.000207	-0.000586	0.002737	6858.390190	46729.317733	3986.695406	24596.626730
18.536000	0.000165	-0.000159	-0.003753	0.001419	6899.799760	46825.467234	3981.878580	24662.684540
19.036000	-0.001576	-0.000061	-0.003564	0.001163	6886.095930	46861.259776	3983.034192	24675.517779
19.536500	0.000297	0.000090	0.000411	0.001647	6898.911148	46827.525665	3992.156560	24651.216605
20.037000	-0.001636	-0.000339	-0.003279	0.002961	6869.006090	46651.655737	3979.106113	24585.434811
20.536500	-0.000732	-0.001320	-0.000414	0.000601	6899.068712	46790.752110	3992.736285	24703.734101
21.037500	0.000829	-0.001105	-0.002285	0.001040	6909.460643	46768.171656	3986.691051	24681.707048
21.537500	0.000280	-0.000008	0.002312	0.001740	6897.894520	46808.204732	3996.907802	24646.544543
22.035000	-0.001369	-0.000589	-0.000297	0.002540	6875.330372	46668.903719	3987.965748	24606.494016
22.538000	0.000483	0.000519	0.002442	0.001662	6900.496172	46869.503170	3997.459572	24650.487089
23.036000	-0.001929	0.000627	0.002577	0.001911	6875.954500	46855.147342	3997.155887	24637.965909
23.536500	0.001676	-0.000758	-0.004100	0.001074	6916.999929	46799.725331	3981.871678	24679.976391
24.036500	-0.002229	-0.000732	0.001114	0.000398	6887.124169	46870.819854	3997.289397	24713.960913
24.536500	-0.001900	-0.000506	0.001948	0.000835	6886.128293	46849.391710	3998.335167	24691.986591
25.036500	0.001361	0.000443	0.003521	0.001651	6908.725742	46862.886863	4000.332878	24651.024900
25.537500	-0.001190	-0.000055	-0.001028	0.001001	6891.141274	46878.299272	3990.078996	24683.645563
26.034500	-0.002674	0.000252	-0.002916	0.001350	6874.272586	46874.081297	3984.237521	24666.147664
26.535000	-0.001032	-0.000019	-0.002912	0.001063	6892.028996	46875.573032	3984.992826	24680.511285
27.035500	-0.000969	-0.000404	-0.001184	0.000971	6893.457839	46845.980760	3989.747665	24685.149688
27.535000	-0.000497	0.000180	0.002316	-0.000774	6913.972376	47082.303686	4003.560338	24772.973390
28.036000	0.000500	-0.000305	0.002459	-0.002779	6941.931631	47237.209663	4009.267633	24874.361679
28.536000	-0.000054	0.000070	0.005342	-0.000947	6919.702917	47088.688784	4012.068657	24781.725077
29.036500	-0.000575	0.000005	0.001091	-0.000718	6912.736671	47058.817878	4000.172841	24770.179170
29.537000	0.000770	-0.000536	0.002418	-0.000810	6926.090639	47013.219144	4003.927061	24774.801748
30.036000	-0.001736	-0.000426	-0.000329	0.001525	6881.282262	46787.730317	3990.536263	24657.344507
30.534000	-0.000540	-0.000156	0.003676	-0.000765	6913.497808	47047.280064	4007.147619	24772.561164
31.061500	-0.000728	-0.000182	0.002730	-0.000423	6908.582260	47009.822476	4003.727588	24755.295694
31.537500	-0.001584	-0.000800	-0.000028	0.002169	6876.756992	46684.917542	3989.636843	24625.046519
32.035000	-0.002000	0.000188	0.000878	0.000812	6885.421307	46922.060713	3995.576747	24693.155438
32.550000	0.002474	0.000150	-0.001360	-0.000130	6935.636254	47013.847933	3992.173017	24740.549870
33.036000	0.002092	-0.000228	0.000658	-0.000777	6938.100055	47041.141702	3999.183049	24773.135735
33.536000	0.002425	0.000365	-0.001037	-0.000214	6935.960620	47044.142694	3993.239978	24744.763323
34.036500	-0.003226	-0.001083	-0.001913	0.003053	6853.603499	46567.426067	3982.412396	24580.815151
34.537000	0.000397	-0.000329	-0.000763	-0.001974	6933.455315	47152.671513	3998.594596	24833.605465
35.037500	-0.000756	-0.000496	-0.001093	0.001248	6892.863850	46808.650835	3989.260430	24671.235777
35.535000	-0.000726	0.000251	0.001119	0.001945	6886.722874	46813.750230	3993.233970	24636.289633
36.037500	0.000683	0.000162	0.000785	0.001985	6899.347870	46800.609975	3992.251236	24634.260665
36.535500	-0.001126	-0.000062	-0.000793	0.001783	6884.520789	46798.401872	3988.645020	24644.388211
37.035500	-0.003497	-0.000789	-0.001156	0.001168	6868.380875	46787.118209	3989.306941	24675.268440
37.536000	-0.001524	-0.000236	-0.000671	0.001760	6881.070448	46783.227941	3989.026839	24645.570379
38.036000	-0.000897	-0.000474	0.000724	0.001370	6890.438982	46798.542809	3993.704526	24665.095595
38.536500	-0.001064	0.000611	-0.003513	0.002096	6882.205509	46834.794803	3980.742127	24628.690785
39.036500	-0.002883	0.000525	0.001721	0.002379	6862.908543	46797.580986	3993.673868	24614.540193
39.536500	-0.003860	-0.001541	-0.001116	0.000731	6869.054757	46755.245764	3990.554596	24697.200740
40.034500	-0.000151	0.000331	-0.002446	0.003317	6879.377764	46683.212452	3980.341442	24567.603224
40.537500	-0.000159	-0.000241	0.001946	0.001996	6891.474732	46758.816987	3995.272235	24633.729742
41.035000	-0.002443	0.000205	-0.000556	0.002033	6870.118768	46800.167003	3988.611212	24631.864893
41.535500	-0.000150	-0.000418	-0.000531	0.001839	6893.008074	46756.885064	3989.187478	24641.617362
42.038500	-0.001672	-0.000268	0.001919	0.002695	6871.124082	46685.600073	3993.364623	24598.736977
42.536000	-0.001130	0.000534	0.005236	0.002547	6877.451576	46781.447905	4002.500142	24606.113891
43.036000	-0.000439	-0.000382	0.002320	0.001906	6889.724536	46753.628930	3996.492760	24638.225291
43.536500	0.000062	-0.000294	0.001391	0.002133	6892.249012	46739.655997	3993.453273	24626.864321
44.036500	-0.001086	-0.000090	0.002631	0.003541	6868.729501	46618.226426	3993.012705	24556.424511
44.537000	0.000889	-0.000379	-0.001337	-0.000235	6921.852580	46970.739707	3992.509012	24745.844995
45.037000	0.000798	-0.000115	0.000074	-0.003006	6946.850687	47279.913955	4003.537117	24885.896038
45.537500	-0.001756	0.000088	0.001467	-0.000036	6895.492084	46997.973508	3999.365463	24735.808382
46.035000	-0.003176	-0.000862	-0.006542	0.004257	6843.066208	46468.769121	3967.344185	24520.709996
46.535500	-0.000321	-0.000031	0.004346	-0.000132	6909.656894	46995.611028	4007.245514	24740.632532
47.035500	-0.000405	0.000313	0.003952	0.000085	6906.876680	47008.566401	4005.622428	24729.731944
47.539000	0.000410	0.000678	-0.000897	0.000260	6912.803817	47027.819639	3992.363556	24720.918200
48.067500	-0.002140	-0.000777	0.000181	0.005352	6842.531954	46367.556351	3981.882264	24466.183200
48.536500	-0.002307	0.000092	0.002196	0.002810	6864.233579	46710.292462	3993.788753	24592.966883
49.037000	-0.000453	0.000073	-0.002338	0.002160	6887.250952	46774.039862	3983.631424	24625.519174
49.539500	-0.000139	-0.000886	0.001008	-0.000570	6915.416981	46953.375947	3999.562905	24762.732891
50.037500	-0.002230	0.000026	-0.005062	0.005154	6843.512070	46467.833976	3968.841129	24476.028413
50.535000	-0.001043	-0.000287	0.005552	-0.000290	6904.440300	46985.744722	4010.878256	24748.616562
51.035000	0.001538	0.000299	0.000991	-0.002324	6947.385633	47252.530738	4004.158844	24851.327918
51.536000	0.001338	-0.000369	-0.002920	-0.001275	6935.713429	47077.407429	3991.083075	24798.286504
52.036000	-0.003528	-0.000846	-0.001468	0.005539	6828.199748	46341.935354	3977.117355	24456.877097
52.535500	0.006296	-0.003326	0.012701	0.092502	6186.311622	38255.212446	3803.621509	20539.043593
53.036000	-0.013109	-0.015499	0.012743	0.101498	5977.260411	36572.966309	3784.219645	20176.763853
53.536500	-0.023277	-0.026935	0.007889	-0.054811	7214.721624	49908.161352	4172.855973	27675.453046
54.037000	-0.006464	-0.047522	0.012361	-0.176744	8844.870048	62265.010859	4618.812295	35716.851213
54.537000	0.003358	-0.022797	0.021042	-0.104461	8046.343640	56106.831738	4378.234319	30680.150316
55.037500	0.010919	-0.012273	0.026125	-0.064126	7671.106556	52576.773376	4259.311632	28213.348005
55.535000	0.022115	-0.004584	0.030502	-0.033960	7466.497016	50070.863083	4178.223140	26512.522466
56.035000	0.029182	0.001162	0.036327	0.000223	7189.131010	47080.861207	4094.446564	24722.783020
56.535500	0.041377	0.006191	0.047756	0.025619	7060.229695	45056.457925	4055.152158	23481.383423
57.036000	0.061294	0.012268	0.062201	0.028258	7229.730923	45391.519701	4088.282915	23356.464170
57.536500	0.079020	0.020624	0.083104	0.066753	7026.796922	42542.351241	4039.239078	21618.493724
58.036500	0.107737	0.035126	0.113313	0.121558	6785.257529	39028.531466	3973.915352	19395.384981
58.536500	0.130736	0.047901	0.143309	0.179865	6480.630656	35432.060842	3903.168567	17318.852285
59.037000	0.152550	0.059743	0.164528	0.224590	6295.808855	33059.439542	3847.831547	15904.622967
59.534500	0.175668	0.074331	0.187494	0.262375	6182.508160	31490.521545	3814.455029	14818.258326
60.035000	0.199714	0.089340	0.208981	0.305450	6041.093067	29700.944163	3767.822789	13689.760833
60.534500	0.219042	0.103126	0.226604	0.334989	5967.722702	28745.984293	3743.058113	12978.098931
61.035500	0.230484	0.114053	0.247029	0.351199	5934.056869	28433.493285	3751.741031	12607.672273
61.536000	0.244720	0.124173	0.263781	0.368249	5914.358461	28029.194696	3751.123367	12232.667704
62.036500	0.252496	0.135727	0.267552	0.377208	5906.115303	28179.815242	3740.458232	12041.440340
62.536500	0.261176	0.138726	0.270432	0.373388	5994.362800	28579.971278	3754.257461	12122.500682
63.036000	0.270044	0.146247	0.289180	0.389870	5940.308471	28055.401616	3758.973672	11777.820788
63.537000	0.277805	0.153104	0.282004	0.378658	6076.786820	29124.290362	3767.432622	12010.860132
64.034500	0.277485	0.153873	0.288886	0.366916	6161.874054	29890.883357	3807.504952	12261.448096
64.540500	0.278623	0.155299	0.286133	0.370182	6145.848323	29776.757513	3794.366078	12191.060664
65.065500	0.283841	0.155854	0.293395	0.371356	6176.365108	29738.475322	3807.655297	12165.890428
65.535500	0.284799	0.159677	0.297690	0.377983	6133.667905	29565.763364	3802.544030	12025.081021
66.035000	0.285983	0.159749	0.292142	0.388425	6065.129983	28936.442558	3768.213938	11807.523722
66.536000	0.290148	0.159732	0.301687	0.386432	6110.561351	29055.237132	3792.859443	11848.644664
67.036500	0.292772	0.161844	0.297951	0.392298	6086.558675	28830.054001	3772.304893	11728.140436
67.536500	0.292366	0.162564	0.297994	0.396578	6052.188427	28618.300435	3763.375388	11641.230882
68.037000	0.291676	0.162107	0.295699	0.404805	5987.801457	28109.023010	3741.581378	11476.582340
68.536500	0.295059	0.163751	0.305037	0.402230	6030.670651	28355.188932	3766.298200	11527.780381
69.037000	0.298114	0.164365	0.307118	0.404895	6033.506399	28235.225607	3765.070308	11474.807010
69.537000	0.298053	0.164862	0.306052	0.406878	6018.712076	28148.657498	3758.687270	11435.583317
70.035000	0.293235	0.165501	0.308087	0.413116	5939.918836	27825.197497	3749.964829	11313.392982
70.535500	0.298033	0.166471	0.312333	0.408474	6007.072384	28149.452035	3768.514232	11404.160732
71.035500	0.300814	0.167283	0.306030	0.409982	6016.240171	28108.967748	3752.191912	11374.558507
71.536000	0.300327	0.167129	0.310325	0.409495	6016.237849	28128.364836	3762.148322	11384.111994
72.036000	0.300686	0.166711	0.303547	0.415344	5976.890934	27766.795551	3736.092492	11270.170576
72.536500	0.300722	0.166231	0.308864	0.409598	6018.349863	28070.243977	3758.880735	11382.096804
73.036500	0.300717	0.167603	0.308750	0.410835	6009.400312	28078.091403	3756.067472	11357.878377
73.536500	0.301920	0.167452	0.313243	0.410589	6019.839824	28083.603632	3765.975201	11362.683578
74.037500	0.296700	0.166654	0.307372	0.416280	5942.035297	27709.992219	3741.985747	11252.072115
74.535000	0.303127	0.168738	0.313071	0.412468	6014.996560	28049.213541	3761.674392	11326.007952
75.035000	0.304693	0.166477	0.311561	0.411415	6033.932646	27979.356160	3760.717496	11346.540236
75.535500	0.303722	0.167005	0.316756	0.412177	6021.387939	27965.837716	3770.032521	11331.671592
76.036000	0.304286	0.168347	0.312544	0.413542	6015.602950	27964.519365	3758.330773	11305.112987
76.536000	0.304396	0.167013	0.313551	0.413686	6015.361442	27879.306852	3760.132142	11302.317201
77.035500	0.305962	0.168444	0.313494	0.415266	6015.259166	27870.767575	3756.717136	11271.683270
77.536500	0.307030	0.167885	0.312659	0.415728	6019.628504	27812.064254	3754.020858	11262.739909
78.037500	0.304657	0.167479	0.314905	0.416164	5999.418619	27763.841050	3757.786800	11254.329998
78.540000	0.305663	0.168012	0.317709	0.417532	5996.823638	27716.075503	3760.784061	11227.949014
79.035000	0.307495	0.168164	0.319658	0.419413	5996.472146	27617.490225	3760.926660	11191.817820
79.538000	0.306944	0.166565	0.317067	0.422599	5969.801315	27346.543674	3748.925599	11130.955295
80.035500	0.301913	0.165188	0.319149	0.424569	5920.453389	27158.883207	3749.157520	11093.568231
80.535500	0.305887	0.165920	0.317496	0.421416	5970.694324	27376.860462	3752.256670	11153.494650
81.036000	0.304795	0.164276	0.312917	0.421723	5960.770685	27267.123431	3742.196874	11147.653984
81.536000	0.307698	0.165386	0.321062	0.423716	5967.223578	27217.657298	3754.884954	11109.740932
82.036500	0.304163	0.164332	0.318167	0.428685	5907.431939	26882.621762	3738.696747	11015.956333
82.536500	0.304967	0.164678	0.317052	0.425890	5932.597492	27056.780740	3742.131048	11068.576677
83.037000	0.304249	0.163477	0.323386	0.426222	5925.230395	26971.615669	3754.506286	11062.304745
83.537500	0.304994	0.164337	0.319567	0.432904	5883.941135	26651.001036	3732.966386	10937.180704
84.035000	0.309011	0.163070	0.315821	0.429717	5934.112503	26756.230949	3731.831947	10996.610036
84.535500	0.308813	0.163645	0.318443	0.431124	5922.864818	26710.596820	3734.295926	10970.323177
85.035000	0.306061	0.162429	0.322810	0.432214	5896.098826	26584.460763	3740.971976	10950.006121
85.536000	0.303764	0.163175	0.315395	0.438549	5836.824840	26281.549829	3713.295092	10832.964834
86.035500	0.304164	0.160859	0.321759	0.439771	5831.235114	26091.768125	3723.543104	10810.574077
86.536500	0.306062	0.159800	0.320824	0.434356	5881.287358	26325.653185	3732.571709	10910.243654
87.037000	0.305682	0.159735	0.318943	0.436216	5865.863126	26221.970763	3725.025312	10875.862938
87.537500	0.303277	0.159563	0.319008	0.441901	5810.834315	25909.510407	3713.811557	10771.708252
88.037000	0.304028	0.160721	0.323522	0.445727	5790.180692	25768.570130	3715.176644	10702.381459
88.535000	0.307613	0.160158	0.321481	0.440834	5847.476562	25997.806567	3720.858393	10791.164975
89.035000	0.307960	0.159115	0.318221	0.441422	5845.827801	25911.140716	3713.201329	10780.428778
89.535500	0.305253	0.159250	0.318046	0.448160	5782.111749	25563.860334	3699.615861	10658.606898
90.035500	0.302491	0.156731	0.317602	0.448636	5760.579743	25408.074419	3697.822513	10650.072570
90.535500	0.306909	0.158073	0.322895	0.445047	5814.106686	25665.145083	3715.280546	10714.652582
91.036000	0.308219	0.158967	0.323854	0.446861	5810.708916	25616.935942	3713.586608	10681.946906
91.537000	0.305806	0.157958	0.327294	0.453669	5749.227904	25211.655699	3706.936395	10560.398850
92.036500	0.305443	0.156848	0.321144	0.454628	5740.513884	25105.525029	3693.069258	10543.417316
92.537500	0.307676	0.157817	0.328529	0.450607	5781.951369	25362.243359	3715.429083	10614.834499
93.034500	0.310563	0.157815	0.328801	0.452163	5790.842321	25281.764704	3712.882616	10587.119113
93.535000	0.308538	0.158284	0.326562	0.453285	5769.859293	25248.136649	3706.253146	10567.202728
94.035500	0.309448	0.158026	0.323014	0.454888	5765.258328	25152.602351	3696.190717	10538.835822
94.535500	0.309075	0.158903	0.322163	0.456276	5753.595413	25126.398195	3691.854361	10514.357081
95.035500	0.310592	0.157353	0.322951	0.456659	5761.100854	25027.685658	3692.635815	10507.611349
95.535500	0.308534	0.155609	0.328044	0.456561	5748.141511	24943.912930	3702.734910	10509.334490
96.061000	0.307794	0.156460	0.331269	0.458631	5729.671248	24882.152330	3704.998348	10473.000701
96.536000	0.310998	0.155782	0.329568	0.459047	5747.997140	24826.803910	3700.854047	10465.716226
97.033500	0.312018	0.156551	0.326643	0.460442	5745.528347	24795.210904	3692.460837	10441.347307
97.537000	0.312075	0.156525	0.324648	0.461897	5736.329235	24720.658757	3685.816408	10416.001459
98.063000	0.313897	0.157946	0.326898	0.463821	5735.663950	24695.436768	3686.444211	10382.646675
98.535500	0.312019	0.155283	0.325021	0.462763	5730.285494	24614.990945	3684.872060	10400.977419
