sample name	sample
index	1275
start time	 04-29-2021  02:24:27 PM
880	0.241507
Peak Time (s)	92.038
Peak Height 	0.2415
calc peak height	90,93
Baseline Time (s)	11.536
Baseline Value 	-0.004173
subtract baseline	10,4
Abs	0.141748
Peak Time (s)	92.535
Peak Height 	0.1417
calc peak height	90,93
Baseline Time (s)	8.54
Baseline Value 	0.002369
subtract baseline	10,3
PK_550	0.086868
Peak Time (s)	92.038
Peak Height 	0.08687
calc peak height	90,93
Baseline Time (s)	10.036
Baseline Value 	7.4355E-4
subtract baseline	10,2
PK_880	0.172336
Peak Time (s)	92.038
Peak Height 	0.1723
calc peak height	90,93
Baseline Time (s)	11.536
Baseline Value 	0.001086
subtract baseline	10,1


Time (s)	A880-A510	A880-A775	A880-A975	A880	I510	I775	I975	I880	
0.035000	0.000432	-0.000882	-0.005306	0.000633	6198.765665	43796.778392	3908.577512	22711.378971
0.535000	-0.000371	-0.001201	-0.002059	0.002771	6176.945905	43566.492716	3911.046052	22614.379112
1.043000	-0.000409	-0.000644	-0.004572	0.005119	6159.356940	43399.596449	3900.269647	22508.432524
1.537000	0.001174	-0.001097	-0.001251	0.000213	6207.427807	43816.050710	3918.580657	22730.501738
2.039000	0.001431	-0.000329	-0.005366	-0.000103	6211.703416	43918.028665	3910.080842	22744.860845
2.536500	0.000933	-0.000341	-0.002750	0.000037	6206.938663	43903.746262	3915.613227	22738.513500
3.036500	-0.001295	-0.000972	-0.006164	0.003678	6163.436349	43503.276289	3899.936888	22573.376691
3.537000	0.000047	-0.000625	-0.002274	0.000043	6200.285420	43876.392837	3916.665074	22738.218290
4.039500	0.000160	-0.000110	0.003235	0.000099	6200.715619	43919.590163	3928.969546	22735.666671
4.542500	-0.000927	-0.000174	0.001611	0.000070	6192.844013	43916.321908	3925.354241	22736.993076
5.035000	0.002078	-0.000103	-0.000883	0.000327	6213.326534	43898.868792	3919.151138	22725.307835
5.535500	-0.000968	-0.000237	-0.005421	0.000131	6192.086977	43904.672984	3909.438751	22734.221174
6.036000	-0.001112	-0.000795	-0.004060	-0.000628	6196.657901	43923.624042	3914.167597	22768.793083
6.538500	0.001800	-0.000290	-0.003810	0.000150	6212.570090	43897.812193	3912.987869	22733.341860
7.036000	0.000485	0.000414	0.001490	0.000444	6200.569123	43936.508076	3924.234984	22719.977425
7.537500	0.000941	0.000283	-0.000449	0.000201	6205.771685	43947.039902	3920.408260	22731.006761
8.038000	0.001276	-0.000132	-0.007700	0.000005	6209.736268	43926.389522	3904.656490	22739.933908
8.539500	0.000503	0.000092	0.000000	0.000115	6203.154519	43937.178778	3921.615720	22734.965010
9.040500	-0.002669	-0.000351	0.003191	-0.000592	6184.827837	43962.060170	3930.439137	22767.147883
9.537500	-0.001144	0.000581	0.004518	0.000155	6190.596027	43979.446635	3931.757556	22733.100641
10.035500	-0.000417	0.000000	-0.001171	0.001971	6182.527577	43753.932887	3914.816969	22650.626000
10.535500	0.000138	-0.000019	0.003565	-0.000199	6202.765526	43956.297671	3930.394656	22749.228097
11.036000	0.000601	-0.000071	-0.000017	-0.000728	6210.172644	44001.336447	3923.478629	22773.369819
11.536000	0.000000	0.000399	-0.000856	0.000000	6200.259382	43976.922307	3919.947172	22740.179488
12.036500	-0.000844	0.000124	0.000037	-0.000266	6195.963317	43976.127458	3922.557881	22752.315694
12.537000	-0.000152	-0.000618	-0.001059	-0.000710	6204.416362	43948.014030	3921.088359	22772.551599
13.037500	0.003759	0.000294	-0.000609	-0.002643	6248.287065	44217.175913	3926.471759	22860.929022
13.537000	-0.000496	-0.000090	0.001277	-0.001047	6204.365471	44029.616722	3927.125710	22787.905501
14.034500	-0.001925	-0.000319	-0.005928	0.002790	6165.339118	43647.229258	3902.416858	22613.530388
14.535500	0.000066	0.000254	-0.003037	0.001333	6190.842773	43837.747967	3912.072682	22679.574993
15.037500	0.000574	-0.000320	-0.000917	-0.000747	6210.111229	43979.558257	3921.489715	22774.212227
15.559500	0.004244	0.000379	0.001500	-0.001012	6239.639449	44070.729688	3927.553971	22786.332407
16.037500	-0.001894	-0.000084	-0.003376	0.003159	6162.855998	43634.771936	3907.253669	22596.846348
16.539500	0.002046	-0.000253	-0.001825	-0.001130	6223.995548	44022.160120	3920.308558	22791.729411
17.037000	0.001490	0.000328	0.001643	-0.001418	6221.989614	44104.294389	3928.799215	22804.874890
17.536000	0.002479	-0.000190	0.003390	-0.004117	6249.744614	44311.269380	3938.944288	22928.547178
18.037500	-0.000658	0.000104	-0.000027	0.001460	6184.528521	43811.760116	3918.528516	22673.818342
18.541000	-0.000949	-0.000192	0.002759	-0.000075	6193.750658	43928.269369	3928.282234	22743.572552
19.037000	0.000988	-0.000526	0.000922	-0.000224	6209.300931	43910.908044	3924.462413	22750.400014
19.535000	-0.001304	-0.000132	-0.004866	0.000102	6189.804158	43917.293949	3910.738098	22735.529110
20.035000	0.000733	-0.000545	-0.004381	-0.000198	6207.203394	43906.631641	3912.488687	22749.207498
20.535500	0.002526	0.000151	-0.003184	0.000530	6215.155140	43903.612979	3913.537315	22716.053469
21.036000	-0.001909	0.000669	0.003699	0.000316	6183.732403	43972.606242	3929.530628	22725.797759
21.536500	-0.001141	0.000433	-0.000975	0.000096	6191.057205	43971.049358	3919.460539	22735.786361
22.037000	0.002870	-0.000515	-0.000664	-0.000637	6226.473382	43950.768451	3921.811733	22769.195051
22.537000	-0.000250	0.000109	0.002067	0.000273	6196.368466	43923.921609	3925.927804	22727.761753
23.039000	0.001506	0.000544	0.003956	0.000476	6207.933058	43945.751142	3929.748968	22718.499024
23.535000	0.001191	-0.000044	-0.001840	0.000225	6207.462640	43913.998521	3917.229927	22729.932551
24.034500	-0.000223	0.000170	-0.002741	0.000657	6193.709501	43893.465604	3914.241978	22710.270529
24.535000	0.000275	-0.000083	0.000242	-0.000104	6203.079171	43941.326073	3922.654279	22744.916493
25.035000	0.000641	-0.000445	-0.002120	-0.000425	6208.206138	43937.434486	3918.060818	22759.547591
25.535000	0.001271	-0.000083	-0.006714	0.000009	6209.668184	43930.685994	3906.834962	22739.761336
26.037000	0.001253	-0.000880	0.000279	-0.000757	6215.258355	43927.713329	3924.212073	22774.670294
26.537000	-0.000091	0.000030	-0.000609	-0.000353	6202.212547	43975.403930	3921.296852	22756.255749
27.040000	-0.000446	-0.000385	0.000923	0.000227	6195.254948	43881.696964	3923.444752	22729.860689
27.537000	0.000424	-0.000208	-0.004363	-0.000355	6206.059637	43953.175810	3912.878699	22756.338228
28.037500	0.000797	-0.000530	0.002669	-0.003067	6229.165253	44179.277899	3934.891943	22880.366223
28.537000	0.002815	0.001517	-0.001258	-0.000513	6225.135747	44131.143117	3920.195033	22763.557761
29.044000	-0.001341	-0.000187	-0.001842	0.003519	6164.277083	43591.458979	3909.863552	22580.585363
29.535000	0.001202	-0.000674	0.005666	-0.002107	6224.993450	44074.716583	3939.554069	22836.374539
30.035000	0.000604	0.000004	-0.001297	-0.001175	6213.531875	44050.672208	3921.599711	22793.768185
30.535500	-0.000463	-0.000094	-0.001156	-0.001779	6210.068689	44098.472637	3923.277950	22821.344932
31.038500	-0.003105	-0.000353	-0.004916	0.003826	6149.061701	43547.252899	3902.363823	22566.716149
31.539500	-0.000525	-0.000299	0.000236	-0.000104	6197.121500	43920.933910	3922.639251	22744.907710
32.039000	-0.000325	-0.000120	-0.003841	0.000865	6191.405189	43846.504024	3911.321421	22700.803914
32.615500	0.000801	0.000002	-0.002441	-0.001453	6217.086961	44076.658961	3919.648668	22806.440643
33.154000	-0.000053	0.000223	0.003168	-0.000740	6205.378838	44030.274552	3930.723663	22773.914160
33.538500	0.000011	0.000502	0.000657	-0.000877	6206.878385	44069.593877	3925.338834	22780.163049
34.038500	0.004735	0.000398	-0.003055	-0.001251	6245.140191	44095.102392	3917.815212	22797.242620
34.535500	0.000817	0.001237	0.002560	-0.000439	6209.625890	44097.661052	3928.656995	22760.185540
35.035500	-0.001167	-0.000430	0.000063	0.004638	6157.323634	43464.261947	3911.613246	22530.080742
35.538500	-0.000382	0.000801	0.004674	0.000872	6190.936698	43932.658146	3930.481517	22700.495979
36.036000	0.000103	0.000504	0.001717	0.001818	6187.508345	43815.640533	3921.645241	22657.542258
36.537000	0.001696	0.000175	-0.002711	0.001022	6205.279675	43859.589933	3913.493661	22693.691621
37.038500	-0.001691	-0.000387	0.000749	0.000276	6185.649154	43876.905811	3922.941284	22727.626093
37.540000	-0.000148	0.000187	0.006080	0.000724	6193.774077	43888.722717	3934.024007	22707.241979
38.042500	0.000497	-0.000015	-0.001166	0.000398	6200.994925	43900.446330	3918.355123	22722.056450
38.535000	0.002376	-0.000062	0.004237	0.000406	6214.957507	43895.264427	3930.548978	22721.694792
39.050000	0.000881	-0.000278	-0.002746	0.000184	6205.456854	43895.794502	3915.290606	22731.813585
39.539000	-0.000577	0.000368	0.005083	0.000570	6191.733212	43920.322407	3932.100696	22714.245657
40.040000	0.000355	0.000257	-0.000828	0.000578	6198.601184	43909.099847	3918.710259	22713.888957
40.535500	-0.000673	-0.000138	-0.000030	0.000062	6194.787544	43920.465871	3921.665829	22737.343819
41.047500	0.000693	-0.000540	0.003144	0.000172	6204.140070	43872.304520	3928.596506	22732.361532
41.541000	0.000417	0.000613	0.009421	0.001165	6194.692729	43887.374337	3940.663703	22687.200611
42.221500	-0.000342	-0.000296	0.002338	0.000301	6195.473926	43883.068269	3926.476424	22726.465249
42.553500	0.000147	0.000438	0.001663	0.000777	6195.572298	43907.353832	3923.872996	22704.811318
43.037500	0.000027	-0.000203	0.000734	0.000650	6195.623633	43859.024261	3922.063054	22710.613085
43.537500	0.000868	0.000068	0.002521	0.000321	6204.334047	43915.509774	3926.846520	22725.576787
44.036000	0.001013	0.000883	0.001420	0.001168	6199.099864	43912.435082	3922.441052	22687.040495
44.536000	0.001932	0.000979	0.001517	0.001038	6206.924088	43933.753179	3922.954435	22692.962105
45.043000	-0.001281	0.000126	0.000204	0.000703	6185.520741	43884.941232	3920.748611	22708.179865
45.536000	0.001415	0.000182	-0.000868	-0.004159	6242.037340	44350.704795	3929.322893	22930.511379
46.041000	0.000380	-0.000184	-0.002244	0.002607	6183.720544	43677.065319	3910.999179	22621.806893
46.542000	0.001279	0.000113	-0.000634	-0.001009	6217.338599	44045.251442	3922.718968	22786.164976
47.038000	-0.001177	-0.000585	-0.002387	0.001123	6183.177447	43778.650765	3913.993222	22689.113380
47.534000	0.002112	0.000337	0.006328	-0.000932	6223.008367	44059.171164	3938.376819	22782.665757
48.035000	-0.000671	0.000166	-0.002963	0.003757	6167.459679	43602.163419	3906.841124	22569.832349
48.534500	0.000713	-0.000213	0.001471	-0.001328	6215.497146	44044.641952	3928.206201	22800.771771
49.035000	-0.000727	0.000140	-0.001948	0.000657	6189.969973	43890.607215	3916.018646	22710.266680
49.542500	-0.000446	0.000533	0.004697	0.001628	6184.847205	43836.184876	3928.815069	22666.164449
50.040000	0.000336	-0.000211	0.002779	0.003564	6176.306263	43584.912929	3920.103972	22578.515183
50.536500	0.003857	0.000482	0.001466	-0.000849	6235.487608	44064.935677	3927.104606	22778.861490
51.038500	-0.000376	-0.000185	0.002020	0.000778	6191.678023	43848.686382	3924.677671	22704.795401
51.537500	0.000939	0.000320	0.003246	-0.001002	6214.751226	44064.166043	3931.497146	22785.882788
52.034000	-0.000831	0.000287	0.006525	-0.000274	6196.111641	43992.190703	3937.321202	22752.646044
52.540000	0.003639	-0.000196	-0.004873	0.002363	6209.777920	43698.803463	3905.697906	22632.867780
53.038000	0.017794	-0.002217	0.018200	0.253834	4844.328015	25700.433312	3511.908912	13986.407232
53.536000	0.013748	-0.024179	0.002661	0.132872	5424.479291	31514.064756	3668.254765	17527.156813
54.036500	-0.003895	-0.026158	-0.004606	-0.093538	6941.653412	50811.393555	4144.356907	27493.485134
54.536000	-0.010385	-0.037084	-0.013792	-0.178743	7731.593915	59730.809908	4374.199860	32810.905753
55.036500	-0.006795	-0.025178	-0.010048	-0.171364	7690.197488	60325.283643	4362.268428	32308.017337
55.536000	0.003423	-0.010098	0.004455	-0.097667	7047.822047	53086.733992	4181.405691	27727.801642
56.048500	0.004472	-0.010217	0.002754	-0.054382	6669.589032	48322.351882	4059.533734	25378.512336
56.538000	0.000811	-0.009812	0.006461	-0.068924	6763.536041	49909.546720	4107.454493	26141.801110
57.039000	0.007778	-0.002635	0.006533	-0.071746	6850.102070	51002.283678	4115.242811	26292.918304
57.537000	0.010678	-0.001173	0.006966	-0.085680	7003.590365	52734.771899	4154.673292	27053.583353
58.035000	0.017410	0.002407	0.015712	-0.090309	7110.593904	53683.867572	4192.576842	27311.749559
58.535500	0.022092	0.008468	0.022554	-0.064662	6915.288469	51448.618330	4139.614996	25915.417405
59.036000	0.027731	0.010800	0.024876	-0.051945	6851.459271	50303.643808	4111.312546	25253.060602
59.536000	0.034850	0.014136	0.026869	-0.032302	6741.018732	48560.179763	4064.777082	24267.315538
60.036000	0.039779	0.018492	0.033789	-0.008401	6579.677112	46555.016444	4021.756171	23126.481590
60.541000	0.043954	0.021377	0.044693	0.013865	6432.251580	44653.721053	3993.895358	22118.727223
61.037500	0.050933	0.025052	0.046576	0.035101	6320.323995	43002.766108	3948.084783	21204.537690
61.537500	0.052188	0.027099	0.052181	0.043134	6268.392105	42455.129752	3942.482286	20870.246557
62.043500	0.059761	0.031487	0.062287	0.078537	6063.423513	39735.196431	3885.917753	19468.292151
62.534000	0.064011	0.033293	0.063599	0.060023	6230.096108	41495.174601	3929.968358	20187.192833
63.035000	0.067467	0.034358	0.068839	0.067486	6200.116937	40932.092547	3924.928837	19893.714020
63.538500	0.068958	0.036665	0.067739	0.132737	5758.569511	35813.451142	3785.787286	17531.703259
64.041000	0.067126	0.039774	0.071527	0.133026	5744.969637	36027.218150	3792.605866	17522.015373
64.599500	0.069320	0.043835	0.074809	0.129246	5783.450570	36629.094362	3806.535748	17649.289485
65.036500	0.069885	0.044935	0.072305	0.129041	5788.450161	36730.269045	3801.974151	17656.205292
65.536500	0.071353	0.045553	0.067897	0.124767	5826.014123	37112.484626	3801.712088	17801.558976
66.045500	0.070993	0.046961	0.076863	0.124975	5822.270296	37206.846181	3819.207905	17794.442803
66.537000	0.074438	0.050410	0.080280	0.120309	5876.114837	37852.190972	3835.671637	17954.662275
67.034500	0.077168	0.050845	0.084416	0.116581	5919.697983	38187.910431	3851.984644	18083.896110
67.535500	0.077506	0.052831	0.078517	0.115464	5929.618212	38440.306964	3842.028682	18122.856146
68.038000	0.080320	0.052683	0.078384	0.113939	5959.367288	38552.844650	3844.916482	18176.189462
68.543000	0.080387	0.053461	0.079817	0.114283	5957.461110	38588.386098	3847.181194	18164.132635
69.039500	0.081885	0.055476	0.085111	0.115686	5958.110386	38638.592770	3855.318057	18115.096578
69.546000	0.081798	0.054878	0.078846	0.115161	5961.131664	38632.658004	3843.338392	18133.441643
70.037000	0.082308	0.056080	0.085415	0.120185	5930.161705	38320.318224	3846.547452	17958.927495
70.538500	0.083477	0.056221	0.085539	0.117370	5957.476426	38561.529075	3852.682628	18056.442878
71.040000	0.084145	0.058200	0.082784	0.119615	5946.634236	38539.814552	3842.268728	17978.619656
71.538500	0.084566	0.058637	0.090628	0.122124	5932.343780	38370.691339	3853.385639	17892.137525
72.035000	0.085990	0.059885	0.084987	0.127295	5906.869029	38052.577671	3830.998391	17715.428544
72.542000	0.087529	0.060733	0.089161	0.128160	5911.429923	38051.084088	3837.790377	17686.054448
73.036000	0.089248	0.060976	0.088230	0.131748	5898.780470	37782.157186	3828.525857	17564.912180
73.535000	0.088210	0.061690	0.091356	0.134360	5874.239440	37630.465136	3829.575225	17477.355115
74.036500	0.089718	0.063565	0.096780	0.138848	5854.358517	37422.714394	3831.489758	17328.136820
74.537000	0.089088	0.063834	0.094104	0.141246	5834.293003	37254.308045	3821.166540	17249.037133
75.037000	0.091252	0.064986	0.090836	0.145815	5818.452456	36985.785407	3805.458201	17099.492345
75.539000	0.088304	0.064566	0.093968	0.145914	5798.516936	36945.203340	3811.504796	17096.282531
76.036500	0.090160	0.064417	0.094985	0.148441	5794.141867	36736.597966	3808.488375	17014.263818
76.540500	0.088619	0.066728	0.097520	0.151902	5761.764162	36647.438878	3806.645968	16902.754299
77.037500	0.092695	0.067483	0.096684	0.156661	5757.370763	36338.566957	3795.587808	16750.815334
77.535000	0.094525	0.070318	0.095690	0.159431	5751.334088	36343.604737	3788.230901	16663.151510
78.040500	0.096199	0.069956	0.096571	0.160979	5752.143596	36197.207568	3786.932914	16614.398604
78.538000	0.097896	0.069733	0.099489	0.163114	5749.333984	36017.415090	3788.455851	16547.448390
79.036000	0.097777	0.070927	0.101730	0.165847	5731.118175	35900.568095	3787.498059	16462.216647
79.536500	0.100273	0.071276	0.107153	0.168960	5727.193612	35691.869410	3792.003230	16365.815724
80.041000	0.097288	0.070861	0.109302	0.170335	5699.612579	35557.307456	3793.517077	16323.420420
80.540500	0.105914	0.071976	0.112223	0.172425	5741.058414	35484.306938	3795.146103	16259.275134
81.034500	0.107747	0.069997	0.099263	0.159345	5837.989744	36325.471087	3795.382241	16665.854827
81.543000	0.118629	0.039789	0.133555	0.107011	6287.942733	38067.683011	3983.578233	18420.827901
82.035000	0.167618	0.056440	0.124870	0.137362	6433.584324	36978.521872	3894.113435	17377.354622
82.535500	0.260298	0.063748	0.131455	0.224167	6480.815543	31293.786947	3733.676988	14765.810616
83.038500	0.240088	0.065038	0.137317	0.200752	6506.843915	32950.349355	3788.826102	15419.671568
83.535500	0.241642	0.068862	0.134856	0.214020	6412.614833	32305.879722	3758.733179	15044.815597
84.040000	0.219450	0.073590	0.129825	0.196447	6376.162710	33850.385520	3782.640282	15543.747841
84.539000	0.188442	0.072221	0.136566	0.211747	6031.296507	32688.508411	3766.251465	15108.234162
85.040500	0.181182	0.073889	0.130778	0.222537	5906.526134	32071.306876	3735.412170	14810.175993
85.539500	0.172911	0.073953	0.133890	0.222053	5854.276745	32108.032695	3742.002049	14823.401271
86.034500	0.172960	0.076330	0.128424	0.216344	5892.825170	32655.172173	3742.449538	14980.347971
86.535000	0.165782	0.075848	0.126254	0.211225	5878.984381	32973.567844	3747.898832	15122.844417
87.041500	0.166094	0.075737	0.129558	0.211691	5877.951398	32933.820653	3753.176367	15109.811233
87.552000	0.148290	0.074502	0.127811	0.200833	5831.755830	33604.587899	3770.355658	15417.348590
88.039000	0.145445	0.074091	0.122340	0.204452	5789.420642	33321.803695	3753.214685	15313.971011
88.536000	0.127815	0.071356	0.125375	0.195949	5730.705762	33727.284074	3775.031382	15558.186211
89.037000	0.120781	0.072998	0.121685	0.195888	5686.682881	33848.091998	3768.107763	15559.971767
89.540000	0.173182	0.084621	0.135390	0.244616	5709.779504	31321.359222	3704.168438	14222.889666
90.040000	0.170216	0.084281	0.129449	0.230432	5781.565637	32238.965344	3718.756333	14596.734897
90.535000	0.171219	0.086530	0.137058	0.240034	5726.374766	31747.928906	3715.203239	14342.324978
91.037500	0.169998	0.085223	0.137323	0.238606	5727.692835	31755.962551	3718.220933	14379.803426
91.538000	0.168111	0.086689	0.130402	0.239437	5710.466381	31798.040454	3704.503315	14357.985194
92.038000	0.172336	0.086868	0.131813	0.241507	5724.119764	31672.926389	3703.348511	14303.800899
92.535500	0.172249	0.086384	0.141748	0.238985	5739.618701	31807.809860	3725.477088	14369.845236
93.035500	0.172455	0.087744	0.134294	0.240098	5733.836480	31824.230052	3710.190245	14340.657339
93.543500	0.172562	0.087904	0.142002	0.239769	5736.617928	31856.708600	3724.524409	14349.282929
94.040500	0.171462	0.087430	0.134891	0.241968	5715.653972	31679.609165	3707.944227	14291.762090
94.540500	0.173280	0.087748	0.139614	0.240751	5734.934484	31781.142957	3718.481119	14323.555962
95.039000	0.173825	0.088547	0.133829	0.240607	5739.326006	31843.713731	3708.471812	14327.324584
95.539000	0.172774	0.087814	0.137118	0.239852	5737.436824	31845.202096	3715.633601	14347.098176
96.129500	0.172601	0.088572	0.135831	0.242149	5721.723849	31743.142898	3709.282563	14287.039795
96.535000	0.173336	0.088896	0.135852	0.239510	5743.213413	31939.938141	3713.991803	14356.061358
97.042000	0.175409	0.090439	0.138185	0.240254	5751.718387	31993.226719	3716.817236	14336.557198
97.535500	0.178195	0.090690	0.145445	0.240599	5767.425926	31987.007626	3729.240930	14327.539118
98.035500	0.173636	0.091108	0.136593	0.240337	5739.842176	32032.425707	3713.839650	14334.388928
98.545500	0.176513	0.090626	0.143665	0.239598	5763.032774	32049.563147	3727.831518	14353.756428
99.039500	0.177777	0.091680	0.142193	0.239891	5769.292281	32100.590284	3724.648675	14346.083975
99.534500	0.177972	0.091485	0.138957	0.239661	5772.043690	32102.934435	3719.256342	14352.122150
