sample name	sample
index	1103
start time	 04-22-2021  12:43:53 PM
880	0.206534
Peak Time (s)	102.535
Peak Height 	0.2065
calc peak height	100,103
Baseline Time (s)	9.537
Baseline Value 	-0.006386
subtract baseline	10,4
Abs	0.142208
Peak Time (s)	100.538
Peak Height 	0.1422
calc peak height	100,103
Baseline Time (s)	9.037
Baseline Value 	0.006786
subtract baseline	10,3
PK_550	0.090312
Peak Time (s)	102.535
Peak Height 	0.09031
calc peak height	100,103
Baseline Time (s)	10.037
Baseline Value 	5.2736E-4
subtract baseline	10,2
PK_880	0.140553
Peak Time (s)	102.035
Peak Height 	0.1406
calc peak height	100,103
Baseline Time (s)	11.035
Baseline Value 	0.00242
subtract baseline	10,1


Time (s)	A880-A510	A880-A775	A880-A975	A880	I510	I775	I975	I880	
0.040000	-0.001064	0.000263	-0.002100	0.003201	6260.142771	43224.202727	3910.743658	22649.902800
0.535000	-0.001108	0.001038	-0.003119	0.005856	6239.480354	43050.336976	3902.252174	22529.672908
1.035000	-0.002305	-0.000883	-0.006094	0.005683	6231.670410	42889.380455	3895.821351	22537.469235
1.535500	-0.001293	-0.000554	-0.004732	0.003366	6257.115466	43133.342010	3904.271280	22642.395130
2.035500	0.000162	0.000287	-0.008190	0.001604	6281.891828	43374.694311	3900.366647	22722.534130
2.536000	-0.001036	-0.000824	-0.003333	0.000901	6278.063711	43336.794594	3913.223026	22754.607479
3.036500	-0.002038	-0.000231	-0.005949	0.004399	6243.501263	43067.708262	3899.097510	22595.564584
3.536500	0.000152	-0.000130	-0.008413	0.001287	6284.263434	43365.432038	3900.584005	22737.001646
4.036500	-0.000493	0.000340	-0.007887	0.001409	6278.346821	43397.866309	3901.514599	22731.467265
4.540000	-0.001980	-0.000190	0.003710	0.001220	6268.327182	43366.077635	3928.989307	22740.050168
5.034500	0.000144	0.000836	-0.006389	0.001635	6281.517856	43422.975871	3904.444245	22721.160318
5.535000	-0.001089	0.000049	-0.004771	0.000199	6283.082473	43483.426800	3911.512184	22786.706430
6.082000	0.001566	0.000388	-0.002832	0.000676	6299.965687	43470.554906	3914.914038	22764.896798
6.538500	-0.001083	0.000107	-0.002772	0.000417	6281.448486	43468.509109	3915.658086	22776.731989
7.036000	-0.001056	0.000149	-0.002116	0.000340	6282.252707	43479.653518	3917.369376	22780.253350
7.536500	0.000503	-0.000305	-0.002589	0.000021	6296.797864	43466.997196	3917.008661	22794.840409
8.036500	0.000487	0.000086	-0.002739	-0.000176	6298.205560	43521.880433	3917.117228	22803.848117
8.539500	-0.001231	-0.001039	-0.006260	-0.000483	6287.256944	43445.560555	3909.639205	22817.899375
9.037000	-0.000288	0.000067	0.000000	0.000049	6290.449175	43499.142287	3923.007247	22793.558165
9.537000	0.000594	-0.000374	-0.001795	0.000000	6297.667650	43462.580898	3918.914105	22795.807020
10.037500	0.001442	0.000000	0.000188	-0.000022	6304.433940	43499.508757	3923.617320	22796.820496
10.535000	-0.000466	0.000071	0.001523	0.000051	6289.054423	43499.358555	3926.588365	22793.484195
11.035000	0.000000	-0.000264	-0.001317	-0.000348	6295.759101	43505.241959	3920.847555	22811.726594
11.535500	0.000134	0.000280	0.000511	0.000337	6291.486011	43492.172840	3923.532577	22780.397708
12.036000	-0.000940	-0.000575	0.003635	-0.000164	6287.041819	43459.056825	3932.087097	22803.300194
12.536000	-0.001127	-0.000129	-0.003277	0.000088	6283.645631	43477.185422	3915.247400	22791.768997
13.036500	-0.003020	-0.000208	-0.004504	0.003418	6243.496224	43160.560650	3904.677904	22640.055815
13.536500	-0.003406	-0.000351	-0.003613	-0.000104	6267.548209	43474.444661	3914.910664	22800.573567
14.040000	-0.001395	0.000208	0.001694	0.002348	6264.148265	43298.221374	3921.587541	22688.655794
14.537500	-0.003900	-0.000876	-0.003045	0.001462	6251.728611	43279.849574	3912.587339	22729.030493
15.035000	-0.001194	-0.000047	-0.001875	0.003351	6257.988908	43181.605479	3910.916846	22643.061475
15.535000	0.001933	0.000050	-0.008110	-0.000060	6308.557768	43507.703573	3904.382258	22798.562044
16.035500	-0.000849	-0.000567	0.001889	-0.000293	6288.750957	43471.939577	3928.263299	22809.237811
16.539000	-0.000019	0.000200	-0.000005	0.000041	6292.592365	43512.324804	3923.013633	22793.930531
17.036000	-0.002535	0.000304	-0.001543	0.002252	6256.140736	43316.149506	3914.246041	22693.056858
17.536500	0.000666	0.001037	-0.003792	0.001765	6284.546594	43429.563083	3910.150334	22715.233745
18.036500	-0.000674	-0.000885	-0.005324	0.000585	6283.310048	43360.482405	3909.333644	22769.067717
18.537000	0.001239	-0.000049	-0.011405	0.001392	6291.868432	43363.159334	3893.493894	22732.208658
19.037500	-0.001163	0.000569	-0.007152	0.002154	6267.434174	43349.878324	3901.491085	22697.511773
19.534500	-0.001900	0.000645	-0.001790	0.001450	6267.181153	43422.461652	3915.539362	22729.594746
20.034500	-0.000205	-0.000003	-0.003661	0.000767	6285.528587	43425.631011	3912.772989	22760.751237
20.535000	0.001358	-0.000211	-0.001977	0.001266	6293.768731	43359.800112	3915.530360	22737.955265
21.036000	-0.002296	-0.000598	-0.005478	0.002312	6257.511129	43226.906647	3904.984602	22690.329542
21.536000	-0.002846	0.000133	-0.008417	0.001204	6261.797658	43397.653430	3900.765145	22740.804262
22.036000	-0.001136	-0.001302	-0.006736	0.000096	6283.516526	43367.185377	3907.196348	22791.404720
22.536500	0.000039	-0.000395	-0.001946	0.000735	6287.665354	43392.073525	3916.842686	22762.197605
23.036500	-0.003681	-0.000907	-0.004910	0.001925	6249.860625	43234.127499	3907.189582	22707.949507
23.536500	-0.000253	-0.000462	-0.003378	0.000686	6285.784029	43390.425088	3913.618530	22764.432086
24.035000	0.000861	-0.000391	-0.000277	0.001167	6290.693401	43352.320640	3919.737250	22742.496265
24.534500	-0.002310	-0.000835	-0.003090	0.000537	6271.052997	43369.607403	3914.636724	22771.259182
25.035000	-0.003560	-0.000119	-0.005593	0.000826	6259.209001	43409.338261	3908.151953	22758.039831
25.535500	-0.000704	-0.000321	-0.002041	0.001178	6278.489463	43357.743640	3915.586253	22741.966007
26.035500	0.000024	-0.000717	-0.006968	0.000774	6287.253535	43358.595727	3905.094822	22760.436986
26.536000	0.000584	0.000275	-0.000248	0.001144	6288.719780	43416.423230	3919.857471	22743.522197
27.036000	-0.000569	-0.000488	-0.002621	0.001227	6279.155638	43337.759073	3914.122067	22739.748825
27.536500	0.000641	-0.000379	-0.000894	-0.001112	6306.682766	43565.893554	3923.633174	22846.731986
28.037500	-0.000022	0.000189	-0.001261	-0.000296	6295.191497	43542.765153	3920.857402	22809.363458
28.539500	0.000569	0.000196	0.004436	0.000170	6296.159507	43499.852357	3933.195079	22788.038548
29.034500	-0.001625	-0.000301	-0.006419	0.004153	6248.543939	43083.966350	3898.584350	22606.720164
29.535000	0.001238	0.000394	-0.004056	0.000063	6302.184571	43528.348900	3913.489306	22792.910647
30.035500	0.001683	-0.000646	-0.003224	-0.000538	6310.331235	43487.375388	3916.831721	22820.453704
30.535500	0.000978	0.000139	-0.003751	0.000023	6300.477361	43508.291145	3914.295031	22794.773931
31.035500	-0.001036	0.000147	-0.003394	0.004008	6254.170426	43138.793318	3905.878375	22613.288298
31.537000	0.000149	-0.000201	-0.003706	-0.000438	6297.614586	43519.533443	3915.472281	22815.863037
32.036500	0.000751	0.000398	-0.006299	0.000274	6296.760907	43509.001086	3907.795077	22783.254557
32.536500	-0.001879	-0.000233	-0.000361	-0.000362	6281.316961	43509.461307	3923.126487	22812.387403
33.039500	-0.003949	-0.000621	-0.008288	0.005208	6222.781631	42957.215274	3891.899658	22558.957453
33.540000	-0.000059	0.000081	-0.001258	-0.002006	6308.194566	43692.654060	3924.881654	22887.798334
34.035000	-0.002105	-0.000136	-0.004741	0.001060	6268.603969	43385.999122	3909.585499	22747.388581
34.535500	-0.001814	-0.000635	-0.006118	0.001574	6266.882924	43291.819723	3905.208949	22723.913899
35.035500	-0.000979	-0.000733	-0.008031	0.003418	6259.129453	43111.981028	3896.574109	22640.029465
35.536000	-0.000618	-0.000117	0.000099	0.001896	6273.620409	43310.044524	3918.910198	22709.268212
36.035500	0.000602	-0.000125	-0.005251	0.001550	6285.720638	43341.439299	3907.268473	22725.033919
36.536500	-0.001344	-0.000173	-0.000473	0.001415	6271.728658	43349.534542	3918.695318	22731.168869
37.036500	-0.002826	-0.000135	-0.004148	0.003786	6242.167334	43133.208763	3904.649949	22623.339529
37.539500	-0.001337	-0.000344	-0.007071	0.001261	6272.970440	43347.873891	3903.730941	22738.178552
38.037000	-0.000911	-0.000712	-0.007031	0.000960	6278.575385	43341.672833	3904.518023	22751.919957
38.534500	-0.000405	0.000585	-0.010173	0.001806	6275.952043	43383.672567	3895.360418	22713.346005
39.035000	-0.000483	0.000368	-0.002621	0.002994	6266.198172	43253.144219	3910.012692	22659.275924
39.535000	-0.000677	-0.000122	0.001308	0.001817	6273.776045	43316.946570	3921.927513	22712.851415
40.035000	-0.000622	0.000461	-0.004854	0.002173	6271.450933	43338.062956	3906.746535	22696.645750
40.536000	0.000454	-0.000476	-0.003077	0.001484	6285.085097	43314.983134	3912.463141	22728.049386
41.036000	-0.001035	-0.000171	-0.006870	0.003414	6258.725836	43164.324318	3899.243414	22640.220208
41.536500	-0.005455	-0.001163	-0.004096	0.000382	6248.095854	43353.574628	3912.656986	22778.350242
42.036500	-0.000563	0.000134	-0.003987	0.001336	6278.359124	43385.423984	3910.690089	22734.757487
42.539000	-0.002991	-0.000594	-0.003153	0.001421	6259.008353	43309.792807	3912.431657	22730.880871
43.037500	-0.001096	0.000062	-0.000253	0.003108	6260.605679	43214.168878	3915.254767	22654.105277
43.537500	0.000764	0.000610	-0.004682	-0.000918	6306.134135	43640.333567	3914.317787	22837.866085
44.035000	0.000400	0.000538	-0.002315	-0.001865	6310.678181	43722.279016	3922.066514	22881.334217
44.535500	-0.000101	0.000221	-0.002939	-0.000040	6292.581446	43521.812830	3916.332246	22797.619950
45.035500	-0.001804	-0.000615	-0.005880	0.003575	6251.601186	43108.340609	3901.148324	22632.924092
45.536000	0.001241	0.001013	-0.003127	0.000750	6296.874151	43521.958052	3914.054830	22761.527678
46.035500	-0.000353	-0.000644	-0.004666	0.000128	6289.332346	43425.460136	3911.921355	22789.962506
46.536500	0.000945	-0.000072	-0.004375	0.000189	6298.931469	43473.110582	3912.456531	22787.182514
47.040000	-0.001717	-0.000491	-0.009536	0.005159	6240.148850	42973.719641	3889.172946	22561.175329
47.540000	-0.002878	-0.000253	0.000530	0.002404	6252.338014	43250.228683	3918.728144	22686.116717
48.034500	-0.000361	-0.000056	0.001008	0.000237	6288.425454	43470.175032	3924.936652	22784.989185
48.536000	0.001243	0.000400	-0.002709	0.000645	6297.705596	43474.618778	3915.272205	22766.328426
49.035500	-0.004129	0.000092	-0.007755	0.005504	6219.172739	42995.636260	3892.441135	22545.588358
49.535500	0.001223	0.000737	0.000267	-0.001515	6314.360840	43708.141506	3927.317454	22865.234012
50.036000	0.000871	-0.000610	0.000973	-0.000910	6306.906932	43525.529641	3927.558774	22837.508094
50.536000	0.000134	-0.002964	-0.004624	0.015019	6179.570482	41853.776933	3877.998851	22120.411344
51.036000	0.023275	-0.014470	-0.000111	0.553724	3917.705798	13926.292691	3187.771047	8478.162173
51.536500	0.000611	-0.016845	-0.017963	-0.042148	6641.578195	45928.551610	3981.558972	24820.841202
52.037000	-0.015133	-0.034602	-0.018103	-0.174418	7785.481787	58888.367583	4365.193787	32616.174808
52.536500	-0.010038	-0.067874	-0.009352	-0.251498	8797.990172	64822.828008	4684.767800	38382.243037
53.037500	-0.009155	-0.022891	-0.004571	-0.160325	7695.495705	58582.576324	4363.306539	31668.190021
53.535000	-0.001896	-0.017441	0.000598	-0.130521	7454.153401	55549.919760	4282.761709	29761.853960
54.035000	-0.004373	-0.015099	0.000446	-0.121621	7337.033680	54761.949999	4254.291649	29217.473443
54.535500	-0.001269	-0.010867	0.006116	-0.111328	7264.593626	54044.189680	4239.983254	28601.681992
55.036000	0.007320	-0.005863	0.004609	-0.103125	7268.457317	53669.423963	4210.415954	28121.296713
55.536000	0.012287	-0.000618	0.012894	-0.103801	7325.262808	54365.327686	4237.680138	28160.543029
56.036000	0.021035	0.005142	0.020286	-0.088818	7262.540260	53285.465021	4214.547792	27304.786674
56.537000	0.029328	0.009821	0.028019	-0.079057	7247.896138	52700.178322	4208.434632	26762.966498
57.037000	0.035608	0.015648	0.030870	-0.050471	7031.455892	50161.368152	4133.311899	25244.510846
57.537000	0.046910	0.021234	0.042254	-0.026077	6909.494933	48161.356927	4096.990707	24025.410646
58.035000	0.054034	0.025639	0.044273	-0.003351	6768.882036	46294.814508	4041.385600	22949.710942
58.535000	0.056990	0.030876	0.054684	0.025536	6546.068050	43998.770425	3993.958773	21661.165709
59.035000	0.059098	0.033093	0.053786	0.049451	6368.719574	41999.449458	3933.358334	20657.374946
59.535500	0.068485	0.037769	0.063955	0.057730	6377.521541	41677.056969	3937.853521	20322.559993
60.036000	0.069753	0.040297	0.066976	0.060311	6367.098235	41672.343910	3938.904852	20219.490889
60.536500	0.067563	0.042148	0.071316	0.061300	6341.990194	41749.224846	3946.930135	20180.133545
61.036500	0.067155	0.041933	0.070158	0.062752	6327.383425	41600.690728	3940.673997	20122.542049
61.537000	0.072806	0.043488	0.070803	0.057367	6414.956151	42222.872145	3955.184654	20337.097148
62.037500	0.075444	0.046072	0.077111	0.058537	6426.776728	42350.851446	3967.710081	20290.254061
62.534500	0.075198	0.046892	0.077540	0.058721	6423.308996	42408.568920	3968.312339	20282.903650
63.035500	0.073743	0.048035	0.075910	0.065340	6358.876570	41914.478627	3948.263668	20020.392235
63.535000	0.080207	0.048792	0.076540	0.062964	6429.492266	42196.399683	3955.525004	20114.156831
64.036000	0.084370	0.051538	0.082217	0.067754	6424.435262	42012.310146	3957.678154	19925.635458
64.535500	0.085092	0.052025	0.085052	0.071483	6400.291179	41721.949863	3955.508772	19780.294260
65.036500	0.080733	0.051936	0.081579	0.081139	6289.912945	40862.096940	3924.157677	19409.677251
65.536000	0.087909	0.053369	0.086850	0.080786	6348.759943	41018.220192	3937.469137	19423.071045
66.039500	0.087746	0.053165	0.086003	0.084976	6314.610204	40635.262296	3925.538084	19264.665465
66.536500	0.087645	0.054539	0.086232	0.090002	6274.830768	40319.964810	3914.303362	19076.692672
67.037000	0.085608	0.054689	0.088433	0.100169	6181.997672	39468.357898	3895.916767	18702.987859
67.538000	0.092046	0.055544	0.088899	0.096771	6256.613772	39827.535241	3904.793237	18826.916824
68.035000	0.092337	0.056778	0.092058	0.099763	6235.959854	39678.647892	3905.180391	18717.751462
68.535500	0.093674	0.058543	0.090981	0.102761	6223.313118	39574.622749	3895.817220	18609.109164
69.035500	0.090575	0.058545	0.093011	0.110521	6141.854935	38926.539394	3882.798549	18331.344649
69.536000	0.096615	0.060027	0.096866	0.106675	6215.936733	39370.409245	3900.334560	18468.406339
70.036000	0.099814	0.060985	0.093829	0.108814	6223.977958	39271.547329	3888.515000	18392.040139
70.539500	0.098902	0.062187	0.102750	0.109981	6208.216514	39274.390959	3906.272295	18350.514823
71.037000	0.096899	0.062297	0.090355	0.117250	6138.862561	38680.991036	3861.849409	18094.519927
71.537500	0.104405	0.064388	0.104858	0.112583	6230.226349	39240.896902	3905.133053	18258.382312
72.035000	0.107356	0.065422	0.103344	0.113237	6247.749748	39272.698613	3900.140423	18235.307911
72.535000	0.107845	0.066674	0.111617	0.114164	6244.405240	39299.860289	3917.156149	18202.664236
73.035500	0.106722	0.066391	0.105631	0.120291	6189.439770	38767.625081	3889.251079	17988.648332
73.535500	0.106653	0.067901	0.105270	0.114024	6236.376762	39414.399112	3902.761048	18207.606845
74.036000	0.112759	0.068010	0.112574	0.114204	6281.872164	39408.414578	3919.298850	18201.262296
74.536500	0.112566	0.070155	0.108487	0.115656	6269.175921	39466.538732	3906.415497	18150.263360
75.036500	0.112854	0.070066	0.112793	0.115703	6271.031949	39455.171628	3916.308353	18148.627035
75.537000	0.113128	0.070301	0.114545	0.114961	6278.873812	39537.319612	3922.144579	18174.661187
76.037000	0.115529	0.071505	0.110391	0.115628	6292.291517	39582.601242	3910.892643	18151.263301
76.537000	0.116264	0.071697	0.113780	0.115298	6300.564616	39626.641757	3919.563701	18162.844884
77.034500	0.111818	0.071754	0.109583	0.121719	6217.136271	39093.382560	3895.001201	17939.202394
77.537500	0.115350	0.072507	0.110592	0.116341	6285.385302	39606.970558	3909.704497	18126.293041
78.035500	0.118132	0.073444	0.115629	0.116812	6303.316272	39646.279501	3920.348373	18109.817523
78.535500	0.119634	0.074906	0.116460	0.118033	6305.500619	39666.702499	3919.433117	18067.191708
79.036500	0.117149	0.074477	0.117817	0.119027	6278.523852	39546.622279	3920.282720	18032.555489
79.536500	0.117594	0.075049	0.121883	0.119406	6279.036909	39562.859328	3928.959097	18019.396293
80.039500	0.119703	0.076269	0.120831	0.121676	6277.795719	39474.528304	3921.139673	17940.719151
80.537000	0.119383	0.076276	0.115721	0.121780	6274.525621	39466.358226	3908.985186	17937.120093
81.037500	0.118160	0.076265	0.114399	0.128650	6212.675182	38892.700015	3890.183325	17701.520523
81.537500	0.119635	0.077681	0.119552	0.124652	6254.371518	39343.313543	3911.211287	17838.171431
82.035000	0.120408	0.077061	0.118649	0.125429	6254.341873	39226.500973	3907.316482	17811.511215
82.535500	0.124207	0.079202	0.121157	0.128564	6259.435341	39143.637316	3905.867255	17704.451098
83.036000	0.118789	0.078022	0.114728	0.134016	6177.004108	38595.472917	3878.795934	17520.074117
83.536000	0.122451	0.079844	0.127350	0.130883	6228.292452	39004.201683	3914.855287	17625.740504
84.036000	0.121858	0.079725	0.128220	0.132443	6211.955597	38865.205305	3913.250379	17573.047938
84.536000	0.123572	0.080569	0.125423	0.134438	6209.827872	38770.156770	3902.159082	17505.891523
85.036500	0.122713	0.080353	0.123884	0.135296	6196.870209	38681.841183	3896.659902	17477.139107
85.536500	0.123611	0.080801	0.127272	0.136899	6191.563000	38586.964695	3900.753423	17423.522580
86.034500	0.124829	0.080703	0.124979	0.138203	6190.912834	38472.148502	3892.520628	17380.056556
86.534000	0.124879	0.081521	0.122154	0.140428	6174.592086	38357.314309	3881.075984	17306.173693
87.035000	0.123800	0.080797	0.122263	0.141527	6158.337743	38209.190790	3878.850777	17269.856569
87.535500	0.124476	0.082571	0.120610	0.143497	6148.720338	38193.289778	3870.740441	17204.938539
88.035500	0.125346	0.082146	0.128439	0.145093	6143.331655	38029.736821	3884.733583	17152.550271
88.536000	0.126675	0.082849	0.122495	0.147280	6136.982026	37910.168750	3866.518971	17081.096596
89.036000	0.126412	0.083565	0.133433	0.149920	6115.583028	37755.750844	3885.110978	16995.313593
89.539500	0.127683	0.083468	0.127065	0.151297	6114.799608	37637.806729	3867.745882	16950.751310
90.034000	0.126761	0.083847	0.123125	0.152732	6097.533676	37553.716422	3855.876971	16904.510978
90.537000	0.128475	0.084160	0.128891	0.155254	6091.633417	37378.255389	3863.022974	16823.565574
91.034000	0.123625	0.083392	0.125851	0.162661	6003.501091	36736.680419	3840.197998	16588.543371
91.535000	0.126496	0.083772	0.124058	0.158793	6051.649479	37068.537369	3844.688830	16710.767701
92.035500	0.128411	0.083719	0.130276	0.160844	6050.675342	36903.823496	3853.771072	16645.831897
92.536000	0.131317	0.084166	0.129034	0.163281	6054.047074	36748.631359	3845.747442	16569.040685
93.035500	0.126590	0.084211	0.131872	0.171306	5963.497785	36133.652557	3834.549385	16319.246248
93.536000	0.131609	0.085662	0.132099	0.168642	6017.738038	36449.426763	3840.775244	16401.675353
94.037000	0.131026	0.086035	0.137647	0.170901	5997.565259	36304.393573	3847.906531	16331.762105
94.539500	0.132262	0.085596	0.131125	0.172940	5991.883039	36114.707231	3829.456519	16268.967625
95.034000	0.130198	0.085898	0.134218	0.181025	5921.035914	35526.118402	3818.866281	16022.869794
95.537000	0.136802	0.086591	0.138472	0.177241	5993.569054	35863.378247	3835.978180	16137.471996
96.034500	0.135095	0.087247	0.138462	0.180033	5961.941270	35702.042163	3829.977563	16052.806065
96.535000	0.133521	0.086294	0.132589	0.180985	5944.329974	35558.759274	3815.519357	16024.066824
97.035000	0.131593	0.086163	0.131280	0.188876	5876.824490	34962.406936	3796.383910	15788.216565
97.536000	0.135564	0.087323	0.136097	0.186088	5923.126386	35254.533266	3812.171967	15871.063846
98.035000	0.133703	0.088173	0.140769	0.188028	5896.997467	35173.638905	3817.911795	15813.367157
98.536000	0.135440	0.087811	0.136102	0.190342	5893.051511	34975.827437	3803.316618	15744.872216
99.042000	0.139898	0.087914	0.139777	0.191903	5912.918600	34868.551379	3807.711724	15698.872646
99.537000	0.140254	0.089031	0.142422	0.194491	5897.600250	34760.739606	3807.831567	15622.998354
100.039500	0.139298	0.089054	0.141160	0.196081	5880.223545	34646.218233	3801.906380	15576.589299
100.537500	0.139202	0.090030	0.142208	0.198427	5863.651357	34546.435748	3799.221290	15508.430025
101.034500	0.135234	0.088715	0.135160	0.204792	5794.552797	33993.056888	3771.957933	15325.378005
101.535000	0.140324	0.089568	0.141898	0.201406	5851.113122	34297.343431	3792.459136	15422.439889
102.035000	0.140553	0.089949	0.136482	0.202707	5843.891929	34230.960538	3778.803711	15385.038840
102.535500	0.137955	0.090312	0.136985	0.206534	5801.027083	33982.655526	3772.123977	15275.730350
103.041500	0.141147	0.091257	0.143358	0.206634	5821.577392	34043.071115	3784.773670	15272.906320
103.539000	0.142250	0.090567	0.144384	0.207291	5824.553609	33946.899733	3785.523055	15254.236388
104.042000	0.138742	0.090285	0.144281	0.208327	5794.370776	33853.043718	3783.211297	15224.860611
