sample name	sample
index	1228
start time	 04-29-2021  11:00:52 AM
880	0.181887
Peak Time (s)	92.535
Peak Height 	0.1819
calc peak height	90,93
Baseline Time (s)	9.037
Baseline Value 	-0.005133
subtract baseline	10,4
Abs	0.143616
Peak Time (s)	91.535
Peak Height 	0.1436
calc peak height	90,93
Baseline Time (s)	9.54
Baseline Value 	0.003855
subtract baseline	10,3
PK_550	0.083978
Peak Time (s)	92.038
Peak Height 	0.08398
calc peak height	90,93
Baseline Time (s)	10.034
Baseline Value 	6.9666E-4
subtract baseline	10,2
PK_880	0.136163
Peak Time (s)	92.535
Peak Height 	0.1362
calc peak height	90,93
Baseline Time (s)	9.037
Baseline Value 	0.002121
subtract baseline	10,1


Time (s)	A880-A510	A880-A775	A880-A975	A880	I510	I775	I975	I880	
0.045000	-0.000485	-0.000179	-0.002244	0.002591	6190.810410	44169.404158	3864.507817	22760.664695
0.534000	-0.001074	-0.000419	-0.000213	0.003801	6177.115129	44031.845333	3866.415963	22705.320038
1.034500	-0.003274	-0.000320	-0.004366	0.005520	6147.482162	43878.761561	3852.850480	22626.998024
1.535000	-0.002331	-0.000534	0.000082	0.000765	6190.657787	44309.502528	3874.193988	22844.470376
2.035000	0.001600	-0.000419	-0.000603	-0.000328	6229.199098	44424.844293	3875.151624	22894.802876
2.535000	0.001591	0.000219	-0.000800	-0.000252	6228.548734	44478.647328	3874.512322	22891.318939
3.036000	-0.001942	-0.001108	-0.004310	0.002846	6177.779376	44057.136024	3859.136139	22749.015129
3.551500	-0.001316	-0.000082	0.002225	0.000570	6199.894055	44371.146342	3879.687676	22853.432297
4.040000	0.000099	-0.000083	-0.003666	0.000266	6213.068720	44400.169336	3866.606795	22867.430137
4.537000	-0.002764	-0.000218	-0.000790	0.000033	6192.945251	44409.559857	3873.868062	22878.196655
5.037000	-0.000683	0.000916	-0.000198	0.000468	6205.525828	44476.441752	3874.234853	22858.151827
5.537500	0.002500	-0.000401	0.000697	-0.000250	6235.553074	44419.133851	3878.023725	22891.237002
6.037500	0.000427	-0.000691	0.001160	-0.000192	6219.119428	44385.887995	3878.977453	22888.561235
6.535000	0.000790	0.000143	0.000993	0.000585	6215.925764	44391.269631	3876.754657	22852.736502
7.035500	0.001909	0.000433	-0.000445	0.000543	6224.863555	44422.942363	3873.479771	22854.676430
7.536000	0.000852	-0.000290	0.000878	-0.000055	6221.325861	44411.073125	3877.990278	22882.219640
8.036500	-0.000264	0.000196	-0.002277	0.000496	6208.519486	44404.785751	3869.306534	22856.836733
8.536500	-0.000858	-0.000888	0.002692	-0.000706	6213.184484	44416.133482	3883.804642	22912.244828
9.036500	0.000000	-0.000250	0.000185	0.000000	6214.356008	44409.616052	3876.230308	22879.694249
9.540000	0.002299	0.000472	0.000000	0.000099	6231.299994	44469.236097	3875.563429	22875.112670
10.034500	-0.001556	0.000000	0.001755	-0.000318	6204.859308	44463.999811	3880.674920	22894.365835
10.534500	-0.000102	0.000566	-0.002455	0.000496	6209.766852	44440.225647	3868.892181	22856.869820
11.035000	0.000188	0.000085	-0.001346	0.000029	6215.582869	44438.922879	3872.575480	22878.373558
11.535500	0.001440	-0.000371	-0.003268	-0.000362	6228.233311	44432.660737	3868.997822	22896.392549
12.036000	0.002092	0.000566	-0.004045	0.000400	6227.381904	44449.494037	3865.414518	22861.285838
12.536000	-0.001493	-0.000033	-0.002045	0.000525	6198.893435	44380.195626	3869.780705	22855.530874
13.036500	0.001278	0.000255	0.006567	-0.001353	6234.632644	44587.630857	3894.563024	22942.142836
13.539500	0.002536	0.000523	-0.000383	-0.001040	6241.938524	44583.340573	3877.340613	22927.658953
14.037500	-0.002275	-0.000608	0.000910	0.001575	6184.912820	44225.292652	3874.238537	22807.282479
14.534500	-0.002150	-0.000232	0.001850	0.001487	6186.531045	44269.454218	3876.648947	22811.311926
15.033500	0.000392	0.000363	-0.002421	-0.001296	6227.346429	44592.553591	3873.158666	22939.494540
15.535000	0.001653	-0.000286	-0.000206	-0.001575	6239.242897	44556.966092	3879.014274	22952.369374
16.035000	-0.000265	-0.000492	0.003225	-0.001907	6226.996370	44569.123064	3887.917029	22967.757574
16.535500	-0.001921	-0.000234	-0.001468	-0.001400	6210.351354	44545.241490	3875.637363	22944.289690
17.035500	0.002029	0.000495	0.008786	-0.002980	6253.065208	44767.252881	3903.798556	23017.483500
17.537000	-0.000037	0.000554	-0.003318	0.000399	6211.013971	44448.405888	3867.108611	22861.331709
18.036500	0.000293	-0.000956	-0.004381	0.000207	6215.013190	44322.399050	3865.082206	22870.148553
18.536500	-0.000535	0.000540	0.007201	0.001266	6200.544913	44364.089737	3889.825554	22821.430299
19.039500	0.002267	-0.000218	0.000492	0.000352	6229.098897	44379.027002	3876.127077	22863.489966
19.537000	0.000399	-0.000129	-0.000314	0.000353	6214.706413	44387.457733	3874.232977	22863.431279
20.038000	-0.001911	0.000477	0.007075	0.000590	6195.192841	44422.664351	3891.133680	22852.507136
20.535500	-0.001721	0.000970	0.001555	0.001021	6193.362752	44428.693198	3877.052782	22832.724882
21.035500	0.000679	0.000425	0.000383	0.000932	6212.408426	44385.042243	3874.508570	22836.786491
21.535500	0.000214	-0.000167	0.002308	0.000216	6214.341729	44396.928510	3880.719332	22869.737771
22.036000	-0.001802	-0.000357	0.001608	0.000142	6199.453085	44385.873237	3879.245231	22873.148195
22.536500	0.002175	0.000609	-0.000504	0.001102	6222.606231	44386.411901	3872.033694	22828.984566
23.036500	-0.000829	0.000299	-0.002137	0.001182	6198.944474	44349.178106	3868.035366	22825.307122
23.539500	-0.000754	0.000618	0.003759	0.001027	6200.698178	44394.421741	3882.231372	22832.428229
24.037000	0.002335	0.000376	0.003313	0.000802	6226.156822	44392.826332	3881.710397	22842.788180
24.537500	-0.000471	0.000429	0.000174	0.001272	6200.991862	44352.973085	3873.222150	22821.168419
25.035000	0.000427	0.000049	0.006419	0.001014	6209.852032	44341.369572	3888.564904	22833.036551
25.536000	0.001049	0.000056	0.000251	0.000942	6215.175793	44348.858932	3874.174829	22836.324330
26.036000	-0.001274	-0.000091	0.001038	0.000943	6197.372742	44334.746545	3876.019939	22836.307695
26.536000	-0.001973	0.000330	0.001292	0.000990	6191.668833	44370.429754	3876.504541	22834.118100
27.036000	0.001588	-0.000131	0.001884	-0.001355	6237.042097	44550.770673	3883.429433	22942.211001
27.537000	0.002050	-0.000128	-0.003079	-0.001832	6244.313242	44596.912814	3872.874811	22964.288707
28.037000	0.000744	0.001197	-0.000082	-0.000204	6221.648943	44567.783455	3876.082442	22889.095349
28.537000	0.002317	0.000166	0.002505	-0.000869	6238.918975	44532.636345	3883.747320	22919.750818
29.036500	-0.001836	0.000285	-0.001071	0.005071	6161.714366	43978.301357	3861.478847	22647.418982
29.535000	0.001680	-0.000070	0.003627	-0.001105	6235.819484	44532.674944	3886.966674	22930.664551
30.035000	0.000885	0.001102	0.000782	-0.000484	6224.890434	44585.516321	3878.772197	22901.994042
30.538000	-0.001204	-0.000098	-0.000026	0.002175	6188.491128	44216.673431	3870.640670	22779.712499
31.035500	-0.002722	0.000495	-0.004649	0.003184	6169.294759	44177.081844	3857.572406	22733.529983
31.536000	0.002025	0.001160	0.007072	-0.000269	6232.029708	44570.490542	3893.178263	22892.111924
32.036500	0.000550	0.000526	0.000393	-0.000647	6223.563570	44545.840414	3878.241307	22909.520997
32.541500	-0.000482	0.000351	-0.000224	0.001165	6201.731407	44355.785862	3872.541449	22826.101642
33.039500	-0.001756	-0.000049	-0.001958	0.004077	6169.845268	44040.689849	3861.726416	22692.721702
33.537000	0.000395	0.000735	0.005548	0.001543	6205.542775	44356.335237	3885.243438	22808.716963
34.037000	-0.001143	0.000794	0.002434	0.001967	6190.552004	44321.485512	3876.894553	22789.280695
34.540000	-0.001823	0.000180	0.001777	0.001536	6188.655905	44304.092876	3876.364265	22809.067553
35.035000	-0.000730	0.000269	0.002069	0.001362	6198.324497	44329.082027	3877.457064	22817.033237
35.535500	-0.000195	0.000455	-0.001348	0.001688	6199.923355	44315.825169	3868.696082	22802.091792
36.036000	0.001380	0.000118	0.000218	0.001430	6213.972450	44308.193754	3872.953925	22813.909179
36.536000	-0.001564	0.000774	-0.000957	0.001419	6191.519718	44371.867801	3870.232617	22814.408519
37.036500	0.000965	0.001323	-0.000259	0.002538	6202.300000	44317.556590	3869.253654	22763.121469
37.536500	0.001591	0.000091	-0.003423	0.001771	6212.978056	44273.193313	3863.676186	22798.281690
38.037000	-0.001121	0.000614	-0.001816	0.001614	6193.406726	44337.918357	3867.774732	22805.452220
38.537000	-0.000782	0.000502	0.002758	0.001876	6193.999775	44302.308720	3877.869025	22793.441417
39.035000	-0.001243	0.000301	0.003840	0.001445	6193.768544	44324.234641	3881.435562	22813.225626
39.540500	0.000257	0.000683	0.006036	0.001870	6201.987590	44320.100877	3885.623156	22793.709376
40.038000	0.001301	0.000475	0.005159	0.001719	6211.143767	44314.692525	3883.905997	22800.648554
40.535500	-0.000064	0.000557	0.003009	0.001596	6201.625723	44334.276784	3879.119157	22806.275258
41.035500	0.000725	0.000917	0.004965	0.001871	6205.564614	44342.464935	3883.088412	22793.696621
41.536000	-0.000873	0.000156	0.004020	0.001129	6199.012016	44340.624273	3882.606805	22827.764377
42.036500	-0.000429	0.000352	0.001497	0.001379	6200.497678	44335.410801	3876.073129	22816.262088
42.542000	-0.000517	0.000060	0.001342	0.001238	6200.900506	44321.036955	3876.040148	22822.732820
43.037000	0.000144	0.000088	0.000341	0.001279	6205.648460	44319.812337	3873.597290	22820.864754
43.539500	0.004789	0.000373	0.000528	-0.003031	6274.977560	44760.398883	3884.185789	23019.830270
44.037000	0.003568	0.000481	0.004504	-0.000991	6249.569165	44574.566572	3888.781126	22925.415841
44.543500	0.001315	0.000337	0.005897	0.000769	6218.553058	44392.273533	3887.908543	22844.300301
45.035000	-0.000099	0.001540	0.003664	0.003739	6185.003435	44223.786104	3875.621888	22708.185609
45.535500	0.001443	0.000772	0.004706	-0.000545	6229.665266	44559.721281	3888.199971	22904.816780
46.036000	0.000825	0.000198	0.002636	-0.001328	6230.935360	44579.752486	3885.146146	22940.975317
46.536500	0.001118	0.000684	0.005156	0.000913	6215.933521	44411.676187	3885.808049	22837.679643
47.036500	-0.000104	-0.000036	0.002678	0.002342	6195.616420	44206.671571	3876.586065	22772.077975
47.542500	-0.001810	-0.000054	0.001301	0.001332	6190.306247	44301.178054	3875.723019	22818.402535
48.034500	0.000765	0.001302	0.004985	-0.000543	6224.418435	44610.364553	3888.858140	22904.736975
48.537500	-0.000384	0.000018	-0.000176	0.000086	6210.739902	44426.959597	3875.181680	22875.710521
49.038000	0.000055	-0.000332	-0.005367	0.002193	6197.974537	44192.760564	3858.202172	22778.909019
49.535000	0.004785	0.001106	0.005124	-0.002153	6268.082660	44746.358804	3893.024389	22979.114214
50.035500	0.001909	0.000152	0.005644	-0.000688	6234.359563	44513.913146	3890.770710	22911.396074
50.535500	0.010636	-0.010053	0.009146	0.029265	6074.268026	40837.985621	3829.641499	21575.781879
51.035500	0.018839	-0.021651	0.011035	0.290672	4662.177136	23130.085013	3391.743441	13116.472827
51.536000	-0.003685	-0.026100	-0.002362	-0.062336	6696.775687	48048.279699	4026.783521	25968.075136
52.036000	-0.007966	-0.030540	-0.007695	-0.133787	7335.521336	55581.897675	4219.273333	30098.630623
52.533500	0.002642	-0.018903	0.005130	-0.116439	7266.884943	54893.626410	4205.153136	29032.434684
53.034000	0.009450	-0.014743	0.014006	-0.094495	7116.550389	52807.219252	4165.167357	27743.340993
53.534500	0.014394	-0.012104	0.015526	-0.045001	6703.319441	47702.385527	4028.275060	25064.268261
54.034500	0.012707	-0.007568	0.020915	-0.031050	6568.023091	46741.414536	4005.391092	24362.629345
54.535000	0.014404	-0.000791	0.021677	-0.030612	6578.737512	47386.178055	4006.250541	24340.988436
55.035500	0.021080	0.006452	0.021461	-0.031026	6639.652747	48177.550873	4006.776163	24361.479873
55.535500	0.035744	0.012126	0.037170	-0.029188	6752.407479	48579.366827	4044.117202	24270.729056
56.036000	0.046837	0.017858	0.047849	-0.008397	6666.836141	47022.307173	4016.776314	23270.315989
56.539000	0.055866	0.027081	0.050442	0.013684	6554.671692	45735.000781	3965.851373	22259.063548
57.036500	0.060494	0.029408	0.062630	0.019287	6546.426755	45413.064430	3982.804216	22010.535476
57.536500	0.066915	0.034334	0.067634	0.040599	6422.769950	43838.565960	3941.282194	21093.914824
58.034500	0.074338	0.038007	0.069359	0.070882	6241.012856	41405.040763	3872.227693	19866.491201
58.535000	0.077885	0.041541	0.083624	0.101142	6040.384846	39106.497785	3835.488155	18722.569503
59.035500	0.086659	0.044921	0.088332	0.104430	6080.589443	39114.270357	3838.696475	18603.027585
59.535000	0.092422	0.048256	0.091248	0.118025	6023.352962	38268.542657	3814.832716	18118.160079
60.036000	0.093286	0.053131	0.098071	0.151265	5797.401046	36031.874592	3758.259766	16994.659820
60.535500	0.096864	0.052764	0.105239	0.164114	5735.737322	35038.599647	3746.535330	16582.887850
61.036000	0.102165	0.055107	0.105110	0.157742	5813.589083	35690.167872	3759.427324	16785.566400
61.536000	0.100495	0.055609	0.103485	0.180139	5655.335639	34077.760731	3710.825037	16086.142290
62.037000	0.099357	0.058039	0.100875	0.174417	5684.804718	34668.597288	3716.970732	16261.423371
62.534500	0.098253	0.058546	0.101392	0.170948	5700.132751	34960.811069	3724.905712	16368.801435
63.039500	0.103180	0.061926	0.109605	0.165381	5769.156260	35628.339101	3752.912429	16542.946311
63.535500	0.107683	0.062510	0.113209	0.160986	5829.001951	36005.755399	3769.580212	16682.014140
64.040500	0.110435	0.062759	0.114726	0.158877	5862.209371	36186.054259	3777.237499	16749.237063
64.535500	0.109331	0.063340	0.114394	0.158328	5858.400474	36272.759276	3777.698811	16766.792298
65.036000	0.109875	0.064537	0.113967	0.161016	5843.727300	36158.394038	3771.113597	16681.066959
65.539000	0.110761	0.064357	0.118122	0.160156	5855.674165	36210.588316	3781.739743	16708.451941
66.038500	0.110263	0.063651	0.113458	0.160545	5849.602163	36126.650243	3771.034173	16696.063388
66.539500	0.109395	0.065110	0.111251	0.164711	5815.351235	35920.140489	3757.706791	16564.052686
67.036500	0.108596	0.065862	0.113738	0.165206	5806.613795	35939.679595	3761.851178	16548.462407
67.537000	0.112319	0.065986	0.114714	0.164874	5834.090083	35974.399369	3764.582090	16558.924780
68.038000	0.112053	0.067928	0.115503	0.167432	5814.926669	35927.462783	3760.888876	16478.514537
68.534500	0.113404	0.067588	0.119832	0.168290	5818.258528	35836.479714	3768.148181	16451.666649
69.037500	0.114039	0.068770	0.120744	0.170188	5809.726676	35782.222976	3766.082718	16392.452813
69.537000	0.114915	0.068733	0.122062	0.170945	5810.526154	35722.107957	3767.257868	16368.888970
70.036000	0.115090	0.069486	0.120851	0.172019	5804.464824	35697.892433	3762.476055	16335.553440
70.536000	0.115770	0.071041	0.124053	0.176026	5782.132204	35513.239000	3760.797592	16211.892731
71.036500	0.118257	0.071309	0.123005	0.175717	5800.889283	35556.641790	3759.261882	16221.400644
71.536500	0.121052	0.072808	0.126029	0.177257	5809.344798	35553.478236	3762.351031	16174.121387
72.037500	0.125204	0.072927	0.124651	0.177644	5834.873157	35533.421561	3758.676752	16162.292452
72.537000	0.120894	0.073243	0.128378	0.180858	5784.088877	35316.310950	3759.744229	16064.287871
73.035000	0.119743	0.072956	0.124774	0.179446	5785.833193	35400.364490	3755.195250	16107.249115
73.535500	0.124591	0.073175	0.132432	0.178591	5824.266793	35480.873906	3772.989657	16133.322371
74.035500	0.121256	0.073615	0.127959	0.178915	5799.551648	35489.567212	3762.920686	16123.442178
74.535500	0.123337	0.073396	0.127610	0.181133	5798.627759	35307.151894	3757.576207	16055.919324
75.036500	0.123773	0.073962	0.129243	0.179702	5811.206953	35456.530939	3763.958195	16099.440904
75.539000	0.125580	0.074658	0.128950	0.178050	5834.662529	35633.072411	3766.802185	16149.851315
76.036000	0.124062	0.075178	0.130869	0.177615	5827.300324	35705.143168	3771.751918	16163.167618
76.537000	0.123674	0.075959	0.128985	0.177472	5825.640249	35775.033435	3768.088604	16167.552741
77.037000	0.128021	0.076197	0.127910	0.177344	5856.166915	35802.772941	3766.102101	16171.467914
77.535000	0.127642	0.076499	0.126400	0.176044	5862.496434	35924.422075	3765.663253	16211.349986
78.035000	0.128895	0.076645	0.131216	0.175264	5876.493898	35994.894988	3777.458386	16235.327224
78.534500	0.126340	0.076510	0.130918	0.174007	5867.549140	36080.566019	3779.493811	16274.073810
79.038000	0.128826	0.078212	0.137852	0.174505	5881.256922	36172.605853	3793.277926	16258.686754
79.536000	0.130168	0.076469	0.134790	0.173073	5900.504776	36148.848333	3789.768331	16302.917312
80.039500	0.130728	0.077389	0.139856	0.172636	5907.458225	36252.923574	3801.673994	16316.455427
80.536500	0.129040	0.078732	0.136980	0.175776	5873.959097	36115.177523	3788.665841	16219.574387
81.037000	0.131044	0.078070	0.135666	0.171819	5915.369012	36368.189917	3794.358865	16341.768907
81.537500	0.129911	0.078148	0.136362	0.171195	5911.810664	36422.363946	3797.214578	16361.139088
82.037000	0.134355	0.079103	0.135090	0.171452	5941.196638	36476.276516	3793.906040	16353.139958
82.535000	0.131256	0.078580	0.139927	0.173184	5907.315830	36302.381687	3800.635057	16299.496210
83.035500	0.131516	0.079250	0.141383	0.171348	5921.963953	36495.658277	3807.819086	16356.364628
83.535000	0.133982	0.079443	0.141877	0.171096	5941.078502	36530.182439	3809.456753	16364.214922
84.035500	0.133685	0.079837	0.143460	0.171174	5938.433767	36554.567062	3812.765291	16361.775081
84.536000	0.131192	0.079699	0.136685	0.172998	5908.162987	36402.844397	3794.011750	16305.224465
85.041500	0.135391	0.080204	0.143258	0.171411	5948.806083	36564.636928	3811.798032	16354.414626
85.537000	0.135855	0.080848	0.141634	0.172042	5947.626456	36565.705393	3806.850777	16334.849312
86.037000	0.134802	0.080198	0.131769	0.171258	5945.722106	36576.102141	3787.178744	16359.163965
86.537000	0.134739	0.081344	0.134988	0.175358	5916.456541	36347.685657	3785.291787	16232.414155
87.034500	0.134122	0.081060	0.141245	0.173158	5927.551753	36495.655805	3803.561553	16300.286308
87.535000	0.136666	0.081688	0.141901	0.173436	5943.503914	36522.748816	3804.385456	16291.695973
88.035500	0.135638	0.081224	0.134516	0.173172	5938.122592	36507.337450	3788.966222	16299.865841
88.535500	0.132300	0.081843	0.138127	0.174548	5905.082617	36448.778930	3793.778090	16257.374517
89.036000	0.133264	0.082294	0.144288	0.174954	5908.973681	36452.222491	3806.286303	16244.865519
89.538500	0.135689	0.081328	0.144036	0.174835	5926.777127	36386.784430	3805.993514	16248.517819
90.039500	0.135261	0.082125	0.141159	0.176060	5915.198800	36353.855385	3797.066711	16210.849171
90.536500	0.135434	0.083176	0.140278	0.178099	5902.179673	36277.830602	3790.761514	16148.370264
91.037000	0.133855	0.082378	0.139158	0.178000	5891.890264	36224.164329	3788.566363	16151.396225
91.534500	0.133507	0.082138	0.143616	0.178302	5887.380557	36182.570670	3797.530881	16142.155217
92.037500	0.134191	0.083978	0.143287	0.180521	5876.761544	36153.503292	3792.024196	16074.506472
92.535000	0.136163	0.083195	0.141414	0.181887	5880.955235	35989.346064	3785.073448	16033.062283
93.035500	0.135576	0.083534	0.139130	0.182490	5872.732976	35969.167990	3778.916117	16014.777654
93.535500	0.135125	0.082503	0.139321	0.183015	5866.011846	35850.930062	3778.209492	15998.919929
94.038500	0.132491	0.082918	0.135083	0.184509	5837.749026	35769.192475	3766.120881	15953.832918
94.536000	0.133287	0.082726	0.141389	0.186635	5828.694037	35594.089489	3774.919355	15889.922053
95.036000	0.131954	0.083369	0.134064	0.187028	5816.985371	35612.948829	3758.735347	15878.141846
95.537000	0.136449	0.084165	0.144308	0.188990	5834.180747	35525.254358	3776.112992	15819.522073
96.037000	0.134402	0.082936	0.140227	0.189531	5816.617228	35392.495585	3766.373631	15803.384749
