sample name	sample
index	417
start time	 03-08-2021  11:24:56 AM


Wavelength (nm)	Absorbance
494.344910	NaN
494.563924	NaN
494.782919	NaN
495.001897	-0.259347
495.220856	0.244096
495.439797	0.120654
495.658719	-0.083779
495.877624	-0.166270
496.096510	-0.182945
496.315378	-0.216992
496.534227	-0.218952
496.753059	-0.205147
496.971872	-0.169655
497.190667	0.019372
497.409444	0.041144
497.628203	0.049818
497.846943	0.049929
498.065665	0.051835
498.284369	0.054298
498.503055	0.055202
498.721723	0.055317
498.940372	0.055374
499.159003	0.056011
499.377616	0.056256
499.596210	0.056967
499.814787	0.058364
500.033345	0.058921
500.251885	0.058668
500.470406	0.059467
500.688910	0.059916
500.907395	0.061376
501.125862	0.062151
501.344311	0.062182
501.562742	0.061696
501.781154	0.062395
501.999548	0.063186
502.217924	0.063073
502.436282	0.062107
502.654621	0.062419
502.872942	0.061845
503.091245	0.061642
503.309530	0.061559
503.527797	0.061793
503.746045	0.060536
503.964275	0.059907
504.182487	0.059821
504.400681	0.059800
504.618856	0.059460
504.837013	0.059305
505.055152	0.059013
505.273273	0.058909
505.491376	0.059131
505.709460	0.059850
505.927526	0.060092
506.145574	0.060079
506.363604	0.060665
506.581615	0.061315
506.799608	0.061548
507.017583	0.061810
507.235540	0.061520
507.453478	0.061608
507.671399	0.061249
507.889301	0.060875
508.107185	0.060560
508.325050	0.060825
508.542898	0.060644
508.760727	0.060496
508.978538	0.060229
509.196330	0.061281
509.414105	0.061185
509.631861	0.061978
509.849599	0.061915
510.067319	0.062664
510.285021	0.062763
510.502704	0.062647
510.720369	0.062659
510.938016	0.063200
511.155645	0.062658
511.373255	0.062577
511.590848	0.062442
511.808422	0.063122
512.025977	0.063211
512.243515	0.063861
512.461034	0.063573
512.678536	0.063329
512.896018	0.063061
513.113483	0.063362
513.330930	0.063173
513.548358	0.063850
513.765768	0.063720
513.983160	0.063409
514.200533	0.062455
514.417889	0.062927
514.635226	0.063683
514.852545	0.063386
515.069845	0.062986
515.287128	0.063356
515.504392	0.062331
515.721638	0.062481
515.938866	0.063165
516.156075	0.063139
516.373267	0.063439
516.590440	0.063539
516.807594	0.063989
517.024731	0.064505
517.241850	0.065282
517.458950	0.065716
517.676032	0.065237
517.893095	0.064835
518.110141	0.065086
518.327168	0.065128
518.544177	0.065339
518.761168	0.065820
518.978141	0.066068
519.195095	0.065095
519.412031	0.065597
519.628949	0.065993
519.845849	0.066217
520.062731	0.066779
520.279594	0.066935
520.496439	0.066191
520.713266	0.065750
520.930074	0.065976
521.146865	0.066623
521.363637	0.065959
521.580391	0.065897
521.797127	0.066118
522.013844	0.065895
522.230543	0.066080
522.447224	0.066793
522.663887	0.067266
522.880532	0.067618
523.097158	0.067578
523.313766	0.068430
523.530356	0.068823
523.746928	0.069161
523.963481	0.069586
524.180017	0.068991
524.396534	0.069476
524.613032	0.069509
524.829513	0.069177
525.045975	0.069447
525.262420	0.068887
525.478845	0.068766
525.695253	0.069058
525.911643	0.069136
526.128014	0.069563
526.344367	0.069180
526.560702	0.069766
526.777018	0.069829
526.993316	0.069872
527.209597	0.070514
527.425858	0.070452
527.642102	0.069966
527.858328	0.070092
528.074535	0.070502
528.290724	0.070796
528.506894	0.070266
528.723047	0.070566
528.939181	0.070918
529.155297	0.071045
529.371395	0.071668
529.587475	0.072290
529.803536	0.072145
530.019579	0.072110
530.235604	0.072301
530.451611	0.073094
530.667600	0.072992
530.883570	0.072828
531.099522	0.072701
531.315456	0.072661
531.531372	0.072636
531.747269	0.073180
531.963148	0.074098
532.179009	0.074175
532.394852	0.074450
532.610676	0.074859
532.826482	0.074957
533.042271	0.074630
533.258040	0.075015
533.473792	0.075069
533.689525	0.075090
533.905240	0.074744
534.120937	0.074782
534.336616	0.074563
534.552277	0.074874
534.767919	0.075106
534.983543	0.075838
535.199149	0.075611
535.414736	0.075695
535.630306	0.075478
535.845857	0.075319
536.061390	0.075799
536.276904	0.075938
536.492401	0.075744
536.707879	0.075575
536.923339	0.075699
537.138781	0.076421
537.354204	0.076712
537.569610	0.076768
537.784997	0.077137
538.000366	0.076896
538.215716	0.076886
538.431049	0.076923
538.646363	0.077202
538.861659	0.077593
539.076937	0.077256
539.292196	0.077741
539.507438	0.078402
539.722661	0.078669
539.937866	0.078919
540.153052	0.079057
540.368221	0.079429
540.583371	0.079581
540.798503	0.079707
541.013617	0.080047
541.228712	0.079395
541.443789	0.079416
541.658848	0.079485
541.873889	0.079428
542.088912	0.079874
542.303916	0.079864
542.518902	0.080175
542.733870	0.079955
542.948820	0.080310
543.163752	0.080698
543.378665	0.081016
543.593560	0.081137
543.808437	0.081555
544.023295	0.081429
544.238136	0.081924
544.452958	0.081799
544.667762	0.082076
544.882548	0.082129
545.097315	0.082638
545.312064	0.082386
545.526795	0.082310
545.741508	0.082283
545.956203	0.082578
546.170879	0.082253
546.385537	0.082704
546.600177	0.082924
546.814799	0.083037
547.029402	0.082735
547.243988	0.083037
547.458555	0.083196
547.673103	0.083308
547.887634	0.083209
548.102146	0.083467
548.316640	0.083542
548.531116	0.083594
548.745574	0.083363
548.960013	0.084078
549.174435	0.084267
549.388838	0.084390
549.603222	0.084390
549.817589	0.084867
550.031937	0.085198
550.246267	0.085161
550.460579	0.085387
550.674873	0.085907
550.889148	0.085683
551.103405	0.085600
551.317644	0.085687
551.531865	0.085989
551.746068	0.085892
551.960252	0.086026
552.174418	0.086217
552.388566	0.085743
552.602696	0.085589
552.816807	0.085431
553.030900	0.085539
553.244975	0.085695
553.459032	0.085467
553.673070	0.085478
553.887091	0.085213
554.101093	0.085074
554.315077	0.085405
554.529042	0.085588
554.742990	0.085884
554.956919	0.085777
555.170830	0.085863
555.384722	0.086307
555.598597	0.086287
555.812453	0.086727
556.026291	0.087317
556.240111	0.087751
556.453913	0.087836
556.667696	0.088086
556.881461	0.088879
557.095208	0.088950
557.308937	0.089358
557.522647	0.089728
557.736339	0.089436
557.950013	0.089299
558.163669	0.089236
558.377307	0.089148
558.590926	0.089226
558.804527	0.088912
559.018110	0.089255
559.231675	0.089136
559.445221	0.089169
559.658749	0.089529
559.872259	0.089726
560.085751	0.089928
560.299225	0.089893
560.512680	0.090222
560.726117	0.090242
560.939536	0.090113
561.152937	0.090088
561.366319	0.089971
561.579683	0.090232
561.793029	0.090225
562.006357	0.090078
562.219667	0.090329
562.432958	0.090021
562.646231	0.090293
562.859486	0.090529
563.072723	0.090430
563.285941	0.090889
563.499141	0.090667
563.712323	0.090862
563.925487	0.090553
564.138632	0.090703
564.351760	0.090820
564.564869	0.090471
564.777960	0.090601
564.991032	0.090543
565.204087	0.090364
565.417123	0.090768
565.630141	0.090907
565.843140	0.091782
566.056122	0.092078
566.269085	0.092560
566.482030	0.092764
566.694957	0.092908
566.907866	0.093404
567.120756	0.093700
567.333628	0.093793
567.546482	0.093840
567.759318	0.093748
567.972135	0.094025
568.184935	0.093653
568.397716	0.093824
568.610478	0.093572
568.823223	0.093706
569.035949	0.093938
569.248657	0.093669
569.461347	0.093840
569.674019	0.093865
569.886672	0.093366
570.099308	0.093378
570.311925	0.093501
570.524523	0.093713
570.737104	0.093631
570.949666	0.093376
571.162210	0.093862
571.374736	0.093886
571.587244	0.094120
571.799733	0.094479
572.012205	0.094518
572.224658	0.094931
572.437092	0.095024
572.649509	0.095356
572.861907	0.095722
573.074287	0.095951
573.286649	0.095950
573.498993	0.095877
573.711318	0.095948
573.923625	0.096298
574.135914	0.096409
574.348185	0.096583
574.560438	0.096642
574.772672	0.096482
574.984888	0.096065
575.197086	0.095817
575.409266	0.096103
575.621427	0.096503
575.833570	0.096828
576.045695	0.096925
576.257802	0.096969
576.469890	0.096869
576.681961	0.097024
576.894013	0.097328
577.106046	0.097602
577.318062	0.097478
577.530059	0.097423
577.742039	0.097419
577.954000	0.097205
578.165942	0.097241
578.377867	0.097362
578.589773	0.097433
578.801661	0.097533
579.013531	0.097698
579.225382	0.097975
579.437216	0.097858
579.649031	0.097506
579.860828	0.097621
580.072606	0.097985
580.284367	0.098160
580.496109	0.098425
580.707833	0.098196
580.919539	0.098661
581.131227	0.098706
581.342896	0.099149
581.554547	0.099859
581.766180	0.100225
581.977795	0.100278
582.189391	0.100596
582.400969	0.101142
582.612529	0.101488
582.824071	0.101436
583.035595	0.101517
583.247100	0.101419
583.458587	0.101442
583.670056	0.101520
583.881506	0.101742
584.092939	0.101671
584.304353	0.101388
584.515749	0.101712
584.727127	0.101939
584.938486	0.102211
585.149828	0.102268
585.361151	0.102309
585.572456	0.102403
585.783742	0.102381
585.995011	0.102678
586.206261	0.102238
586.417493	0.102025
586.628706	0.102186
586.839902	0.102125
587.051079	0.102168
587.262238	0.102441
587.473379	0.102182
587.684502	0.102415
587.895606	0.102304
588.106692	0.102710
588.317760	0.103234
588.528810	0.103019
588.739841	0.102993
588.950855	0.103129
589.161850	0.103033
589.372827	0.103416
589.583785	0.103423
589.794726	0.103580
590.005648	0.103856
590.216552	0.103725
590.427437	0.103908
590.638305	0.103946
590.849154	0.104480
591.059985	0.104145
591.270798	0.104293
591.481592	0.104072
591.692369	0.103922
591.903127	0.103989
592.113867	0.103769
592.324588	0.103749
592.535292	0.104220
592.745977	0.103905
592.956644	0.104346
593.167293	0.104388
593.377923	0.104597
593.588536	0.105028
593.799130	0.105152
594.009706	0.105892
594.220263	0.106456
594.430803	0.106362
594.641324	0.106266
594.851827	0.106522
595.062312	0.106654
595.272778	0.107015
595.483227	0.106755
595.693657	0.106984
595.904069	0.107118
596.114462	0.106800
596.324838	0.106674
596.535195	0.106902
596.745534	0.106915
596.955855	0.106860
597.166157	0.106726
597.376441	0.106943
597.586707	0.106813
597.796955	0.106741
598.007185	0.106979
598.217396	0.107560
598.427589	0.107655
598.637764	0.107628
598.847921	0.107904
599.058060	0.107937
599.268180	0.107797
599.478282	0.107917
599.688366	0.107674
599.898431	0.107484
600.108479	0.106952
600.318508	0.107002
600.528519	0.107038
600.738511	0.107029
600.948486	0.107057
601.158442	0.107565
601.368380	0.107508
601.578300	0.107665
601.788202	0.107961
601.998085	0.108396
602.207950	0.108523
602.417797	0.108793
602.627626	0.109284
602.837436	0.109620
603.047228	0.109669
603.257002	0.109877
603.466758	0.110281
603.676496	0.110282
603.886215	0.110580
604.095916	0.110752
604.305599	0.110877
604.515264	0.110972
604.724910	0.111232
604.934538	0.111262
605.144148	0.111385
605.353740	0.111176
605.563314	0.111255
605.772869	0.111445
605.982406	0.111382
606.191925	0.111236
606.401425	0.110963
606.610908	0.110733
606.820372	0.110902
607.029818	0.110774
607.239246	0.110859
607.448655	0.111035
607.658047	0.110882
607.867420	0.111177
608.076775	0.111598
608.286111	0.111712
608.495430	0.111774
608.704730	0.111737
608.914012	0.112000
609.123275	0.111808
609.332521	0.111880
609.541748	0.112016
609.750957	0.112273
609.960148	0.112077
610.169321	0.112161
610.378475	0.112273
610.587611	0.112498
610.796729	0.112793
611.005829	0.113153
611.214910	0.113226
611.423974	0.113060
611.633019	0.112954
611.842045	0.113119
612.051054	0.113137
612.260044	0.113215
612.469017	0.113107
612.677970	0.113182
612.886906	0.113397
613.095824	0.113563
613.304723	0.113741
613.513604	0.113785
613.722467	0.114025
613.931311	0.114066
614.140138	0.114071
614.348946	0.114298
614.557736	0.114183
614.766507	0.114087
614.975261	0.114040
615.183996	0.113988
615.392713	0.114228
615.601412	0.114246
615.810092	0.114170
616.018754	0.114515
616.227399	0.114457
616.436024	0.114607
616.644632	0.114773
616.853222	0.114984
617.061793	0.115454
617.270346	0.115347
617.478880	0.115396
617.687397	0.115895
617.895895	0.115927
618.104375	0.115896
618.312837	0.116049
618.521281	0.116064
618.729706	0.116082
618.938113	0.116008
619.146502	0.115989
619.354873	0.116018
619.563226	0.116010
619.771560	0.115808
619.979876	0.116060
620.188174	0.115974
620.396453	0.116069
620.604715	0.116201
620.812958	0.115964
621.021183	0.116230
621.229390	0.116156
621.437578	0.116176
621.645748	0.116526
621.853900	0.116544
622.062034	0.116456
622.270150	0.116507
622.478247	0.116521
622.686326	0.116952
622.894387	0.116852
623.102430	0.117115
623.310454	0.116975
623.518461	0.116995
623.726449	0.117207
623.934418	0.117353
624.142370	0.117430
624.350303	0.117585
624.558218	0.117572
624.766115	0.117869
624.973994	0.118083
625.181855	0.118269
625.389697	0.118489
625.597521	0.118703
625.805327	0.118850
626.013114	0.119120
626.220883	0.119089
626.428634	0.119188
626.636367	0.119100
626.844082	0.119163
627.051778	0.119114
627.259457	0.119069
627.467117	0.118985
627.674758	0.119208
627.882382	0.119180
628.089987	0.119293
628.297574	0.119463
628.505143	0.119651
628.712694	0.119588
628.920226	0.119990
629.127740	0.119990
629.335236	0.120005
629.542714	0.120031
629.750174	0.120159
629.957615	0.120061
630.165038	0.120033
630.372443	0.119884
630.579829	0.119915
630.787198	0.119802
630.994548	0.119878
631.201880	0.120039
631.409194	0.119994
631.616489	0.119840
631.823766	0.119910
632.031025	0.120046
632.238266	0.120257
632.445489	0.120475
632.652693	0.120620
632.859879	0.120533
633.067047	0.120490
633.274197	0.120576
633.481329	0.120898
633.688442	0.121182
633.895537	0.121059
634.102614	0.121177
634.309672	0.121195
634.516713	0.121212
634.723735	0.121450
634.930739	0.121775
635.137724	0.121900
635.344692	0.121958
635.551641	0.122030
635.758572	0.122458
635.965485	0.122639
636.172379	0.122939
636.379256	0.122991
636.586114	0.123245
636.792954	0.123117
636.999775	0.123171
637.206579	0.123359
637.413364	0.123561
637.620131	0.123382
637.826880	0.123495
638.033610	0.123525
638.240323	0.123680
638.447017	0.123663
638.653692	0.123831
638.860350	0.124083
639.066990	0.124144
639.273611	0.123976
639.480214	0.124283
639.686798	0.124347
639.893365	0.124278
640.099913	0.124315
640.306443	0.124444
640.512955	0.124608
640.719449	0.124654
640.925924	0.124844
641.132381	0.125385
641.338820	0.125527
641.545241	0.125646
641.751644	0.125769
641.958028	0.125979
642.164394	0.126129
642.370742	0.126050
642.577071	0.126119
642.783383	0.125959
642.989676	0.125750
643.195951	0.125742
643.402207	0.125873
643.608446	0.126080
643.814666	0.126165
644.020868	0.126189
644.227052	0.126267
644.433218	0.126203
644.639365	0.126394
644.845494	0.126324
645.051605	0.126436
645.257698	0.126354
645.463772	0.126333
645.669828	0.126324
645.875866	0.126558
646.081886	0.126754
646.287888	0.127099
646.493871	0.127027
646.699836	0.127164
646.905783	0.127034
647.111712	0.127122
647.317622	0.126959
647.523514	0.127123
647.729388	0.127119
647.935244	0.127222
648.141082	0.127225
648.346901	0.127386
648.552702	0.127715
648.758485	0.128028
648.964250	0.128225
649.169996	0.128473
649.375724	0.128733
649.581434	0.128862
649.787126	0.128992
649.992800	0.129033
650.198455	0.129211
650.404092	0.129107
650.609711	0.129228
650.815311	0.129203
651.020894	0.129302
651.226458	0.129078
651.432004	0.128938
651.637532	0.128820
651.843041	0.128906
652.048532	0.128961
652.254006	0.129112
652.459460	0.128915
652.664897	0.129120
652.870315	0.129494
653.075716	0.129830
653.281097	0.130136
653.486461	0.130293
653.691807	0.130450
653.897134	0.130641
654.102443	0.130659
654.307734	0.130941
654.513006	0.130898
654.718261	0.130713
654.923497	0.130739
655.128715	0.130612
655.333915	0.130798
655.539096	0.130952
655.744259	0.130913
655.949404	0.131005
656.154531	0.131098
656.359640	0.131356
656.564730	0.131439
656.769802	0.131670
656.974856	0.131812
657.179892	0.131913
657.384909	0.131722
657.589908	0.131752
657.794889	0.132049
657.999852	0.132072
658.204797	0.132031
658.409723	0.132319
658.614631	0.132220
658.819521	0.132242
659.024393	0.132321
659.229246	0.132582
659.434081	0.132846
659.638898	0.132889
659.843697	0.132791
660.048478	0.133001
660.253240	0.132864
660.457984	0.133132
660.662710	0.133306
660.867417	0.133133
661.072107	0.133317
661.276778	0.133233
661.481431	0.133214
661.686066	0.133482
661.890682	0.133394
662.095281	0.133477
662.299861	0.133410
662.504422	0.133681
662.708966	0.134077
662.913491	0.134176
663.117999	0.134350
663.322488	0.134598
663.526958	0.134726
663.731411	0.135055
663.935845	0.135177
664.140261	0.135331
664.344659	0.135148
664.549038	0.135166
664.753400	0.135140
664.957743	0.135319
665.162068	0.135205
665.366375	0.135260
665.570663	0.135391
665.774933	0.135718
665.979185	0.135903
666.183419	0.136089
666.387635	0.136360
666.591832	0.136766
666.796011	0.136938
667.000172	0.137431
667.204315	0.137553
667.408439	0.137544
667.612545	0.137467
667.816634	0.137595
668.020703	0.138046
668.224755	0.138227
668.428788	0.138179
668.632803	0.138351
668.836800	0.138501
669.040779	0.138675
669.244739	0.138753
669.448681	0.139006
669.652605	0.139086
669.856511	0.138950
670.060399	0.139055
670.264268	0.139194
670.468119	0.139169
670.671952	0.139137
670.875767	0.139106
671.079563	0.139259
671.283341	0.139116
671.487101	0.139126
671.690843	0.139135
671.894567	0.138907
672.098272	0.138720
672.301959	0.138668
672.505628	0.138535
672.709278	0.139069
672.912911	0.139215
673.116525	0.139502
673.320121	0.139499
673.523699	0.139741
673.727258	0.139977
673.930799	0.140263
674.134322	0.140613
674.337827	0.140704
674.541314	0.140518
674.744782	0.140531
674.948232	0.140625
675.151664	0.140902
675.355078	0.141044
675.558474	0.141141
675.761851	0.141263
675.965210	0.141311
676.168551	0.141508
676.371873	0.141668
676.575178	0.141800
676.778464	0.141877
676.981732	0.141970
677.184981	0.141992
677.388213	0.142274
677.591426	0.142400
677.794621	0.142429
677.997798	0.142516
678.200956	0.142533
678.404097	0.142687
678.607219	0.142742
678.810323	0.142714
679.013408	0.142989
679.216476	0.143087
679.419525	0.143204
679.622556	0.143216
679.825569	0.143582
680.028563	0.143680
680.231540	0.143668
680.434498	0.143700
680.637438	0.143934
680.840359	0.143839
681.043263	0.143588
681.246148	0.143807
681.449015	0.143904
681.651864	0.143694
681.854694	0.143759
682.057506	0.143855
682.260301	0.143978
682.463076	0.144054
682.665834	0.144411
682.868573	0.144774
683.071295	0.144849
683.273998	0.145183
683.476682	0.145394
683.679349	0.145848
683.881997	0.146189
684.084627	0.146416
684.287239	0.146585
684.489833	0.146523
684.692408	0.146725
684.894965	0.146546
685.097504	0.146445
685.300025	0.146655
685.502527	0.146635
685.705012	0.146648
685.907478	0.146775
686.109925	0.146676
686.312355	0.146700
686.514766	0.146702
686.717159	0.146862
686.919534	0.147033
687.121891	0.146951
687.324230	0.147002
687.526550	0.146982
687.728852	0.146752
687.931136	0.146805
688.133401	0.146902
688.335649	0.146888
688.537878	0.147034
688.740089	0.147163
688.942281	0.147335
689.144456	0.147300
689.346612	0.147444
689.548750	0.147943
689.750870	0.148210
689.952971	0.148237
690.155055	0.148384
690.357120	0.148592
690.559167	0.148463
690.761195	0.148321
690.963206	0.148453
691.165198	0.148395
691.367172	0.148270
691.569128	0.148276
691.771065	0.148294
691.972984	0.148445
692.174885	0.148613
692.376768	0.148806
692.578633	0.149049
692.780479	0.149044
692.982308	0.149283
693.184118	0.149430
693.385909	0.149469
693.587683	0.149535
693.789438	0.149495
693.991175	0.149504
694.192894	0.149799
694.394595	0.149916
694.596277	0.149914
694.797941	0.149793
694.999587	0.149735
695.201215	0.149745
695.402824	0.149900
695.604416	0.149981
695.805989	0.149944
696.007543	0.149783
696.209080	0.149970
696.410598	0.150168
696.612099	0.150373
696.813580	0.150448
697.015044	0.150471
697.216490	0.150666
697.417917	0.150699
697.619326	0.150726
697.820717	0.150838
698.022089	0.150737
698.223444	0.151005
698.424780	0.151080
698.626098	0.151479
698.827397	0.151814
699.028679	0.151828
699.229942	0.151934
699.431187	0.151860
699.632414	0.152025
699.833622	0.152048
700.034813	0.151827
700.235985	0.151831
700.437139	0.151641
700.638274	0.151616
700.839392	0.151603
701.040491	0.151671
701.241572	0.151967
701.442635	0.151927
701.643679	0.152176
701.844706	0.152501
702.045714	0.152614
702.246704	0.152826
702.447675	0.152870
702.648629	0.153035
702.849564	0.153023
703.050481	0.153016
703.251380	0.153139
703.452260	0.153212
703.653122	0.153196
703.853966	0.153156
704.054792	0.153059
704.255600	0.153222
704.456389	0.153407
704.657160	0.153550
704.857913	0.153583
705.058648	0.153569
705.259365	0.153426
705.460063	0.153310
705.660743	0.153433
705.861405	0.153528
706.062048	0.153357
706.262674	0.153172
706.463281	0.153117
706.663870	0.153080
706.864441	0.153186
707.064993	0.153000
707.265527	0.152953
707.466043	0.153140
707.666541	0.153226
707.867021	0.153413
708.067482	0.153722
708.267925	0.153770
708.468350	0.153899
708.668757	0.154037
708.869145	0.154466
709.069516	0.154733
709.269868	0.154634
709.470201	0.154767
709.670517	0.155070
709.870814	0.154883
710.071093	0.155077
710.271354	0.155159
710.471597	0.155020
710.671821	0.155009
710.872028	0.154970
711.072216	0.155228
711.272385	0.155098
711.472537	0.155006
711.672670	0.155064
711.872785	0.155029
712.072882	0.155107
712.272961	0.155282
712.473021	0.155385
712.673063	0.155345
712.873087	0.155179
713.073093	0.155236
713.273081	0.154950
713.473050	0.154878
713.673001	0.154956
713.872934	0.154877
714.072849	0.154814
714.272745	0.154641
714.472623	0.154686
714.672483	0.154469
714.872325	0.154383
715.072148	0.154409
715.271954	0.154602
715.471741	0.154442
715.671509	0.154386
715.871260	0.154241
716.070992	0.154249
716.270707	0.154324
716.470403	0.154589
716.670080	0.154439
716.869740	0.154367
717.069381	0.153976
717.269004	0.154030
717.468609	0.154099
717.668195	0.154081
717.867764	0.154213
718.067314	0.154096
718.266846	0.154006
718.466360	0.154046
718.665855	0.154153
718.865332	0.154296
719.064791	0.154138
719.264232	0.154085
719.463655	0.154201
719.663059	0.153997
719.862445	0.153913
720.061813	0.153777
720.261163	0.153794
720.460494	0.153764
720.659807	0.153744
720.859102	0.153896
721.058379	0.153981
721.257638	0.153820
721.456878	0.153594
721.656100	0.153736
721.855304	0.153942
722.054490	0.153918
722.253657	0.153906
722.452806	0.154014
722.651937	0.153982
722.851050	0.153827
723.050145	0.153844
723.249221	0.154030
723.448279	0.154066
723.647319	0.153803
723.846340	0.153971
724.045344	0.153978
724.244329	0.153857
724.443296	0.153866
724.642245	0.153819
724.841175	0.153970
725.040088	0.153922
725.238982	0.153745
725.437857	0.153863
725.636715	0.153956
725.835554	0.153831
726.034376	0.153733
726.233179	0.153593
726.431963	0.153765
726.630730	0.153625
726.829478	0.153574
727.028208	0.153572
727.226920	0.153606
727.425614	0.153197
727.624289	0.153186
727.822946	0.153413
728.021585	0.153464
728.220206	0.153217
728.418808	0.153244
728.617392	0.153215
728.815958	0.153356
729.014506	0.153364
729.213036	0.153429
729.411547	0.153432
729.610040	0.153138
729.808515	0.153003
730.006972	0.152985
730.205410	0.152786
730.403831	0.152631
730.602233	0.152524
730.800616	0.152358
730.998982	0.152387
731.197329	0.152450
731.395658	0.152499
731.593969	0.152403
731.792262	0.152318
731.990536	0.152165
732.188793	0.152231
732.387031	0.151869
732.585250	0.151771
732.783452	0.151740
732.981635	0.151676
733.179800	0.151649
733.377947	0.151687
733.576076	0.151640
733.774186	0.151893
733.972278	0.151781
734.170352	0.152016
734.368408	0.151965
734.566446	0.151714
734.764465	0.151660
734.962466	0.151622
735.160449	0.151564
735.358413	0.151555
735.556360	0.151158
735.754288	0.151280
735.952198	0.151098
736.150090	0.150934
736.347963	0.151072
736.545818	0.150973
736.743655	0.150776
736.941474	0.150429
737.139275	0.150358
737.337057	0.150572
737.534821	0.150409
737.732567	0.150318
737.930295	0.150496
738.128005	0.150280
738.325696	0.150113
738.523369	0.150175
738.721024	0.150335
738.918660	0.150306
739.116279	0.150304
739.313879	0.150204
739.511461	0.150213
739.709024	0.150129
739.906570	0.150231
740.104097	0.150367
740.301606	0.150131
740.499097	0.150106
740.696569	0.149782
740.894024	0.149461
741.091460	0.149464
741.288878	0.149337
741.486277	0.149148
741.683659	0.148730
741.881022	0.148370
742.078367	0.148338
742.275694	0.148249
742.473002	0.148371
742.670293	0.148352
742.867565	0.148172
743.064819	0.148093
743.262054	0.148018
743.459272	0.148210
743.656471	0.148204
743.853652	0.148144
744.050815	0.148071
744.247959	0.147883
744.445085	0.147820
744.642194	0.147737
744.839283	0.147608
745.036355	0.147386
745.233408	0.147218
745.430444	0.147139
745.627461	0.147064
745.824459	0.146837
746.021440	0.146679
746.218402	0.146427
746.415346	0.146207
746.612272	0.145862
746.809180	0.145729
747.006069	0.145611
747.202940	0.145480
747.399793	0.145337
747.596628	0.145431
747.793444	0.145490
747.990243	0.145517
748.187023	0.145454
748.383784	0.145505
748.580528	0.145561
748.777253	0.145731
748.973960	0.145452
749.170649	0.145214
749.367320	0.144721
749.563973	0.144548
749.760607	0.144391
749.957223	0.144248
750.153821	0.144177
750.350400	0.144108
750.546962	0.143871
750.743505	0.143787
750.940030	0.143886
751.136536	0.144032
751.333025	0.143940
751.529495	0.144004
751.725947	0.144154
751.922381	0.143957
752.118796	0.143912
752.315194	0.143724
752.511573	0.143875
752.707934	0.143658
752.904276	0.143587
753.100601	0.143469
753.296907	0.143426
753.493195	0.143236
753.689465	0.143231
753.885716	0.143098
754.081949	0.143138
754.278164	0.142947
754.474361	0.143150
754.670540	0.143258
754.866700	0.143213
755.062843	0.142955
755.258967	0.143032
755.455072	0.142983
755.651160	0.142973
755.847229	0.142726
756.043280	0.142845
756.239313	0.142688
756.435328	0.142320
756.631324	0.142259
756.827302	0.142253
757.023262	0.142094
757.219204	0.142204
757.415127	0.142089
757.611033	0.142131
757.806920	0.142025
758.002788	0.141994
758.198639	0.142183
758.394471	0.142192
758.590286	0.142075
758.786081	0.142011
758.981859	0.141679
759.177619	0.141847
759.373360	0.141782
759.569083	0.141578
759.764788	0.141513
759.960474	0.141383
760.156143	0.141150
760.351793	0.141288
760.547425	0.141095
760.743038	0.141201
760.938634	0.140835
761.134211	0.140538
761.329770	0.140355
761.525311	0.140016
761.720833	0.139938
761.916338	0.140052
762.111824	0.139791
762.307292	0.139949
762.502741	0.139887
762.698173	0.139740
762.893586	0.139950
763.088981	0.140202
763.284358	0.140397
763.479716	0.140246
763.675057	0.140122
763.870379	0.140211
764.065683	0.139921
764.260968	0.139934
764.456236	0.139972
764.651485	0.139958
764.846716	0.139780
765.041929	0.139851
765.237123	0.139914
765.432299	0.139814
765.627457	0.139628
765.822597	0.139648
766.017719	0.139387
766.212822	0.139287
766.407907	0.139212
766.602974	0.139125
766.798023	0.138800
766.993054	0.138642
767.188066	0.138742
767.383060	0.138785
767.578036	0.138694
767.772993	0.138734
767.967933	0.138735
768.162854	0.138450
768.357757	0.138263
768.552642	0.138033
768.747508	0.137791
768.942356	0.137656
769.137186	0.137538
769.331998	0.137564
769.526792	0.137658
769.721567	0.137573
769.916324	0.137673
770.111063	0.137783
770.305784	0.137876
770.500486	0.138081
770.695171	0.138131
770.889837	0.138107
771.084484	0.137921
771.279114	0.137773
771.473725	0.137690
771.668318	0.137651
771.862893	0.137675
772.057450	0.137615
772.251988	0.137480
772.446509	0.137220
772.641011	0.137182
772.835494	0.137286
773.029960	0.137217
773.224407	0.137305
773.418836	0.137139
773.613247	0.136951
773.807640	0.137195
774.002014	0.137298
774.196370	0.137408
774.390708	0.137339
774.585028	0.137319
774.779330	0.137221
774.973613	0.137128
775.167878	0.137159
775.362125	0.137216
775.556354	0.136785
775.750564	0.136797
775.944756	0.136653
776.138930	0.136542
776.333086	0.136485
776.527223	0.136566
776.721343	0.136468
776.915444	0.136167
777.109526	0.136105
777.303591	0.136438
777.497637	0.136268
777.691666	0.136431
777.885676	0.136615
778.079667	0.136567
778.273641	0.136696
778.467596	0.136830
778.661533	0.137117
778.855452	0.137288
779.049352	0.136981
779.243235	0.137054
779.437099	0.137111
779.630945	0.136995
779.824773	0.137112
780.018582	0.137025
780.212373	0.136914
780.406146	0.136943
780.599901	0.136636
780.793638	0.136826
780.987356	0.136813
781.181056	0.136685
781.374738	0.136568
781.568402	0.136512
781.762047	0.136417
781.955674	0.136316
782.149283	0.136311
782.342874	0.136397
782.536447	0.136344
782.730001	0.136211
782.923537	0.136123
783.117055	0.136234
783.310555	0.136194
783.504036	0.136148
783.697499	0.136091
783.890944	0.136216
784.084371	0.136142
784.277780	0.136075
784.471170	0.136067
784.664542	0.135868
784.857896	0.135957
785.051231	0.136032
785.244549	0.135982
785.437848	0.136070
785.631129	0.135927
785.824392	0.136003
786.017636	0.135934
786.210863	0.136088
786.404071	0.136395
786.597260	0.136192
786.790432	0.136238
786.983585	0.136180
787.176721	0.136309
787.369838	0.136399
787.562936	0.136379
787.756017	0.136755
787.949079	0.136682
788.142123	0.136626
788.335149	0.136971
788.528156	0.136828
788.721146	0.137119
788.914117	0.137204
789.107070	0.137018
789.300005	0.137112
789.492921	0.136759
789.685819	0.136654
789.878699	0.136682
790.071561	0.136515
790.264405	0.136505
790.457230	0.136389
790.650037	0.136247
790.842826	0.136317
791.035597	0.136337
791.228349	0.136337
791.421084	0.136285
791.613800	0.136416
791.806497	0.136475
791.999177	0.136790
792.191838	0.136872
792.384481	0.136828
792.577106	0.136865
792.769713	0.137066
792.962301	0.137401
793.154871	0.137661
793.347423	0.137653
793.539957	0.137589
793.732473	0.137504
793.924970	0.137538
794.117449	0.137737
794.309910	0.137974
794.502353	0.137805
794.694777	0.137660
794.887183	0.137746
795.079571	0.137824
795.271941	0.138041
795.464293	0.138050
795.656626	0.138057
795.848941	0.138066
796.041238	0.137923
796.233516	0.138253
796.425777	0.138286
796.618019	0.138524
796.810243	0.138727
797.002449	0.138722
797.194636	0.138855
797.386805	0.139076
797.578956	0.139231
797.771089	0.139663
797.963204	0.139667
798.155300	0.139859
798.347378	0.139648
798.539438	0.139352
798.731480	0.139419
798.923503	0.139656
799.115509	0.139651
799.307496	0.139447
799.499465	0.139244
799.691415	0.139138
799.883348	0.139487
800.075262	0.139688
800.267158	0.140003
800.459035	0.139923
800.650895	0.139714
800.842736	0.139690
801.034559	0.140021
801.226364	0.140140
801.418150	0.140342
801.609919	0.140260
801.801669	0.140115
801.993401	0.139888
802.185114	0.140090
802.376810	0.140230
802.568487	0.140220
802.760146	0.140257
802.951787	0.140462
803.143409	0.140544
803.335014	0.140621
803.526600	0.140877
803.718168	0.141258
803.909717	0.141496
804.101249	0.141520
804.292762	0.141695
804.484257	0.141758
804.675734	0.141674
804.867192	0.141718
805.058632	0.141826
805.250054	0.142048
805.441458	0.142262
805.632844	0.142250
805.824211	0.142510
806.015561	0.142823
806.206891	0.143076
806.398204	0.143190
806.589499	0.143415
806.780775	0.143426
806.972033	0.143362
807.163273	0.143186
807.354495	0.143155
807.545698	0.143005
807.736883	0.143041
807.928050	0.142961
808.119199	0.143193
808.310329	0.143236
808.501441	0.143219
808.692535	0.143390
808.883611	0.143494
809.074669	0.143530
809.265708	0.143502
809.456729	0.143427
809.647732	0.143635
809.838717	0.143583
810.029683	0.143439
810.220632	0.143767
810.411562	0.144082
810.602474	0.144000
810.793367	0.144105
810.984242	0.144596
811.175100	0.144995
811.365938	0.144837
811.556759	0.145175
811.747562	0.145525
811.938346	0.145566
812.129112	0.145442
812.319860	0.145796
812.510589	0.145989
812.701300	0.146119
812.891994	0.145995
813.082668	0.146424
813.273325	0.146387
813.463964	0.146449
813.654584	0.146639
813.845186	0.146709
814.035769	0.147038
814.226335	0.147201
814.416882	0.147151
814.607411	0.147426
814.797922	0.147734
814.988415	0.147673
815.178889	0.147690
815.369345	0.147672
815.559783	0.148053
815.750203	0.148182
815.940605	0.148626
816.130988	0.149075
816.321353	0.149170
816.511700	0.149064
816.702028	0.149335
816.892339	0.149676
817.082631	0.150148
817.272905	0.150035
817.463161	0.150047
817.653398	0.150039
817.843617	0.150041
818.033819	0.150221
818.224001	0.150532
818.414166	0.150841
818.604312	0.151138
818.794440	0.151167
818.984550	0.151505
819.174642	0.151801
819.364716	0.151904
819.554771	0.152098
819.744808	0.152437
819.934827	0.152482
820.124827	0.152706
820.314810	0.152641
820.504774	0.152843
820.694720	0.153212
820.884647	0.153298
821.074557	0.153574
821.264448	0.153861
821.454321	0.153917
821.644176	0.153928
821.834012	0.154012
822.023831	0.154172
822.213631	0.154358
822.403413	0.154423
822.593176	0.154572
822.782922	0.154556
822.972649	0.154520
823.162358	0.154609
823.352049	0.154800
823.541721	0.154807
823.731376	0.154790
823.921012	0.154617
824.110629	0.154622
824.300229	0.154629
824.489811	0.154847
824.679374	0.154838
824.868919	0.155102
825.058445	0.155191
825.247954	0.155419
825.437444	0.155927
825.626916	0.156155
825.816370	0.156233
826.005806	0.156662
826.195223	0.156849
826.384622	0.157229
826.574003	0.157402
826.763366	0.157787
826.952711	0.157986
827.142037	0.158125
827.331345	0.158447
827.520635	0.158759
827.709906	0.158812
827.899160	0.158945
828.088395	0.159024
828.277612	0.159271
828.466810	0.159458
828.655991	0.159724
828.845153	0.159860
829.034297	0.159943
829.223423	0.160172
829.412531	0.160414
829.601620	0.160497
829.790691	0.160824
829.979744	0.160641
830.168779	0.160728
830.357795	0.160741
830.546793	0.161031
830.735773	0.161258
830.924735	0.161567
831.113679	0.161695
831.302604	0.161926
831.491511	0.161899
831.680400	0.162032
831.869271	0.162259
832.058123	0.162750
832.246957	0.162740
832.435773	0.162809
832.624571	0.162715
832.813351	0.162839
833.002112	0.162984
833.190855	0.163142
833.379580	0.163464
833.568287	0.163642
833.756975	0.163589
833.945645	0.163826
834.134297	0.164155
834.322931	0.164395
834.511547	0.164643
834.700144	0.164886
834.888723	0.165082
835.077284	0.165182
835.265826	0.165443
835.454351	0.165931
835.642857	0.166398
835.831345	0.166607
836.019815	0.166861
836.208266	0.167203
836.396699	0.167542
836.585114	0.167854
836.773511	0.168403
836.961890	0.168483
837.150250	0.168382
837.338592	0.168353
837.526916	0.168547
837.715222	0.168662
837.903510	0.168945
838.091779	0.169164
838.280030	0.169257
838.468263	0.169353
838.656477	0.169767
838.844674	0.169961
839.032852	0.170042
839.221012	0.170107
839.409153	0.170638
839.597277	0.170714
839.785382	0.170913
839.973469	0.171329
840.161538	0.171587
840.349589	0.171689
840.537621	0.171851
840.725635	0.172093
840.913631	0.172634
841.101609	0.172366
841.289568	0.172594
841.477509	0.173041
841.665432	0.173359
841.853337	0.173562
842.041224	0.173963
842.229092	0.174338
842.416942	0.174810
842.604774	0.174979
842.792588	0.175516
842.980383	0.175610
843.168160	0.175847
843.355919	0.176082
843.543660	0.176201
843.731382	0.176432
843.919087	0.176632
844.106773	0.176903
844.294441	0.177001
844.482090	0.177388
844.669722	0.177556
844.857335	0.177515
845.044930	0.177353
845.232507	0.177781
845.420065	0.177696
845.607605	0.177986
845.795127	0.178355
845.982631	0.178765
846.170117	0.178659
846.357584	0.179131
846.545033	0.179366
846.732464	0.180055
846.919877	0.180337
847.107272	0.180437
847.294648	0.180557
847.482006	0.180365
847.669346	0.180645
847.856667	0.180938
848.043971	0.181117
848.231256	0.181409
848.418523	0.181673
848.605771	0.181644
848.793002	0.182228
848.980214	0.182478
849.167408	0.183123
849.354584	0.183339
849.541742	0.183992
849.728881	0.184391
849.916002	0.184704
850.103105	0.184699
850.290190	0.184994
850.477256	0.185111
850.664304	0.185452
850.851334	0.185291
851.038346	0.185340
851.225340	0.185372
851.412315	0.185263
851.599272	0.185323
851.786211	0.185416
851.973132	0.185871
852.160034	0.186443
852.346918	0.186640
852.533784	0.186939
852.720632	0.187252
852.907462	0.187263
853.094273	0.187867
853.281066	0.188184
853.467841	0.188527
853.654598	0.188416
853.841336	0.188449
854.028056	0.188985
854.214758	0.189098
854.401442	0.189429
854.588107	0.189703
854.774755	0.189754
854.961384	0.190214
855.147995	0.190531
855.334587	0.190868
855.521162	0.190944
855.707718	0.190698
855.894256	0.191016
856.080775	0.191113
856.267277	0.191283
856.453760	0.191552
856.640225	0.191469
856.826672	0.191696
857.013101	0.191566
857.199511	0.191632
857.385903	0.191956
857.572277	0.191982
857.758633	0.191928
857.944970	0.191987
858.131290	0.192015
858.317591	0.192199
858.503873	0.192182
858.690138	0.192599
858.876384	0.193258
859.062612	0.193449
859.248822	0.193680
859.435014	0.194014
859.621188	0.194365
859.807343	0.194551
859.993480	0.194757
860.179599	0.195100
860.365699	0.195502
860.551781	0.195494
860.737846	0.195857
860.923891	0.196283
861.109919	0.196441
861.295929	0.196783
861.481920	0.197036
861.667893	0.197291
861.853848	0.197441
862.039784	0.197479
862.225702	0.197805
862.411603	0.197907
862.597484	0.198082
862.783348	0.198373
862.969193	0.198463
863.155021	0.198736
863.340830	0.198891
863.526620	0.199131
863.712393	0.199617
863.898147	0.199961
864.083883	0.200200
864.269601	0.200560
864.455301	0.200599
864.640982	0.200695
864.826645	0.201122
865.012290	0.201451
865.197917	0.201734
865.383526	0.201482
865.569116	0.201620
865.754688	0.201534
865.940242	0.201609
866.125777	0.201970
866.311295	0.202216
866.496794	0.202450
866.682275	0.202477
866.867737	0.202671
867.053182	0.202943
867.238608	0.203063
867.424016	0.203165
867.609406	0.202895
867.794778	0.203195
867.980131	0.203498
868.165466	0.203340
868.350783	0.203404
868.536082	0.203431
868.721362	0.203749
868.906625	0.203746
869.091869	0.204183
869.277094	0.204650
869.462302	0.204760
869.647491	0.204807
869.832662	0.204891
870.017815	0.205388
870.202950	0.205467
870.388066	0.205518
870.573165	0.205749
870.758245	0.205672
870.943306	0.205860
871.128350	0.206073
871.313375	0.206287
871.498382	0.206829
871.683371	0.206755
871.868342	0.206725
872.053294	0.206959
872.238229	0.207092
872.423144	0.207541
872.608042	0.207700
872.792922	0.207654
872.977783	0.207459
873.162626	0.207131
873.347451	0.207298
873.532258	0.207913
873.717046	0.208086
873.901816	0.208122
874.086568	0.208049
874.271302	0.208253
874.456017	0.208605
874.640715	0.209299
874.825394	0.209530
875.010055	0.209812
875.194697	0.209755
875.379322	0.209862
875.563928	0.209804
875.748516	0.210305
875.933085	0.210329
876.117637	0.210376
876.302170	0.210042
876.486685	0.209959
876.671182	0.209673
876.855661	0.209876
877.040121	0.209762
877.224563	0.210401
877.408987	0.210465
877.593393	0.210505
877.777780	0.210441
877.962150	0.210848
878.146501	0.211226
878.330833	0.211420
878.515148	0.211558
878.699444	0.212101
878.883722	0.212086
879.067982	0.211991
879.252224	0.211946
879.436447	0.211875
879.620653	0.211757
879.804840	0.211834
879.989008	0.211957
880.173159	0.211781
880.357291	0.211523
880.541405	0.211174
880.725501	0.211204
880.909579	0.211536
881.093638	0.211632
881.277680	0.211754
881.461703	0.211705
881.645707	0.211918
881.829694	0.212042
882.013662	0.212213
882.197612	0.212523
882.381544	0.212704
882.565458	0.212806
882.749353	0.212737
882.933230	0.212945
883.117089	0.212881
883.300930	0.213339
883.484753	0.213385
883.668557	0.213402
883.852343	0.213557
884.036111	0.213489
884.219861	0.213404
884.403592	0.213796
884.587305	0.213851
884.771000	0.213940
884.954677	0.213503
885.138335	0.213369
885.321976	0.213428
885.505598	0.213515
885.689201	0.213611
885.872787	0.213724
886.056354	0.213435
886.239904	0.213119
886.423434	0.213340
886.606947	0.213568
886.790442	0.213444
886.973918	0.213389
887.157376	0.213480
887.340816	0.213175
887.524237	0.213315
887.707641	0.213636
887.891026	0.213855
888.074393	0.213437
888.257741	0.213177
888.441072	0.213368
888.624384	0.213713
888.807678	0.213348
888.990954	0.213600
889.174211	0.213493
889.357451	0.213098
889.540672	0.213216
889.723875	0.213892
889.907059	0.214109
890.090226	0.214246
890.273374	0.213834
890.456504	0.213966
890.639616	0.213972
890.822709	0.213696
891.005785	0.213930
891.188842	0.213747
891.371881	0.213813
891.554901	0.213535
891.737904	0.213720
891.920888	0.213901
892.103854	0.213964
892.286802	0.213595
892.469731	0.213960
892.652643	0.214297
892.835536	0.214622
893.018410	0.214444
893.201267	0.214702
893.384106	0.214582
893.566926	0.214709
893.749728	0.214565
893.932511	0.215119
894.115277	0.215335
894.298024	0.215072
894.480753	0.214776
894.663464	0.215062
894.846157	0.214734
895.028831	0.214860
895.211487	0.214690
895.394125	0.214740
895.576745	0.214358
895.759346	0.213774
895.941930	0.213625
896.124495	0.213443
896.307041	0.213065
896.489570	0.213118
896.672080	0.213059
896.854573	0.212747
897.037046	0.212582
897.219502	0.212641
897.401940	0.212688
897.584359	0.212363
897.766760	0.212513
897.949143	0.211983
898.131507	0.212165
898.313854	0.211681
898.496182	0.211715
898.678492	0.211633
898.860783	0.211079
899.043057	0.210949
899.225312	0.211206
899.407549	0.210759
899.589768	0.210905
899.771968	0.210650
899.954151	0.210564
900.136315	0.210364
900.318461	0.209592
900.500588	0.209826
900.682698	0.210204
900.864789	0.209910
901.046862	0.209499
901.228917	0.209215
901.410953	0.208963
901.592971	0.208702
901.774972	0.208646
901.956953	0.208729
902.138917	0.208458
902.320862	0.207529
902.502790	0.207474
902.684699	0.207666
902.866589	0.206957
903.048462	0.206782
903.230316	0.206774
903.412152	0.206336
903.593970	0.206438
903.775770	0.206151
903.957551	0.206263
904.139314	0.206017
904.321059	0.205993
904.502786	0.206365
904.684494	0.206133
904.866185	0.206186
905.047857	0.206026
905.229510	0.205618
905.411146	0.205667
905.592763	0.205549
905.774363	0.205529
905.955943	0.204904
906.137506	0.204435
906.319051	0.204426
906.500577	0.203860
906.682085	0.203838
906.863575	0.203685
907.045046	0.203127
907.226500	0.202466
907.407935	0.202122
907.589352	0.202496
907.770750	0.202710
907.952131	0.202018
908.133493	0.201915
908.314837	0.201586
908.496163	0.201588
908.677470	0.201254
908.858760	0.201115
909.040031	0.200481
909.221284	0.199828
909.402518	0.199405
909.583735	0.199564
909.764933	0.199340
909.946113	0.198920
910.127275	0.198710
910.308418	0.198913
910.489544	0.198565
910.670651	0.198948
910.851740	0.198900
911.032810	0.198598
911.213863	0.198120
911.394897	0.197790
911.575913	0.197808
911.756911	0.197083
911.937890	0.196556
912.118851	0.196275
912.299794	0.195663
912.480719	0.194900
912.661626	0.194698
912.842514	0.194336
913.023384	0.193969
913.204236	0.193197
913.385070	0.192794
913.565886	0.192706
913.746683	0.192645
913.927462	0.192195
914.108223	0.192419
914.288965	0.192178
914.469690	0.191509
914.650396	0.191181
914.831084	0.191538
915.011754	0.191571
915.192405	0.191121
915.373038	0.190933
915.553653	0.190695
915.734250	0.190154
915.914829	0.189389
916.095389	0.190118
916.275931	0.189774
916.456455	0.189246
916.636961	0.189226
916.817448	0.188829
916.997917	0.187971
917.178368	0.187655
917.358801	0.187107
917.539216	0.186792
917.719612	0.185722
917.899990	0.185755
918.080350	0.185326
918.260692	0.184550
918.441015	0.184533
918.621320	0.184524
918.801607	0.184497
918.981876	0.184286
919.162127	0.183757
919.342359	0.183565
919.522573	0.182779
919.702769	0.182441
919.882947	0.181842
920.063106	0.181204
920.243247	0.180915
920.423370	0.180123
920.603475	0.179555
920.783562	0.179206
920.963630	0.178934
921.143680	0.178398
921.323712	0.177540
921.503725	0.177621
921.683721	0.177520
921.863698	0.177211
922.043657	0.176623
922.223598	0.176491
922.403520	0.176414
922.583424	0.175351
922.763311	0.175033
922.943178	0.175078
923.123028	0.175000
923.302859	0.174203
923.482673	0.173528
923.662467	0.173817
923.842244	0.173086
924.022003	0.172659
924.201743	0.172080
924.381465	0.172292
924.561169	0.171390
924.740854	0.170783
924.920522	0.170835
925.100171	0.170744
925.279802	0.169734
925.459414	0.169156
925.639009	0.168802
925.818585	0.168648
925.998143	0.167178
926.177683	0.166971
926.357205	0.165957
926.536708	0.164614
926.716193	0.163516
926.895660	0.162908
927.075109	0.162933
927.254539	0.161975
927.433951	0.161517
927.613345	0.161504
927.792721	0.161016
927.972079	0.160528
928.151418	0.160292
928.330739	0.159961
928.510042	0.159771
928.689327	0.158622
928.868593	0.158359
929.047841	0.157943
929.227071	0.157296
929.406283	0.156672
929.585476	0.156449
929.764652	0.156022
929.943809	0.155658
930.122948	0.154981
930.302068	0.155051
930.481171	0.154421
930.660255	0.153740
930.839321	0.153034
931.018369	0.152783
931.197398	0.151800
931.376409	0.151247
931.555402	0.150543
931.734377	0.149410
931.913334	0.148332
932.092272	0.147510
932.271192	0.147036
932.450094	0.146581
932.628978	0.146462
932.807844	0.145828
932.986691	0.144973
933.165520	0.144091
933.344331	0.143773
933.523123	0.143329
933.701898	0.142919
933.880654	0.141630
934.059392	0.140570
934.238111	0.139802
934.416813	0.139849
934.595496	0.139546
934.774161	0.139525
934.952808	0.139295
935.131437	0.139539
935.310047	0.139007
935.488639	0.139222
935.667213	0.139427
935.845769	0.138842
936.024306	0.137695
936.202825	0.137334
936.381326	0.136297
936.559809	0.135296
936.738274	0.133649
936.916720	0.133138
937.095148	0.132714
937.273558	0.132046
937.451950	0.130809
937.630323	0.130289
937.808678	0.129870
937.987015	0.129662
938.165334	0.129144
938.343635	0.128264
938.521917	0.128287
938.700181	0.127545
938.878427	0.126771
939.056655	0.126429
939.234864	0.125609
939.413055	0.124127
939.591228	0.122801
939.769383	0.121585
939.947519	0.121868
940.125638	0.121174
940.303738	0.120603
940.481820	0.119354
940.659883	0.118948
940.837929	0.117991
941.015956	0.117768
941.193965	0.116994
941.371955	0.117550
941.549928	0.116316
941.727882	0.115301
941.905818	0.114139
942.083736	0.114100
942.261636	0.113173
942.439517	0.113478
942.617380	0.113348
942.795225	0.113121
942.973052	0.112437
943.150860	0.112790
943.328651	0.111521
943.506423	0.111212
943.684176	0.110143
943.861912	0.109823
944.039629	0.108789
944.217328	0.108339
944.395009	0.107826
944.572672	0.106974
944.750317	0.104897
944.927943	0.105113
945.105551	0.104422
945.283141	0.104191
945.460712	0.102741
945.638265	0.101818
945.815801	0.100231
945.993317	0.099077
946.170816	0.099030
946.348297	0.099452
946.525759	0.099224
946.703203	0.099240
946.880629	0.098883
947.058036	0.098565
947.235425	0.097983
947.412797	0.096255
947.590149	0.096821
947.767484	0.095647
947.944800	0.095434
948.122099	0.094154
948.299379	0.093784
948.476640	0.093256
948.653884	0.092493
948.831109	0.092279
949.008316	0.093577
949.185505	0.092300
949.362676	0.091393
949.539828	0.091162
949.716962	0.090461
949.894078	0.089630
950.071176	0.089338
950.248256	0.088274
950.425317	0.086312
950.602360	0.084212
950.779385	0.083586
950.956391	0.083714
951.133380	0.082581
951.310350	0.081356
951.487302	0.079746
951.664235	0.080128
951.841151	0.078900
952.018048	0.077827
952.194927	0.078000
952.371788	0.078058
952.548631	0.077522
952.725455	0.077571
952.902261	0.077630
953.079049	0.077563
953.255819	0.075701
953.432570	0.077569
953.609303	0.077808
953.786018	0.078059
953.962715	0.077840
954.139394	0.078144
954.316054	0.077516
954.492696	0.076546
954.669320	0.077513
954.845926	0.076228
955.022513	0.074781
955.199083	0.076267
955.375634	0.075852
955.552166	0.073712
955.728681	0.072013
955.905177	0.071090
956.081655	0.071797
956.258115	0.069652
956.434557	0.069543
956.610980	0.069212
956.787385	0.069432
956.963772	0.069190
957.140141	0.068691
957.316492	0.067783
957.492824	0.066029
957.669138	0.066093
957.845434	0.065903
958.021712	0.065531
958.197971	0.064470
958.374212	0.062109
958.550435	0.060991
958.726640	0.062958
958.902826	0.063099
959.078995	0.063325
959.255145	0.060595
959.431277	0.061622
959.607390	0.061133
959.783486	0.060329
959.959563	0.062397
960.135622	0.062092
960.311662	0.060975
960.487685	0.059699
960.663689	0.061168
960.839675	0.062281
961.015643	0.059680
961.191593	0.059022
961.367524	0.059912
961.543437	0.058759
961.719332	0.060704
961.895209	0.060365
962.071067	0.062054
962.246907	0.058941
962.422730	0.058678
962.598533	0.058902
962.774319	0.060970
962.950086	0.061101
963.125835	0.060491
963.301566	0.059350
963.477279	0.059713
963.652973	0.058775
963.828650	0.059049
964.004308	0.059347
964.179947	0.058798
964.355569	0.058563
964.531172	0.057671
964.706757	0.057685
964.882324	0.057865
965.057873	0.057168
965.233403	0.058924
965.408916	0.060295
965.584410	0.060989
965.759885	0.061813
965.935343	0.061890
966.110782	0.060395
966.286203	0.058688
966.461606	0.057478
966.636991	0.057563
966.812357	0.055897
966.987705	0.054882
967.163035	0.053246
967.338347	0.052281
967.513641	0.052141
967.688916	0.053602
967.864173	0.054856
968.039412	0.054770
968.214632	0.053780
968.389835	0.053226
968.565019	0.054195
968.740185	0.054692
968.915333	0.056365
969.090462	0.055247
969.265573	0.056374
969.440667	0.055525
969.615741	0.055358
969.790798	0.055646
969.965836	0.055201
970.140856	0.054986
970.315858	0.055661
970.490842	0.055560
970.665808	0.058412
970.840755	0.057631
971.015684	0.058463
971.190595	0.057993
971.365487	0.059243
971.540362	0.058349
971.715218	0.057243
971.890056	0.056174
972.064875	0.057137
972.239677	0.053399
972.414460	0.055940
972.589225	0.058818
972.763972	0.058479
972.938700	0.058937
973.113411	0.061915
973.288103	0.064288
973.462777	0.064198
973.637432	0.062897
973.812070	0.064367
973.986689	0.062789
974.161290	0.062208
974.335873	0.062681
974.510437	0.062405
974.684984	0.060563
974.859512	0.058800
975.034022	0.060172
975.208513	0.061254
975.382987	0.060425
975.557442	0.059123
975.731879	0.056646
975.906298	0.057991
976.080698	0.056601
976.255080	0.057579
976.429445	0.057634
976.603790	0.057340
976.778118	0.056082
976.952427	0.055736
977.126719	0.057510
977.300992	0.056237
977.475246	0.055741
977.649483	0.055975
977.823701	0.056040
977.997901	0.056812
978.172083	0.056272
978.346247	0.054929
978.520392	0.054766
978.694519	0.053205
978.868628	0.055321
979.042719	0.054652
979.216791	0.055383
979.390845	0.053725
979.564882	0.052480
979.738899	0.052687
979.912899	0.054451
980.086880	0.056163
980.260843	0.057982
980.434788	0.058745
980.608715	0.060200
980.782623	0.058936
980.956514	0.061081
981.130386	0.062154
981.304240	0.060527
981.478075	0.060992
981.651892	0.060037
981.825692	0.058837
981.999472	0.058800
982.173235	0.058432
982.346980	0.057758
982.520706	0.056230
982.694414	0.055926
982.868104	0.057620
983.041775	0.057122
983.215428	0.057779
983.389064	0.056421
983.562680	0.056326
983.736279	0.057477
983.909860	0.058165
984.083422	0.059374
984.256966	0.058146
984.430491	0.058676
984.603999	0.057746
984.777488	0.056658
984.950959	0.057243
985.124412	0.056329
985.297847	0.053572
985.471263	0.053411
985.644661	0.054001
985.818041	0.054338
985.991403	0.053311
986.164747	0.052963
986.338072	0.053670
986.511379	0.054180
986.684668	0.056350
986.857938	0.057468
987.031191	0.057793
987.204425	0.056835
987.377641	0.057851
987.550839	0.057902
987.724018	0.057885
987.897179	0.056508
988.070322	0.055401
988.243447	0.054010
988.416554	0.054390
988.589642	0.055705
988.762712	0.053854
988.935764	0.053779
989.108798	0.053719
989.281813	0.055192
989.454811	0.056594
989.627790	0.056370
989.800751	0.055806
989.973693	0.055882
990.146617	0.055305
990.319524	0.056471
990.492412	0.055543
990.665281	0.055670
990.838133	0.054447
991.010966	0.054763
991.183781	0.055324
991.356578	0.054029
991.529356	0.053809
991.702117	0.054736
991.874859	0.055563
992.047583	0.057475
992.220288	0.057374
992.392976	0.057849
992.565645	0.055955
992.738296	0.057206
992.910929	0.058783
993.083543	0.057852
993.256139	0.055359
993.428718	0.054198
993.601277	0.052701
993.773819	0.052793
993.946342	0.052600
994.118848	0.053413
994.291335	0.053894
994.463803	0.052409
994.636254	0.053667
994.808686	0.054380
994.981100	0.055366
995.153496	0.056538
995.325874	0.055697
995.498233	0.056794
995.670574	0.056704
995.842897	0.055276
996.015202	0.057009
996.187488	0.055984
996.359757	0.056210
996.532007	0.056299
996.704239	0.056220
996.876452	0.057727
997.048648	0.056679
997.220825	0.057128
997.392984	0.058250
997.565124	0.058036
997.737247	0.057517
997.909351	0.058098
998.081437	0.058964
998.253505	0.057657
998.425554	0.056036
998.597586	0.056048
998.769599	0.055865
998.941594	0.055874
999.113571	0.054990
999.285529	0.055833
999.457469	0.056040
999.629391	0.052987
999.801295	0.053281
999.973181	0.054322
1000.145048	0.054532
1000.316897	0.055724
1000.488728	0.055739
1000.660541	0.053742
1000.832335	0.053558
1001.004111	0.053311
1001.175869	0.055334
1001.347609	0.055289
1001.519331	0.055934
1001.691034	0.056216
1001.862719	0.054344
1002.034386	0.052915
1002.206035	0.054967
1002.377665	0.055272
1002.549277	0.055641
1002.720871	0.056445
1002.892447	0.056558
1003.064004	0.055713
1003.235544	0.055042
1003.407065	0.056574
1003.578568	0.057402
1003.750052	0.056826
1003.921519	0.058643
1004.092967	0.057918
1004.264397	0.057281
1004.435809	0.058250
1004.607202	0.058005
1004.778577	0.057391
1004.949934	0.057194
1005.121273	0.056790
1005.292594	0.056180
1005.463896	0.054535
1005.635180	0.055527
1005.806446	0.055245
1005.977694	0.054529
1006.148923	0.055740
1006.320135	0.055920
1006.491328	0.055220
1006.662503	0.056270
1006.833659	0.058003
1007.004798	0.057957
1007.175918	0.057343
1007.347020	0.055591
1007.518103	0.056809
1007.689169	0.055908
1007.860216	0.057689
1008.031245	0.058354
1008.202256	0.056236
1008.373248	0.056142
1008.544223	0.055266
1008.715179	0.056652
1008.886117	0.058173
1009.057036	0.055631
1009.227938	0.056539
1009.398821	0.056550
1009.569686	0.056091
1009.740533	0.056777
1009.911361	0.056516
1010.082172	0.057400
1010.252964	0.055687
1010.423738	0.054884
1010.594493	0.057176
1010.765231	0.056752
1010.935950	0.055691
1011.106651	0.056510
1011.277334	0.056904
1011.447998	0.056989
1011.618645	0.057931
1011.789273	0.057691
1011.959882	0.058258
1012.130474	0.056710
1012.301048	0.055919
1012.471603	0.054973
1012.642140	0.053059
1012.812658	0.053086
1012.983159	0.052052
1013.153641	0.051248
1013.324105	0.053217
1013.494551	0.053556
1013.664979	0.054609
1013.835388	0.054370
1014.005779	0.055150
1014.176152	0.056873
1014.346507	0.055924
1014.516843	0.055972
1014.687162	0.054876
1014.857462	0.053490
1015.027744	0.052892
1015.198007	0.052984
1015.368252	0.052519
1015.538480	0.051253
1015.708689	0.050826
1015.878879	0.050536
1016.049052	0.050743
1016.219206	0.051992
1016.389342	0.052284
1016.559460	0.053155
1016.729559	0.052019
1016.899641	0.054764
1017.069704	0.056508
1017.239749	0.056053
1017.409775	0.058038
1017.579784	0.060377
1017.749774	0.057670
1017.919746	0.056197
1018.089700	0.056097
1018.259635	0.055801
1018.429553	0.053858
1018.599452	0.055450
1018.769333	0.055171
1018.939195	0.054616
1019.109040	0.054006
1019.278866	0.056575
1019.448674	0.055979
1019.618464	0.056795
1019.788235	0.058219
1019.957989	0.057638
1020.127724	0.055791
1020.297441	0.057238
1020.467139	0.056448
1020.636820	0.057005
1020.806482	0.056983
1020.976126	0.058885
1021.145752	0.057369
1021.315359	0.055211
1021.484948	0.056717
1021.654519	0.056667
1021.824072	0.055819
1021.993607	0.056459
1022.163123	0.056350
1022.332621	0.055555
1022.502101	0.053844
1022.671563	0.053843
1022.841007	0.054622
1023.010432	0.054697
1023.179839	0.055564
1023.349228	0.054462
1023.518598	0.053424
1023.687951	0.053060
1023.857285	0.053880
1024.026601	0.055451
1024.195899	0.056264
1024.365178	0.056704
1024.534439	0.055177
1024.703682	0.054819
1024.872907	0.055784
1025.042114	0.057524
1025.211302	0.055588
1025.380472	0.055401
1025.549624	0.053865
1025.718758	0.052255
1025.887873	0.053240
1026.056970	0.053819
1026.226049	0.053414
1026.395110	0.051631
1026.564153	0.051009
1026.733177	0.051259
1026.902183	0.050635
1027.071171	0.050600
1027.240141	0.051432
1027.409092	0.051051
1027.578026	0.051072
1027.746940	0.050641
1027.915837	0.053166
1028.084716	0.053097
1028.253576	0.052982
1028.422418	0.053663
1028.591242	0.054644
1028.760048	0.053129
1028.928835	0.054246
1029.097604	0.054760
1029.266355	0.053393
1029.435088	0.052367
1029.603803	0.052831
1029.772499	0.053874
1029.941177	0.053427
1030.109837	0.053874
1030.278478	0.056992
1030.447102	0.054234
1030.615707	0.053356
1030.784294	0.054773
1030.952863	0.053756
1031.121413	0.053824
1031.289945	0.054026
1031.458460	0.053223
1031.626955	0.051967
1031.795433	0.049500
1031.963892	0.049830
1032.132334	0.050720
1032.300756	0.050876
1032.469161	0.052068
1032.637548	0.050817
1032.805916	0.049281
1032.974266	0.049639
1033.142598	0.049395
1033.310911	0.050965
1033.479207	0.052785
1033.647484	0.053330
1033.815743	0.053341
1033.983983	0.053369
1034.152206	0.055127
1034.320410	0.055473
1034.488596	0.056198
1034.656764	0.056625
1034.824914	0.056212
1034.993045	0.055027
1035.161158	0.054413
1035.329253	0.054845
1035.497330	0.055506
1035.665388	0.053701
1035.833428	0.054244
1036.001450	0.053715
1036.169454	0.054316
1036.337440	0.054715
1036.505407	0.054910
1036.673356	0.054284
1036.841287	0.053675
1037.009200	0.051377
1037.177094	0.052489
1037.344970	0.053958
1037.512828	0.054224
1037.680668	0.054796
1037.848489	0.054591
1038.016293	0.054357
1038.184078	0.054780
1038.351845	0.056966
1038.519593	0.059367
1038.687324	0.059305
1038.855036	0.057546
1039.022730	0.056890
1039.190406	0.057147
1039.358063	0.056319
1039.525702	0.056777
1039.693323	0.055513
1039.860926	0.053259
1040.028511	0.050637
1040.196077	0.050360
1040.363625	0.051298
1040.531155	0.050101
1040.698667	0.050068
1040.866161	0.050265
1041.033636	0.049666
1041.201093	0.051528
1041.368532	0.051806
1041.535952	0.052710
1041.703355	0.053393
1041.870739	0.053290
1042.038105	0.055288
1042.205452	0.053784
1042.372782	0.054376
1042.540093	0.055222
1042.707386	0.054724
1042.874661	0.054858
1043.041918	0.054447
1043.209156	0.052723
1043.376376	0.050791
1043.543578	0.050666
1043.710762	0.050930
1043.877927	0.049070
1044.045074	0.048830
1044.212203	0.048211
1044.379314	0.047691
1044.546407	0.046683
1044.713481	0.048509
1044.880537	0.049158
1045.047575	0.048400
1045.214595	0.049801
1045.381596	0.052348
1045.548579	0.054359
1045.715544	0.053695
1045.882491	0.054228
1046.049420	0.056748
1046.216330	0.057801
1046.383222	0.057485
1046.550096	0.058184
1046.716951	0.057404
1046.883789	0.054372
1047.050608	0.052415
1047.217409	0.053477
1047.384192	0.054479
1047.550956	0.054761
1047.717703	0.052882
1047.884431	0.052919
1048.051140	0.053678
1048.217832	0.054789
1048.384505	0.057382
1048.551161	0.057586
1048.717798	0.059614
1048.884416	0.059047
1049.051017	0.059085
1049.217599	0.058389
1049.384163	0.061005
1049.550709	0.060939
1049.717237	0.059097
1049.883746	0.058782
1050.050237	0.059045
1050.216710	0.055523
1050.383165	0.053331
1050.549601	0.052753
1050.716019	0.054014
1050.882420	0.052024
1051.048801	0.051620
1051.215165	0.052948
1051.381510	0.052764
1051.547837	0.052000
1051.714146	0.052678
1051.880437	0.053935
1052.046709	0.053595
1052.212964	0.053628
1052.379200	0.053788
1052.545417	0.053377
1052.711617	0.052146
1052.877798	0.052618
1053.043961	0.052552
1053.210106	0.052116
1053.376233	0.051381
1053.542341	0.050170
1053.708432	0.049458
1053.874504	0.048605
1054.040557	0.047889
1054.206593	0.049457
1054.372610	0.049170
1054.538609	0.048815
1054.704590	0.051085
1054.870553	0.052179
1055.036497	0.053200
1055.202424	0.053530
1055.368331	0.054267
1055.534221	0.055325
1055.700093	0.054899
1055.865946	0.053728
1056.031781	0.054599
1056.197598	0.053664
1056.363397	0.052710
1056.529177	0.054517
1056.694939	0.053718
1056.860683	0.054297
1057.026409	0.053877
1057.192116	0.053000
1057.357806	0.052611
1057.523477	0.053332
1057.689130	0.054093
1057.854764	0.055854
1058.020381	0.055006
1058.185979	0.055612
1058.351559	0.055886
1058.517120	0.056671
1058.682664	0.056520
1058.848189	0.057418
1059.013696	0.057849
1059.179185	0.056238
1059.344656	0.055323
1059.510108	0.055140
1059.675542	0.055857
1059.840958	0.055193
1060.006356	0.054320
1060.171735	0.055460
1060.337096	0.056928
1060.502439	0.054480
1060.667764	0.053502
1060.833071	0.053392
1060.998359	0.054787
1061.163629	0.054376
1061.328881	0.053975
1061.494115	0.053575
1061.659330	0.054296
1061.824527	0.052427
1061.989706	0.052349
1062.154867	0.055230
1062.320010	0.054962
1062.485134	0.053218
1062.650240	0.052315
1062.815328	0.052606
1062.980398	0.054721
1063.145449	0.053554
1063.310482	0.057191
1063.475497	0.057890
1063.640494	0.056584
1063.805473	0.056684
1063.970433	0.055643
1064.135375	0.058769
1064.300299	0.057327
1064.465204	0.057500
1064.630092	0.057014
1064.794961	0.055432
1064.959812	0.055814
1065.124645	0.055764
1065.289459	0.056716
1065.454256	0.058114
1065.619034	0.054800
1065.783793	0.056980
1065.948535	0.056639
1066.113258	0.056935
1066.277964	0.055940
1066.442651	0.057905
1066.607319	0.058005
1066.771970	0.058261
1066.936602	0.057937
1067.101216	0.058663
1067.265812	0.059256
1067.430389	0.059469
1067.594949	0.060487
1067.759490	0.060254
1067.924013	0.058603
1068.088518	0.060000
1068.253004	0.060610
1068.417472	0.062565
1068.581922	0.062849
1068.746354	0.061639
1068.910768	0.060924
1069.075163	0.060451
1069.239540	0.059593
1069.403899	0.057493
1069.568240	0.054989
1069.732562	0.055299
1069.896866	0.054264
1070.061152	0.055375
1070.225420	0.055937
1070.389670	0.056508
1070.553901	0.055856
1070.718114	0.055600
1070.882309	0.056223
1071.046486	0.058075
1071.210644	0.057034
1071.374784	0.057987
1071.538906	0.054791
1071.703010	0.053812
1071.867096	0.053314
1072.031163	0.054486
1072.195212	0.056803
1072.359243	0.058897
1072.523256	0.058813
1072.687250	0.058811
1072.851226	0.059042
1073.015184	0.060040
1073.179124	0.061990
1073.343045	0.062510
1073.506949	0.062052
1073.670834	0.060228
1073.834701	0.059865
1073.998549	0.060585
1074.162380	0.060102
1074.326192	0.057148
1074.489986	0.057394
1074.653761	0.057398
1074.817519	0.056065
1074.981258	0.055018
1075.144979	0.057152
1075.308682	0.054843
1075.472367	0.052002
1075.636033	0.053169
1075.799681	0.052882
1075.963311	0.053789
1076.126923	0.054897
1076.290516	0.053608
1076.454092	0.053602
1076.617649	0.052293
1076.781187	0.052593
1076.944708	0.054955
1077.108210	0.054090
1077.271695	0.054970
1077.435160	0.056351
1077.598608	0.055146
1077.762038	0.056958
1077.925449	0.056847
1078.088842	0.056797
1078.252217	0.058906
1078.415573	0.058003
1078.578912	0.057383
1078.742232	0.056898
1078.905534	0.055839
1079.068817	0.054733
1079.232083	0.054431
1079.395330	0.055225
1079.558559	0.055711
1079.721770	0.055120
1079.884962	0.056220
1080.048136	0.057253
1080.211293	0.057338
1080.374430	0.058469
1080.537550	0.058557
1080.700651	0.059258
1080.863735	0.060755
1081.026800	0.060910
1081.189846	0.062854
1081.352875	0.062404
1081.515885	0.063072
1081.678877	0.064413
1081.841851	0.062243
1082.004807	0.062057
1082.167744	0.058979
1082.330663	0.056256
1082.493564	0.056731
1082.656447	0.054375
1082.819312	0.054335
1082.982158	0.053912
1083.144986	0.055333
1083.307796	0.055855
1083.470587	0.056527
1083.633361	0.059880
1083.796116	0.059460
1083.958853	0.059936
1084.121571	0.060459
1084.284272	0.060321
1084.446954	0.060566
1084.609618	0.059257
1084.772264	0.059094
1084.934892	0.060045
1085.097501	0.058098
1085.260092	0.059699
1085.422665	0.061096
1085.585220	0.061873
1085.747756	0.063433
1085.910274	0.062594
1086.072774	0.060981
1086.235256	0.060381
1086.397720	0.058802
1086.560165	0.060379
1086.722592	0.061488
1086.885001	0.058217
1087.047392	0.057542
1087.209764	0.056254
1087.372119	0.056557
1087.534455	0.057790
1087.696772	0.057118
1087.859072	0.056959
1088.021353	0.056667
1088.183616	0.057622
1088.345861	0.060129
1088.508088	0.059804
1088.670296	0.061555
1088.832486	0.059176
1088.994658	0.058156
1089.156812	0.060636
1089.318948	0.060556
1089.481065	0.062179
1089.643164	0.061215
1089.805245	0.059401
1089.967308	0.059899
1090.129352	0.058096
1090.291378	0.060016
1090.453386	0.059469
1090.615376	0.057825
1090.777347	0.058741
1090.939301	0.060250
1091.101236	0.056197
1091.263153	0.055780
1091.425051	0.055447
1091.586932	0.054468
1091.748794	0.053532
1091.910638	0.055013
1092.072463	0.054343
1092.234271	0.053989
1092.396060	0.051948
1092.557831	0.054846
1092.719584	0.054451
1092.881319	0.054546
1093.043035	0.054318
1093.204733	0.056533
1093.366413	0.057104
1093.528075	0.059102
1093.689718	0.058334
1093.851343	0.055487
1094.012950	0.055637
1094.174539	0.057733
1094.336110	0.060135
1094.497662	0.060975
1094.659196	0.059614
1094.820712	0.059569
1094.982210	0.059003
1095.143689	0.059762
1095.305151	0.060620
1095.466594	0.058716
1095.628018	0.057785
1095.789425	0.055816
1095.950813	0.056179
1096.112183	0.055735
1096.273535	0.056611
1096.434869	0.055743
1096.596184	0.054958
1096.757482	0.055441
1096.918761	0.057776
1097.080021	0.056418
1097.241264	0.053417
1097.402488	0.052683
1097.563694	0.052073
1097.724882	0.054012
1097.886052	0.058324
1098.047203	0.057967
1098.208336	0.059882
1098.369451	0.056313
1098.530548	0.054788
1098.691627	0.057690
1098.852687	0.058809
1099.013729	0.059834
1099.174753	0.059473
1099.335758	0.055547
1099.496746	0.058750
1099.657715	0.059102
1099.818666	0.062816
1099.979599	0.063880
1100.140513	0.064067
1100.301409	0.062701
1100.462287	0.060120
1100.623147	0.055642
1100.783989	0.055915
1100.944812	0.051224
1101.105617	0.049514
1101.266404	0.047235
1101.427173	0.048781
1101.587923	0.046439
1101.748656	0.047584
1101.909370	0.050823
1102.070066	0.053652
1102.230743	0.053127
1102.391403	0.054578
1102.552044	0.055412
1102.712667	0.060213
1102.873271	0.059134
1103.033858	0.061941
1103.194426	0.063486
1103.354976	0.062238
1103.515508	0.059767
1103.676021	0.061610
1103.836517	0.065402
1103.996994	0.066241
1104.157453	0.062161
1104.317893	0.064729
1104.478316	0.067701
1104.638720	0.068660
1104.799106	0.072948
1104.959474	0.076019
1105.119823	0.076833
1105.280155	0.076734
1105.440468	0.074936
1105.600763	0.076239
1105.761039	0.072090
1105.921298	0.068866
1106.081538	0.065692
1106.241760	0.062950
1106.401964	0.060575
1106.562149	0.059726
1106.722316	0.056917
1106.882465	0.056483
1107.042596	0.057998
1107.202709	0.063045
1107.362803	0.063991
1107.522879	0.066080
1107.682937	0.066196
1107.842977	0.068918
1108.002999	0.067901
1108.163002	0.066824
1108.322987	0.070400
1108.482954	0.071507
1108.642902	0.070218
1108.802833	0.070458
1108.962745	0.070860
1109.122639	0.067973
1109.282515	0.066601
1109.442372	0.067509
1109.602211	0.070007
1109.762032	0.065244
1109.921835	0.062128
1110.081620	0.059596
1110.241386	0.058434
1110.401134	0.055896
1110.560864	0.060919
1110.720576	0.059763
1110.880269	0.060976
1111.039945	0.063203
1111.199602	0.063946
1111.359240	0.065908
1111.518861	0.068107
1111.678463	0.067623
1111.838047	0.067580
1111.997613	0.064529
1112.157161	0.069160
1112.316690	0.067546
1112.476202	0.068443
1112.635695	0.071526
1112.795169	0.069957
1112.954626	0.071102
1113.114064	0.069842
1113.273484	0.072478
1113.432886	0.070791
1113.592270	0.063585
1113.751635	0.061174
1113.910983	0.060212
1114.070312	0.061517
1114.229622	0.058420
1114.388915	0.058577
1114.548189	0.062115
1114.707445	0.064450
1114.866683	0.064978
1115.025903	0.069933
1115.185104	0.071168
1115.344287	0.069507
1115.503452	0.071060
1115.662599	0.074429
1115.821727	0.069850
1115.980838	0.064889
1116.139930	0.060850
1116.299004	0.061952
1116.458059	0.064054
1116.617097	0.065281
1116.776116	0.067148
1116.935117	0.059972
1117.094099	0.058443
1117.253064	0.058290
1117.412010	0.057495
1117.570938	0.057224
1117.729848	0.058707
1117.888740	0.056070
1118.047613	0.059597
1118.206468	0.054575
1118.365305	0.056677
1118.524124	0.060646
1118.682924	0.067993
1118.841707	0.071127
1119.000471	0.071662
1119.159216	0.071974
1119.317944	0.072999
1119.476653	0.069786
1119.635344	0.072589
1119.794017	0.071117
1119.952672	0.068054
1120.111308	0.066233
1120.269927	0.066225
1120.428527	0.068145
1120.587108	0.065557
1120.745672	0.060087
1120.904217	0.064241
1121.062744	0.064344
1121.221253	0.065151
1121.379744	0.068362
1121.538216	0.067018
1121.696671	0.069224
1121.855107	0.068537
1122.013524	0.071466
1122.171924	0.077862
1122.330305	0.075675
1122.488668	0.077473
1122.647013	0.078925
1122.805340	0.076817
1122.963648	0.078866
1123.121938	0.077073
1123.280210	0.075366
1123.438464	0.069666
1123.596700	0.065044
1123.754917	0.065590
1123.913116	0.066325
1124.071297	0.067782
1124.229459	0.068178
1124.387604	0.061862
1124.545730	0.060263
1124.703838	0.059816
1124.861928	0.062320
1125.019999	0.064090
1125.178052	0.063112
1125.336088	0.061235
1125.494104	0.059425
1125.652103	0.059989
1125.810083	0.062289
1125.968045	0.067319
1126.125989	0.068414
1126.283915	0.066532
1126.441823	0.070548
1126.599712	0.064464
1126.757583	0.062224
1126.915436	0.063997
1127.073270	0.066022
1127.231087	0.066612
1127.388885	0.064931
1127.546665	0.065078
1127.704426	0.070704
1127.862170	0.067242
1128.019895	0.069772
1128.177602	0.069590
1128.335291	0.069711
1128.492961	0.074653
1128.650614	0.074791
1128.808248	0.073940
1128.965864	0.074449
1129.123461	0.075772
1129.281041	0.076337
1129.438602	0.077952
1129.596145	0.082730
1129.753670	0.083507
1129.911176	0.079285
1130.068665	0.083079
1130.226135	0.085016
1130.383587	0.086363
1130.541020	0.084503
1130.698436	0.090577
1130.855833	0.093471
1131.013212	0.090816
1131.170573	0.094988
1131.327915	0.090389
1131.485239	0.087930
1131.642545	0.086598
1131.799833	0.087973
1131.957103	0.083747
1132.114354	0.078713
1132.271588	0.077787
1132.428803	0.076552
1132.585999	0.069579
1132.743178	0.070314
1132.900338	0.075526
1133.057480	0.077115
1133.214604	0.078873
1133.371710	0.078174
1133.528797	0.077211
1133.685866	0.075706
1133.842917	0.074915
1133.999950	0.072910
1134.156964	0.077978
1134.313960	0.070030
1134.470938	0.065458
1134.627898	0.062969
1134.784840	0.065566
1134.941763	0.067568
1135.098668	0.064467
1135.255555	0.065615
1135.412424	0.075388
1135.569274	0.071809
1135.726107	0.070446
1135.882921	0.071886
1136.039716	0.073346
1136.196494	0.076014
1136.353253	0.076105
1136.509995	0.082823
1136.666717	0.081573
1136.823422	0.071894
1136.980109	0.070319
1137.136777	0.080046
1137.293427	0.072942
1137.450059	0.075998
1137.606672	0.073474
1137.763267	0.072357
1137.919844	0.067611
1138.076403	0.071389
1138.232944	0.069966
1138.389466	0.071555
1138.545971	0.059960
1138.702457	0.068210
1138.858924	0.058265
1139.015374	0.061581
1139.171805	0.058160
1139.328218	0.064287
1139.484613	0.061771
1139.640990	0.068275
1139.797348	0.067131
1139.953688	0.072554
1140.110010	0.073616
1140.266314	0.081455
1140.422600	0.074819
1140.578867	0.073820
1140.735116	0.070053
1140.891347	0.072071
1141.047559	0.065392
1141.203754	0.067627
1141.359930	0.065844
1141.516088	0.062567
1141.672228	0.060352
1141.828349	0.060622
1141.984452	0.065499
1142.140537	0.069116
1142.296604	0.064121
1142.452653	0.062491
1142.608683	0.064141
1142.764695	0.067058
1142.920689	0.068532
1143.076665	0.063002
1143.232622	0.068759
1143.388562	0.068382
1143.544483	0.062006
1143.700385	0.063588
1143.856270	0.070501
1144.012136	0.071431
1144.167985	0.076214
1144.323814	0.076144
1144.479626	0.077739
1144.635420	0.079323
1144.791195	0.078331
1144.946952	0.079035
1145.102691	0.087014
1145.258411	0.081479
1145.414113	0.073930
1145.569798	0.066574
1145.725463	0.063924
1145.881111	0.067923
1146.036741	0.064560
1146.192352	0.062319
1146.347945	0.072486
1146.503519	0.069352
1146.659076	0.079664
1146.814614	0.082092
1146.970134	0.085750
1147.125636	0.092693
1147.281120	0.095092
1147.436585	0.097821
1147.592032	0.103206
1147.747461	0.087602
1147.902872	0.087882
1148.058265	0.074928
1148.213639	0.073293
1148.368995	0.065783
1148.524333	0.059580
1148.679653	0.055079
1148.834954	0.053710
1148.990237	0.056075
1149.145502	0.064798
1149.300749	0.064291
1149.455977	0.073073
1149.611188	0.077717
1149.766380	0.081647
1149.921553	0.090934
1150.076709	0.087021
1150.231846	0.087703
1150.386966	0.086565
1150.542066	0.077625
1150.697149	0.074577
1150.852214	0.070780
1151.007260	0.072249
1151.162288	0.069127
1151.317298	0.060781
1151.472289	0.070001
1151.627263	0.066610
1151.782218	0.061676
1151.937155	0.066314
1152.092073	0.069446
1152.246974	0.077638
1152.401856	0.073162
1152.556720	0.074127
1152.711566	0.074073
1152.866393	0.068996
1153.021203	0.073260
1153.175994	0.077298
1153.330767	0.077861
1153.485521	0.074952
1153.640258	0.069511
1153.794976	0.073763
1153.949676	0.082373
1154.104358	0.084177
1154.259021	0.079303
1154.413667	0.076739
1154.568294	0.082299
1154.722903	0.080741
1154.877493	0.075017
1155.032066	0.069260
1155.186620	0.060790
1155.341156	0.065012
1155.495674	0.059861
1155.650173	0.069219
1155.804654	0.067340
1155.959118	0.055103
1156.113562	0.056665
1156.267989	0.066747
1156.422397	0.070256
1156.576788	0.075191
1156.731160	0.069424
1156.885513	0.082821
1157.039849	0.071516
1157.194166	0.074677
1157.348465	0.075053
1157.502746	0.084152
1157.657009	0.079164
1157.811253	0.080638
1157.965479	0.075882
1158.119687	0.079170
1158.273877	0.079422
1158.428048	0.085580
1158.582201	0.085518
1158.736337	0.096659
1158.890453	0.091811
1159.044552	0.087128
1159.198632	0.083973
1159.352694	0.089903
1159.506738	0.090335
1159.660764	0.081561
1159.814771	0.088117
1159.968761	0.088226
1160.122732	0.077199
1160.276685	0.072254
1160.430619	0.078040
1160.584535	0.083245
1160.738434	0.081300
1160.892313	0.074154
1161.046175	0.073304
1161.200019	0.067842
1161.353844	0.062117
1161.507651	0.079641
1161.661440	0.077510
1161.815210	0.086296
1161.968962	0.086721
1162.122697	0.090595
1162.276412	0.093283
1162.430110	0.103348
1162.583789	0.099037
1162.737451	0.105259
1162.891094	0.076002
1163.044718	0.074168
1163.198325	0.070376
1163.351913	0.069350
1163.505483	0.060781
1163.659035	0.052982
1163.812569	0.044558
1163.966084	0.053423
1164.119581	0.055683
1164.273060	0.070356
1164.426521	0.076599
1164.579964	0.065786
1164.733388	0.069431
1164.886794	0.079665
1165.040182	0.093981
1165.193551	0.104553
1165.346903	0.088253
1165.500236	0.080122
1165.653551	0.079634
1165.806848	0.080809
1165.960126	0.091649
1166.113386	0.093253
1166.266628	0.090580
1166.419852	0.080443
1166.573058	0.074453
1166.726245	0.075747
1166.879414	0.079312
1167.032565	0.072741
1167.185698	0.068973
1167.338812	0.069584
1167.491909	0.056891
1167.644987	0.053888
1167.798046	0.053943
1167.951088	0.056951
1168.104111	0.060367
1168.257117	0.049069
1168.410103	0.060622
1168.563072	0.065288
1168.716023	0.062366
1168.868955	0.065001
1169.021869	0.066520
1169.174765	0.063796
1169.327642	0.053541
1169.480501	0.058584
1169.633343	0.069430
1169.786165	0.056674
1169.938970	0.040077
1170.091757	0.034602
1170.244525	0.032638
1170.397275	0.039486
1170.550007	0.054601
1170.702720	0.058226
1170.855415	0.053299
1171.008092	0.042163
1171.160751	0.036338
1171.313392	0.037995
1171.466014	0.036426
1171.618619	-0.038137
1171.771205	-0.038137
1171.923772	-0.038137
