sample name	sample
index	178
start time	 02-18-2021  11:02:17 AM
880	0.492897
Peak Time (s)	92.535
Peak Height 	0.4929
calc peak height	90,93
Baseline Time (s)	10.537
Baseline Value 	-0.002232
subtract baseline	10,4
Abs	0.324606
Peak Time (s)	90.039
Peak Height 	0.3246
calc peak height	90,93
Baseline Time (s)	11.535
Baseline Value 	0.002015
subtract baseline	10,3
PK_550	0.153220
Peak Time (s)	90.039
Peak Height 	0.1532
calc peak height	90,93
Baseline Time (s)	9.537
Baseline Value 	1.9928E-4
subtract baseline	10,2
PK_880	0.307582
Peak Time (s)	91.537
Peak Height 	0.3076
calc peak height	90,93
Baseline Time (s)	9.537
Baseline Value 	0.001487
subtract baseline	10,1


Time (s)	A880-A510	A880-A775	A880-A975	A880	I510	I775	I975	I880	
0.037000	-0.001818	-0.000429	-0.002506	0.005525	6632.814568	43136.070776	3833.115771	22719.517525
0.537500	-0.002384	-0.000583	-0.003453	0.005397	6628.919651	43133.671455	3831.055265	22725.402710
1.037000	-0.005772	-0.001023	-0.002950	0.003450	6616.144700	43273.961666	3837.234768	22815.133132
1.538000	-0.001363	-0.000188	0.003939	0.000735	6679.725275	43606.124038	3861.802070	22940.901048
2.035000	-0.003169	-0.001026	-0.002525	0.004167	6632.872277	43206.866982	3836.496521	22782.029733
2.535500	-0.001140	-0.000178	0.006163	0.001600	6673.957283	43525.895287	3865.322475	22900.750177
3.035500	-0.000600	-0.000152	0.002810	-0.001439	6706.241012	43814.324691	3864.507972	23042.170671
3.539000	-0.000349	-0.000387	-0.000027	0.000177	6693.891864	43639.905793	3853.021550	22966.837377
4.036000	-0.005191	-0.000090	0.000032	0.004558	6611.490226	43257.607868	3841.985854	22764.026566
4.536500	-0.001359	0.000305	-0.000192	0.000617	6680.822834	43663.611310	3851.471416	22946.399486
5.037000	0.000180	-0.000354	0.000961	0.000953	6691.674314	43570.172540	3853.566487	22930.792726
5.537000	-0.001490	-0.000561	-0.002388	0.000482	6680.854060	43594.822247	3846.199441	22952.648589
6.034500	-0.000152	-0.000183	-0.003389	0.000374	6693.899028	43640.649774	3843.927206	22957.700478
6.535000	-0.000902	0.000211	0.002279	0.000529	6685.727413	43663.033022	3858.047093	22950.467953
7.035000	-0.000986	0.000211	0.002318	0.000287	6687.149636	43685.821705	3858.770846	22961.716963
7.538500	-0.000376	-0.000113	0.002552	-0.000326	6698.201022	43713.000263	3860.959388	22990.262362
8.036000	-0.000535	0.000899	0.006937	0.000781	6686.772007	43704.109385	3869.462886	22938.782590
8.536500	0.000934	0.000487	-0.000518	0.000428	6703.233075	43698.621656	3851.119721	22955.191363
9.036500	0.000310	0.000834	0.003181	0.000061	6700.904257	43765.876119	3861.586365	22972.260676
9.537000	0.000000	0.000000	0.000692	-0.000543	6703.562827	43744.166228	3856.720480	23000.381612
10.037000	-0.000653	-0.000027	0.004643	-0.000020	6692.930276	43692.377349	3865.580941	22976.019369
10.537500	0.000444	-0.000075	-0.000301	0.000000	6702.662852	43685.987197	3852.773913	22975.091924
11.034500	-0.001184	0.000035	-0.004562	0.000073	6687.307348	43689.402211	3841.708764	22971.699341
11.535000	-0.001571	-0.000167	0.000000	-0.000086	6685.251116	43685.403397	3853.767388	22979.111601
12.035500	-0.000207	-0.000116	0.001606	0.000100	6695.870129	43672.625291	3857.416656	22970.415890
12.535500	-0.001834	0.000675	0.003256	0.000246	6679.884074	43733.408704	3861.300565	22963.637431
13.036000	0.000893	0.000404	-0.002718	-0.000709	6713.169708	43797.964502	3848.401495	23008.138682
13.536500	-0.000655	-0.000123	0.001468	-0.001189	6703.474831	43793.473369	3860.386720	23030.502187
14.036500	-0.000026	0.000471	0.001741	0.003018	6671.231073	43453.894495	3850.273424	22835.106158
14.536500	-0.001882	-0.000326	-0.002147	0.001545	6667.790367	43517.229338	3844.107744	22903.311877
15.034000	0.002128	-0.000213	0.001956	-0.001020	6727.216876	43769.101801	3861.213704	23022.641094
15.537500	0.001529	0.000010	-0.000266	-0.001173	6723.152587	43804.500152	3855.874939	23029.760818
16.034500	0.000234	0.000514	0.004596	-0.001019	6709.997092	43837.631951	3868.055953	23022.592365
16.535500	-0.001763	0.000228	-0.002686	0.003224	6653.819880	43411.830143	3838.476414	22825.583474
17.035500	0.000973	0.000320	-0.001948	-0.003170	6736.283179	44022.978772	3856.685846	23123.188785
17.536000	-0.002057	0.000290	0.004946	0.001007	6671.043765	43625.515815	3863.705328	22928.277233
18.036500	-0.001680	0.001080	0.001261	0.001420	6670.719596	43660.968456	3853.138535	22909.104440
18.536000	-0.000040	-0.000130	-0.005329	0.001434	6685.344893	43546.037015	3836.317170	22908.459030
19.036500	-0.000563	-0.000144	0.001220	0.001046	6684.128556	43581.042217	3853.992270	22926.442407
19.537000	-0.000461	0.000358	-0.000747	0.001441	6681.490441	43591.179210	3847.941388	22908.119392
20.040000	-0.001610	-0.000351	0.003147	0.001086	6674.349092	43557.913907	3858.849582	22924.590732
20.556500	-0.002991	-0.000544	0.004039	0.000787	6664.635341	43567.880830	3861.926715	22938.487350
21.035000	-0.001994	0.000225	-0.004675	0.001090	6670.862782	43611.560240	3838.841329	22924.401494
21.534500	-0.000363	0.000319	0.003773	0.001226	6684.309144	43607.650159	3860.104293	22918.107032
22.035000	-0.001544	0.000348	0.000062	0.001177	6674.132238	43615.073162	3850.686881	22920.389461
22.535500	-0.002068	0.000065	0.002513	0.001656	6665.122063	43543.512284	3855.749313	22898.161799
23.035500	-0.000963	0.000408	0.003230	0.001192	6679.212959	43619.266911	3858.790229	22919.676397
23.536000	0.000260	0.000177	0.003711	0.001356	6688.751408	43582.118958	3859.608950	22912.063832
24.039000	-0.000096	-0.000194	0.003607	0.000763	6690.892227	43602.961600	3860.868998	22939.584931
24.536500	-0.001853	0.000738	0.004793	0.001922	6664.662763	43581.618600	3860.941726	22885.811687
25.037500	-0.002149	0.000025	-0.000239	0.001123	6669.176422	43589.669824	3850.053965	22922.873578
25.535000	-0.001972	0.000160	-0.002896	0.001541	6667.010949	43563.122581	3842.210133	22903.460834
26.035500	-0.002473	0.000269	0.001470	0.001222	6665.382248	43603.336566	3854.181156	22918.278130
26.538500	-0.003267	0.000208	0.001800	0.001255	6657.975971	43594.550425	3854.946824	22916.771302
27.035500	-0.000679	-0.000010	0.004566	-0.001466	6705.775881	43830.364735	3869.141695	23043.468290
27.536000	-0.000881	0.001422	0.004617	-0.000887	6698.703209	43911.053084	3867.766022	23016.430767
28.037000	0.001816	0.000326	0.003878	-0.000796	6722.337742	43798.839973	3865.610238	23012.184648
28.536500	0.000621	0.000713	0.004051	-0.000733	6710.914311	43829.416645	3865.895367	23009.250370
29.037000	-0.000995	-0.000192	0.000111	-0.001181	6700.338086	43786.317666	3856.868036	23030.164863
29.537000	-0.001514	-0.000744	-0.000451	-0.001775	6701.007521	43790.167651	3856.949337	23057.887230
30.037000	-0.001307	0.000295	-0.002512	0.004812	6643.717927	43269.870566	3834.900633	22752.332962
30.535000	-0.000908	0.000390	0.001850	0.002986	6663.600184	43449.243034	3850.633312	22836.558148
31.035500	-0.001975	0.000069	0.001906	0.001113	6670.828888	43594.868427	3855.585300	22923.365816
31.536000	-0.000348	0.000272	0.004870	-0.000834	6703.046015	43797.265529	3868.286618	23013.938921
32.036000	-0.000267	0.000389	0.003641	-0.000518	6700.920414	43778.498695	3864.274536	22999.214002
32.536500	-0.002412	0.000319	0.002604	0.002382	6655.543296	43499.190774	3854.116002	22864.507322
33.036500	-0.000182	-0.000294	0.002752	-0.000995	6706.002617	43759.047298	3863.206680	23021.442321
33.536500	0.002852	0.001243	0.006168	-0.001448	6737.723337	43947.237620	3873.271588	23042.622331
34.037000	-0.001480	0.000820	0.002189	0.001758	6669.480136	43604.818431	3854.651781	22893.422900
34.534500	-0.000713	0.000465	0.002818	0.001931	6674.816446	43555.242452	3855.824744	22885.408336
35.035000	-0.001062	0.000981	0.000603	0.002543	6666.185383	43546.212340	3848.575578	22857.054910
35.535000	0.000656	0.000051	0.002030	0.001676	6689.435567	43540.262157	3854.456060	22897.220758
36.035500	-0.002006	0.000528	0.002615	0.002450	6658.562153	43512.393085	3853.968600	22861.349428
36.538500	-0.000982	0.000371	0.002091	0.001893	6672.740501	43549.901447	3854.055306	22887.163303
37.036000	-0.002788	-0.000002	-0.001208	0.001478	6660.272080	43553.915038	3846.672544	22906.420439
37.535500	-0.001280	-0.000312	-0.001456	0.001287	6675.510289	43542.763396	3846.525366	22915.278580
38.036500	-0.002343	0.000057	0.003839	0.002146	6658.276028	43496.710080	3857.900139	22875.441424
38.539000	0.000017	0.000020	0.000248	0.001871	6681.917577	43519.016277	3849.386484	22888.159662
39.037500	-0.000225	0.000157	0.003155	0.002001	6678.575194	43519.738340	3856.511384	22882.148892
39.540000	-0.001489	0.000721	-0.000005	0.002363	6663.982062	43538.699212	3847.484587	22865.412663
40.035000	-0.002307	0.000544	0.002859	0.002515	6655.286817	43507.760043	3854.429241	22858.338208
40.540500	-0.002769	-0.000009	0.004828	0.001586	6659.473788	43543.093738	3861.899965	22901.398719
41.035500	0.000179	0.000970	0.004915	0.002508	6677.649675	43548.406619	3859.742908	22858.673637
41.537500	-0.001158	0.000195	0.006930	0.001454	6675.110476	43574.601362	3867.693897	22907.534502
42.036500	-0.000192	-0.000087	0.000616	0.001927	6679.538857	43503.812664	3850.184997	22885.601453
42.536500	-0.000490	0.000619	0.002914	0.002429	6672.346271	43522.960342	3854.792279	22862.354273
43.036500	-0.001187	0.000909	0.002952	0.002124	6668.827648	43578.726959	3855.672901	22876.466960
43.537000	-0.000828	0.000375	-0.001071	0.001739	6675.501791	43564.690506	3846.352936	22894.283295
44.037500	-0.001116	0.000574	0.002570	0.002074	6669.910138	43551.998587	3854.817893	22878.757241
44.538000	-0.002681	-0.000629	0.000075	0.002197	6654.792041	43427.705007	3848.110135	22873.061653
45.035000	-0.001342	-0.000217	0.001704	-0.001207	6697.426495	43786.390634	3861.043684	23031.360596
45.535500	0.000205	-0.000241	0.005447	-0.001187	6711.251425	43782.166415	3870.706254	23030.403067
46.035500	-0.002355	-0.000454	-0.000798	0.002657	6653.594627	43401.050537	3844.712120	22851.790290
46.536000	-0.004036	0.000122	-0.002332	0.004071	6626.030195	43322.832427	3837.227710	22786.468342
47.036500	-0.001540	0.000667	0.001816	-0.000577	6689.956382	43810.374858	3859.706174	23001.987554
47.536500	-0.002226	0.000252	-0.000164	0.002449	6656.606665	43486.647886	3846.858505	22861.417204
48.036500	0.000402	0.000647	-0.000650	0.001447	6689.212538	43617.769483	3848.175806	22907.846347
48.537500	-0.002447	0.000260	0.000124	0.005044	6631.500798	43244.893171	3840.984788	22741.631808
49.040000	-0.000472	0.000451	0.001531	-0.000851	6702.082994	43815.806830	3859.679200	23014.754796
49.535000	0.000870	0.000988	0.000427	-0.002207	6726.567056	43994.979035	3860.326919	23078.069612
50.035000	0.000986	0.001359	0.002783	0.002657	6683.568412	43570.898174	3853.867401	22851.763123
50.535500	-0.004358	0.000427	0.001992	0.005290	6612.379825	43237.554965	3845.109792	22730.317824
51.035500	0.001125	0.000875	0.001116	-0.001506	6722.518577	43917.916750	3860.299790	23045.341618
51.536000	0.001474	0.000705	0.001180	-0.007832	6783.706054	44504.937654	3876.925882	23343.000500
52.036500	-0.020045	-0.008844	-0.001259	0.054235	6081.332793	38163.997381	3719.799470	20601.679644
52.537000	-0.011543	-0.015025	0.003135	0.017463	6444.954542	40745.207775	3817.361454	22178.312133
53.039500	-0.002676	-0.017373	0.020707	-0.022398	6881.085567	44168.940257	3969.889603	24045.105639
53.537000	0.011918	-0.016347	0.034391	-0.085993	7691.667538	50806.918993	4209.699034	27401.975259
54.037500	0.024194	-0.005238	0.047786	-0.019656	7115.842169	45073.603769	4040.860667	23911.133623
54.535000	0.051544	0.013636	0.072940	0.042244	6783.645677	41085.727818	3935.206077	21101.201736
55.035500	0.081722	0.031750	0.099040	0.059866	6901.322578	41129.111675	3958.793193	20371.786700
55.535500	0.109602	0.053775	0.116922	0.080738	6968.502706	41231.039073	3950.423428	19545.329003
56.036000	0.146271	0.073391	0.143881	0.076917	7378.565239	43362.269435	4039.426828	19693.656308
56.536000	0.174920	0.087364	0.175278	0.107367	7359.506126	41851.996751	4042.268942	18546.932088
57.039500	0.193160	0.098859	0.198122	0.164049	6970.883947	37992.433044	3944.547835	16615.076741
57.537000	0.202786	0.103737	0.206943	0.234252	6424.202449	33076.992470	3785.592099	14546.780452
58.037500	0.213009	0.111853	0.222174	0.285167	6097.544892	30235.104043	3703.002532	13242.680343
58.537500	0.227959	0.120631	0.242616	0.314174	5991.619050	28986.187545	3684.167621	12565.273838
59.037500	0.243707	0.128476	0.254002	0.347795	5861.799924	27476.899810	3636.971889	11834.694140
59.535000	0.250463	0.133127	0.266877	0.372069	5739.650767	26386.511710	3613.698149	11341.302088
60.035500	0.252253	0.135726	0.273343	0.395807	5593.392609	25265.686995	3579.576843	10884.747100
60.535500	0.264738	0.140396	0.276010	0.407754	5596.892209	24892.260612	3561.796413	10664.240637
61.036000	0.268022	0.143925	0.283833	0.414187	5576.481331	24745.014138	3564.435817	10548.003798
61.536000	0.273295	0.147414	0.294250	0.419420	5576.737958	24657.006646	3574.351896	10454.691014
62.036500	0.278688	0.151764	0.286304	0.426120	5568.312088	24539.086902	3546.637812	10336.875782
62.536500	0.277109	0.152300	0.290659	0.425659	5561.126913	24589.072564	3555.648997	10344.929390
63.037000	0.283361	0.155098	0.288307	0.425230	5604.363706	24751.593476	3552.038271	10352.420968
63.537000	0.283911	0.154532	0.295329	0.422229	5627.622389	24875.053500	3571.031187	10405.083754
64.034500	0.283943	0.155148	0.300509	0.422455	5626.339202	24894.890447	3580.580544	10401.099247
64.535500	0.285565	0.156364	0.295533	0.424344	5624.586783	24860.624704	3567.374776	10367.921396
65.035500	0.284377	0.155894	0.300217	0.425510	5609.164083	24777.658635	3574.116050	10347.517134
65.536000	0.285057	0.154927	0.299010	0.426663	5606.072201	24670.596465	3569.587210	10327.394548
66.036500	0.287959	0.155785	0.298157	0.431104	5596.053254	24490.877852	3559.518618	10250.390788
66.536500	0.286854	0.154845	0.301892	0.432163	5582.011619	24391.255713	3564.592996	10232.140781
67.037000	0.287521	0.154879	0.304901	0.435404	5565.410280	24232.382031	3564.152565	10176.583004
67.537000	0.289397	0.154866	0.306512	0.438324	5558.703083	24088.073267	3561.668687	10126.874316
68.036500	0.286711	0.154924	0.304671	0.442309	5516.221251	23896.401737	3550.700314	10059.566775
68.535000	0.289337	0.156733	0.302120	0.448584	5493.260551	23680.495529	3534.359799	9954.820555
69.037500	0.289772	0.155915	0.312339	0.446065	5511.830569	23762.477710	3558.047375	9996.686983
69.538000	0.290556	0.157057	0.304345	0.448888	5498.996872	23681.486246	3537.889000	9949.786050
70.035500	0.290844	0.156383	0.310140	0.450976	5487.722999	23549.105681	3544.741320	9915.306311
70.536000	0.289656	0.154385	0.306549	0.452639	5469.953596	23374.857695	3535.047110	9887.953575
71.039000	0.289506	0.154564	0.310473	0.451386	5476.813267	23442.840556	3544.598566	9908.551314
71.536500	0.291927	0.155371	0.312557	0.452465	5485.183553	23429.909463	3546.465692	9890.805910
72.040000	0.291406	0.155441	0.311276	0.454980	5466.278051	23314.031598	3539.434779	9849.611364
72.537000	0.294944	0.156220	0.303165	0.459783	5458.447207	23124.815145	3515.971706	9771.624779
73.037000	0.293868	0.154990	0.311195	0.456474	5472.289924	23222.325001	3536.535120	9825.257125
73.537500	0.293895	0.156730	0.311297	0.458266	5461.344963	23219.932528	3533.436194	9796.167202
74.035000	0.296782	0.155539	0.303555	0.460666	5464.360855	23051.735891	3515.088966	9757.383766
74.535500	0.293875	0.155954	0.314943	0.462128	5437.408495	23002.944030	3533.041827	9733.858820
75.036000	0.295842	0.156989	0.309436	0.463404	5441.658363	22991.754027	3520.729850	9713.396504
75.535500	0.296529	0.156194	0.312766	0.463570	5444.861365	22947.097377	3526.447885	9710.732865
76.036500	0.297674	0.155197	0.307108	0.464667	5445.154209	22850.129517	3514.289180	9693.194807
76.536500	0.296441	0.156156	0.314527	0.467539	5420.002441	22761.994106	3522.452191	9647.475560
77.039500	0.296965	0.155894	0.313317	0.466496	5429.574686	22797.946959	3522.151432	9664.048633
77.537000	0.297881	0.155174	0.319438	0.467836	5426.982966	22703.291188	3530.825261	9642.776186
78.035000	0.295877	0.156279	0.313785	0.470108	5400.971886	22649.869564	3516.499962	9606.853386
78.535000	0.298328	0.155690	0.313804	0.471147	5409.534618	22575.553936	3514.674390	9590.486819
79.035500	0.300764	0.156146	0.314587	0.471436	5422.602956	22583.200384	3515.558627	9585.944223
79.535500	0.298591	0.154361	0.314498	0.470559	5414.704274	22541.828669	3516.967660	9599.736129
80.035500	0.299722	0.154162	0.311866	0.472330	5410.810443	22452.444983	3509.115926	9571.895998
80.536500	0.301333	0.154740	0.321229	0.473422	5413.969175	22429.232737	3523.931921	9554.788000
81.036500	0.301977	0.155472	0.313773	0.475351	5406.162887	22375.177600	3507.142953	9524.662552
81.536500	0.300238	0.154209	0.317291	0.474417	5401.285927	22360.327347	3515.061545	9539.235444
82.037000	0.304955	0.155663	0.321617	0.477396	5411.829048	22291.772478	3517.475260	9492.885466
82.537000	0.302540	0.156307	0.313506	0.478850	5388.413147	22255.420362	3500.506786	9470.365396
83.035000	0.300163	0.154152	0.310909	0.478105	5378.596132	22192.336944	3497.263919	9481.889766
83.534500	0.302473	0.153309	0.311540	0.478702	5388.903674	22128.103358	3497.323564	9472.652607
84.035000	0.301335	0.153278	0.312736	0.478578	5382.799507	22132.286781	3499.634203	9474.579842
84.538000	0.301861	0.154454	0.317429	0.484789	5348.849033	21909.413561	3496.979237	9379.209693
85.036000	0.302395	0.154149	0.320334	0.482036	5368.424464	22017.447882	3506.923339	9421.309757
85.536500	0.303522	0.153197	0.321489	0.482046	5375.112837	21974.925635	3508.951689	9421.158363
86.039500	0.302370	0.153509	0.319744	0.483233	5361.122735	21936.267819	3503.767246	9402.965356
86.537000	0.304545	0.153497	0.319487	0.485645	5359.717756	21829.772986	3499.080023	9366.171636
87.036500	0.305193	0.154082	0.317810	0.485186	5366.321690	21875.582513	3496.950611	9373.154494
87.534500	0.305630	0.152426	0.319474	0.485321	5368.120305	21797.012253	3499.624512	9371.091654
88.035000	0.304521	0.151249	0.316395	0.485211	5362.153741	21750.407951	3494.439603	9372.767717
88.535000	0.301189	0.153438	0.315774	0.490565	5310.865495	21612.745249	3484.110912	9291.725422
89.035500	0.303185	0.151488	0.319809	0.486063	5349.141234	21723.663301	3498.911724	9359.808802
89.539000	0.302587	0.150810	0.319836	0.487235	5338.657304	21643.189590	3496.908540	9342.014967
90.039000	0.307360	0.153220	0.324606	0.489629	5352.756204	21643.891402	3501.070055	9305.822887
90.536000	0.304345	0.152023	0.324127	0.490505	5329.737448	21554.132695	3498.693987	9292.625372
91.036500	0.305205	0.153060	0.320480	0.490396	5335.452771	21603.718744	3492.528841	9294.277912
91.537000	0.307582	0.151563	0.318422	0.491340	5343.926370	21498.310650	3487.333570	9280.086053
92.034500	0.305286	0.151016	0.317200	0.491381	5330.118042	21472.954810	3485.158404	9279.463624
92.535000	0.306588	0.150830	0.318126	0.492897	5328.861189	21399.929756	3484.145769	9256.742853
93.035000	0.305010	0.149639	0.316999	0.491311	5328.906695	21416.834467	3484.933162	9280.513348
93.535500	0.308695	0.150936	0.326450	0.494455	5332.093441	21337.815650	3495.853078	9233.468300
94.036000	0.310534	0.150962	0.326024	0.494977	5339.871320	21316.672309	3494.202191	9225.694412
94.536000	0.306980	0.149460	0.324070	0.495859	5313.773232	21215.254991	3489.282582	9212.568248
95.036500	0.310561	0.149206	0.318902	0.494597	5342.277264	21258.030640	3482.561225	9231.347192
95.537000	0.308425	0.147946	0.323111	0.495440	5324.706186	21168.869557	3488.349217	9218.793644
96.036500	0.307405	0.148588	0.322249	0.494914	5321.809220	21218.375662	3487.769784	9226.632237
