sample name	sample
index	636
start time	 03-19-2021  03:22:56 PM


Wavelength (nm)	Absorbance
494.344910	0.245859
494.563924	0.245859
494.782919	0.245859
495.001897	NaN
495.220856	0.022084
495.439797	-0.037772
495.658719	0.072450
495.877624	-0.062205
496.096510	0.054653
496.315378	-0.000875
496.534227	-0.115537
496.753059	-0.071623
496.971872	-0.097216
497.190667	0.040390
497.409444	0.046720
497.628203	0.043558
497.846943	0.047149
498.065665	0.046921
498.284369	0.046897
498.503055	0.047484
498.721723	0.047647
498.940372	0.047965
499.159003	0.048057
499.377616	0.048219
499.596210	0.048903
499.814787	0.047670
500.033345	0.046297
500.251885	0.046603
500.470406	0.046784
500.688910	0.046936
500.907395	0.046788
501.125862	0.045615
501.344311	0.044949
501.562742	0.044577
501.781154	0.044286
501.999548	0.045662
502.217924	0.045065
502.436282	0.043995
502.654621	0.044198
502.872942	0.044262
503.091245	0.045000
503.309530	0.044857
503.527797	0.044533
503.746045	0.045803
503.964275	0.045666
504.182487	0.046154
504.400681	0.047421
504.618856	0.046726
504.837013	0.045916
505.055152	0.045630
505.273273	0.045733
505.491376	0.046314
505.709460	0.045357
505.927526	0.045196
506.145574	0.045622
506.363604	0.044797
506.581615	0.045438
506.799608	0.045997
507.017583	0.046021
507.235540	0.045839
507.453478	0.045999
507.671399	0.047326
507.889301	0.047012
508.107185	0.046878
508.325050	0.046532
508.542898	0.045691
508.760727	0.045131
508.978538	0.045013
509.196330	0.045257
509.414105	0.044631
509.631861	0.043555
509.849599	0.044062
510.067319	0.044061
510.285021	0.044486
510.502704	0.044803
510.720369	0.045427
510.938016	0.045566
511.155645	0.045471
511.373255	0.045553
511.590848	0.046399
511.808422	0.046072
512.025977	0.045664
512.243515	0.045954
512.461034	0.045859
512.678536	0.044922
512.896018	0.044807
513.113483	0.045563
513.330930	0.046215
513.548358	0.045543
513.765768	0.046030
513.983160	0.046225
514.200533	0.045044
514.417889	0.044608
514.635226	0.045612
514.852545	0.045450
515.069845	0.044693
515.287128	0.044356
515.504392	0.044681
515.721638	0.044042
515.938866	0.044239
516.156075	0.044750
516.373267	0.045377
516.590440	0.045516
516.807594	0.045570
517.024731	0.046321
517.241850	0.046644
517.458950	0.046453
517.676032	0.046774
517.893095	0.046469
518.110141	0.047200
518.327168	0.046961
518.544177	0.045879
518.761168	0.045985
518.978141	0.045068
519.195095	0.044908
519.412031	0.044944
519.628949	0.044899
519.845849	0.044888
520.062731	0.044188
520.279594	0.044196
520.496439	0.044201
520.713266	0.044532
520.930074	0.044578
521.146865	0.043737
521.363637	0.043483
521.580391	0.043788
521.797127	0.044262
522.013844	0.045119
522.230543	0.045868
522.447224	0.046339
522.663887	0.046175
522.880532	0.046119
523.097158	0.046845
523.313766	0.047040
523.530356	0.046706
523.746928	0.046529
523.963481	0.045706
524.180017	0.045306
524.396534	0.046123
524.613032	0.046221
524.829513	0.046431
525.045975	0.045858
525.262420	0.045745
525.478845	0.046190
525.695253	0.046074
525.911643	0.046642
526.128014	0.046414
526.344367	0.046181
526.560702	0.045769
526.777018	0.046223
526.993316	0.047416
527.209597	0.047664
527.425858	0.047786
527.642102	0.047888
527.858328	0.047182
528.074535	0.047347
528.290724	0.047025
528.506894	0.046967
528.723047	0.046966
528.939181	0.046844
529.155297	0.046715
529.371395	0.046320
529.587475	0.046043
529.803536	0.046151
530.019579	0.046462
530.235604	0.046282
530.451611	0.046949
530.667600	0.046741
530.883570	0.046660
531.099522	0.046960
531.315456	0.047185
531.531372	0.047746
531.747269	0.048446
531.963148	0.048494
532.179009	0.048952
532.394852	0.049045
532.610676	0.049320
532.826482	0.049245
533.042271	0.049357
533.258040	0.048890
533.473792	0.048872
533.689525	0.048615
533.905240	0.048791
534.120937	0.049162
534.336616	0.048953
534.552277	0.048817
534.767919	0.048960
534.983543	0.048743
535.199149	0.049171
535.414736	0.049058
535.630306	0.049567
535.845857	0.049070
536.061390	0.048803
536.276904	0.048502
536.492401	0.048637
536.707879	0.048369
536.923339	0.048505
537.138781	0.048402
537.354204	0.048442
537.569610	0.048502
537.784997	0.048926
538.000366	0.049307
538.215716	0.049479
538.431049	0.049518
538.646363	0.049872
538.861659	0.049757
539.076937	0.049834
539.292196	0.050003
539.507438	0.049488
539.722661	0.049690
539.937866	0.049631
540.153052	0.049974
540.368221	0.050094
540.583371	0.049602
540.798503	0.049682
541.013617	0.049828
541.228712	0.049855
541.443789	0.049930
541.658848	0.049772
541.873889	0.049803
542.088912	0.049478
542.303916	0.049288
542.518902	0.049606
542.733870	0.049978
542.948820	0.050051
543.163752	0.050006
543.378665	0.050582
543.593560	0.050582
543.808437	0.050455
544.023295	0.050996
544.238136	0.051270
544.452958	0.051407
544.667762	0.051232
544.882548	0.051552
545.097315	0.051694
545.312064	0.051732
545.526795	0.051909
545.741508	0.052001
545.956203	0.052302
546.170879	0.052134
546.385537	0.052150
546.600177	0.052715
546.814799	0.052585
547.029402	0.052318
547.243988	0.052041
547.458555	0.051977
547.673103	0.051975
547.887634	0.051870
548.102146	0.052372
548.316640	0.052238
548.531116	0.051732
548.745574	0.052080
548.960013	0.052392
549.174435	0.052623
549.388838	0.052832
549.603222	0.052804
549.817589	0.052624
550.031937	0.052501
550.246267	0.052895
550.460579	0.053289
550.674873	0.053049
550.889148	0.053033
551.103405	0.053215
551.317644	0.053290
551.531865	0.053543
551.746068	0.053857
551.960252	0.054111
552.174418	0.054047
552.388566	0.054071
552.602696	0.054217
552.816807	0.054675
553.030900	0.054721
553.244975	0.055064
553.459032	0.055139
553.673070	0.054914
553.887091	0.054709
554.101093	0.054717
554.315077	0.054687
554.529042	0.055032
554.742990	0.054837
554.956919	0.054854
555.170830	0.054693
555.384722	0.055171
555.598597	0.055153
555.812453	0.055306
556.026291	0.055729
556.240111	0.055835
556.453913	0.055580
556.667696	0.055513
556.881461	0.055302
557.095208	0.054984
557.308937	0.054695
557.522647	0.055027
557.736339	0.054941
557.950013	0.054514
558.163669	0.054369
558.377307	0.054261
558.590926	0.054298
558.804527	0.054539
559.018110	0.054947
559.231675	0.054786
559.445221	0.054715
559.658749	0.054647
559.872259	0.054919
560.085751	0.055144
560.299225	0.055597
560.512680	0.055780
560.726117	0.055762
560.939536	0.055957
561.152937	0.056193
561.366319	0.056419
561.579683	0.056770
561.793029	0.056714
562.006357	0.056766
562.219667	0.056910
562.432958	0.057088
562.646231	0.057344
562.859486	0.057190
563.072723	0.056950
563.285941	0.056997
563.499141	0.056775
563.712323	0.057219
563.925487	0.057155
564.138632	0.056779
564.351760	0.056539
564.564869	0.056295
564.777960	0.056167
564.991032	0.056394
565.204087	0.056533
565.417123	0.056776
565.630141	0.056564
565.843140	0.057109
566.056122	0.057283
566.269085	0.057436
566.482030	0.057600
566.694957	0.057801
566.907866	0.057797
567.120756	0.057568
567.333628	0.057759
567.546482	0.057724
567.759318	0.057495
567.972135	0.057572
568.184935	0.057504
568.397716	0.057765
568.610478	0.057950
568.823223	0.057894
569.035949	0.058173
569.248657	0.058061
569.461347	0.058072
569.674019	0.058236
569.886672	0.058246
570.099308	0.058630
570.311925	0.058723
570.524523	0.058322
570.737104	0.058474
570.949666	0.058374
571.162210	0.058335
571.374736	0.058868
571.587244	0.058936
571.799733	0.059336
572.012205	0.059527
572.224658	0.059548
572.437092	0.059641
572.649509	0.059835
572.861907	0.060149
573.074287	0.060645
573.286649	0.060101
573.498993	0.059735
573.711318	0.059481
573.923625	0.059417
574.135914	0.059362
574.348185	0.059967
574.560438	0.060104
574.772672	0.060040
574.984888	0.060163
575.197086	0.060512
575.409266	0.060661
575.621427	0.060802
575.833570	0.061038
576.045695	0.061175
576.257802	0.060972
576.469890	0.061031
576.681961	0.060602
576.894013	0.060301
577.106046	0.060297
577.318062	0.060494
577.530059	0.060641
577.742039	0.060411
577.954000	0.060632
578.165942	0.060956
578.377867	0.061107
578.589773	0.061514
578.801661	0.061493
579.013531	0.061766
579.225382	0.061843
579.437216	0.061884
579.649031	0.062192
579.860828	0.062060
580.072606	0.061905
580.284367	0.061759
580.496109	0.061799
580.707833	0.061871
580.919539	0.061544
581.131227	0.061551
581.342896	0.061594
581.554547	0.061475
581.766180	0.061508
581.977795	0.061739
582.189391	0.061746
582.400969	0.062003
582.612529	0.062384
582.824071	0.062700
583.035595	0.062536
583.247100	0.062353
583.458587	0.062250
583.670056	0.062053
583.881506	0.062061
584.092939	0.062348
584.304353	0.062507
584.515749	0.062252
584.727127	0.062122
584.938486	0.062435
585.149828	0.062552
585.361151	0.062492
585.572456	0.062691
585.783742	0.062767
585.995011	0.062679
586.206261	0.062550
586.417493	0.062731
586.628706	0.063087
586.839902	0.063263
587.051079	0.063597
587.262238	0.063771
587.473379	0.064039
587.684502	0.064072
587.895606	0.064051
588.106692	0.063758
588.317760	0.063857
588.528810	0.063552
588.739841	0.063421
588.950855	0.063271
589.161850	0.063448
589.372827	0.063464
589.583785	0.063348
589.794726	0.063511
590.005648	0.063597
590.216552	0.063252
590.427437	0.063446
590.638305	0.063650
590.849154	0.063851
591.059985	0.064011
591.270798	0.063784
591.481592	0.063998
591.692369	0.063981
591.903127	0.064426
592.113867	0.065083
592.324588	0.065311
592.535292	0.065372
592.745977	0.065109
592.956644	0.064974
593.167293	0.064904
593.377923	0.064703
593.588536	0.064708
593.799130	0.064681
594.009706	0.064442
594.220263	0.064614
594.430803	0.064654
594.641324	0.064700
594.851827	0.064955
595.062312	0.065299
595.272778	0.065380
595.483227	0.065682
595.693657	0.065974
595.904069	0.065854
596.114462	0.065831
596.324838	0.065880
596.535195	0.066148
596.745534	0.066143
596.955855	0.066341
597.166157	0.066678
597.376441	0.066549
597.586707	0.066337
597.796955	0.066663
598.007185	0.066723
598.217396	0.066546
598.427589	0.066536
598.637764	0.066716
598.847921	0.066491
599.058060	0.066215
599.268180	0.066349
599.478282	0.066367
599.688366	0.066224
599.898431	0.066077
600.108479	0.066438
600.318508	0.066467
600.528519	0.066544
600.738511	0.066810
600.948486	0.067146
601.158442	0.067083
601.368380	0.067084
601.578300	0.067018
601.788202	0.067006
601.998085	0.066956
602.207950	0.067033
602.417797	0.067038
602.627626	0.067125
602.837436	0.067085
603.047228	0.067285
603.257002	0.067403
603.466758	0.067702
603.676496	0.068055
603.886215	0.067901
604.095916	0.067566
604.305599	0.067418
604.515264	0.067439
604.724910	0.067609
604.934538	0.067387
605.144148	0.067188
605.353740	0.067195
605.563314	0.066932
605.772869	0.067030
605.982406	0.067244
606.191925	0.067424
606.401425	0.067387
606.610908	0.067152
606.820372	0.067466
607.029818	0.067556
607.239246	0.067790
607.448655	0.068028
607.658047	0.068249
607.867420	0.068630
608.076775	0.068446
608.286111	0.068444
608.495430	0.068594
608.704730	0.068488
608.914012	0.068729
609.123275	0.068507
609.332521	0.068658
609.541748	0.068717
609.750957	0.068793
609.960148	0.068891
610.169321	0.068941
610.378475	0.068931
610.587611	0.068822
610.796729	0.068870
611.005829	0.069154
611.214910	0.069168
611.423974	0.069195
611.633019	0.068864
611.842045	0.068959
612.051054	0.068986
612.260044	0.069090
612.469017	0.069385
612.677970	0.069661
612.886906	0.069493
613.095824	0.069471
613.304723	0.069371
613.513604	0.069805
613.722467	0.070065
613.931311	0.070382
614.140138	0.070430
614.348946	0.070422
614.557736	0.070334
614.766507	0.070364
614.975261	0.070394
615.183996	0.070496
615.392713	0.070336
615.601412	0.070169
615.810092	0.070127
616.018754	0.070155
616.227399	0.069949
616.436024	0.069806
616.644632	0.069895
616.853222	0.069929
617.061793	0.069996
617.270346	0.070056
617.478880	0.070007
617.687397	0.070006
617.895895	0.070240
618.104375	0.070680
618.312837	0.070712
618.521281	0.070873
618.729706	0.070769
618.938113	0.070819
619.146502	0.070941
619.354873	0.071154
619.563226	0.071115
619.771560	0.070976
619.979876	0.070902
620.188174	0.071173
620.396453	0.071299
620.604715	0.071636
620.812958	0.071693
621.021183	0.071742
621.229390	0.071870
621.437578	0.071827
621.645748	0.071981
621.853900	0.071925
622.062034	0.071971
622.270150	0.071803
622.478247	0.071642
622.686326	0.071643
622.894387	0.071744
623.102430	0.071631
623.310454	0.071802
623.518461	0.071863
623.726449	0.071897
623.934418	0.071686
624.142370	0.071817
624.350303	0.071788
624.558218	0.071715
624.766115	0.071557
624.973994	0.071671
625.181855	0.071650
625.389697	0.071431
625.597521	0.071489
625.805327	0.071734
626.013114	0.071682
626.220883	0.071803
626.428634	0.071924
626.636367	0.071899
626.844082	0.071754
627.051778	0.071808
627.259457	0.072008
627.467117	0.072138
627.674758	0.072219
627.882382	0.072261
628.089987	0.072184
628.297574	0.072233
628.505143	0.072510
628.712694	0.072556
628.920226	0.072616
629.127740	0.072500
629.335236	0.072533
629.542714	0.072583
629.750174	0.072680
629.957615	0.072946
630.165038	0.072935
630.372443	0.072871
630.579829	0.073104
630.787198	0.073111
630.994548	0.073151
631.201880	0.073250
631.409194	0.073093
631.616489	0.072965
631.823766	0.072862
632.031025	0.073139
632.238266	0.073086
632.445489	0.072951
632.652693	0.072993
632.859879	0.073036
633.067047	0.072963
633.274197	0.072952
633.481329	0.073166
633.688442	0.073415
633.895537	0.073163
634.102614	0.073440
634.309672	0.073631
634.516713	0.073857
634.723735	0.074013
634.930739	0.074175
635.137724	0.074313
635.344692	0.074267
635.551641	0.074272
635.758572	0.074413
635.965485	0.074182
636.172379	0.074212
636.379256	0.073971
636.586114	0.074014
636.792954	0.074025
636.999775	0.074179
637.206579	0.074053
637.413364	0.073961
637.620131	0.074048
637.826880	0.074146
638.033610	0.074271
638.240323	0.074531
638.447017	0.074593
638.653692	0.074572
638.860350	0.074520
639.066990	0.074513
639.273611	0.074760
639.480214	0.074710
639.686798	0.074677
639.893365	0.074776
640.099913	0.074716
640.306443	0.074768
640.512955	0.074935
640.719449	0.074744
640.925924	0.074952
641.132381	0.074856
641.338820	0.074993
641.545241	0.074953
641.751644	0.074898
641.958028	0.074887
642.164394	0.075052
642.370742	0.074971
642.577071	0.075318
642.783383	0.075545
642.989676	0.075485
643.195951	0.075424
643.402207	0.075943
643.608446	0.075870
643.814666	0.076055
644.020868	0.076018
644.227052	0.076199
644.433218	0.076221
644.639365	0.076357
644.845494	0.076528
645.051605	0.076673
645.257698	0.076557
645.463772	0.076719
645.669828	0.076950
645.875866	0.077052
646.081886	0.076883
646.287888	0.076821
646.493871	0.076720
646.699836	0.076793
646.905783	0.076890
647.111712	0.076987
647.317622	0.076881
647.523514	0.076695
647.729388	0.076635
647.935244	0.076677
648.141082	0.076971
648.346901	0.077110
648.552702	0.077192
648.758485	0.077236
648.964250	0.077062
649.169996	0.077414
649.375724	0.077436
649.581434	0.077647
649.787126	0.077892
649.992800	0.077704
650.198455	0.077618
650.404092	0.077631
650.609711	0.077688
650.815311	0.077901
651.020894	0.077586
651.226458	0.077739
651.432004	0.077779
651.637532	0.077709
651.843041	0.077837
652.048532	0.077842
652.254006	0.077727
652.459460	0.077695
652.664897	0.077698
652.870315	0.078017
653.075716	0.078138
653.281097	0.078097
653.486461	0.078275
653.691807	0.078255
653.897134	0.078381
654.102443	0.078619
654.307734	0.078652
654.513006	0.078723
654.718261	0.078728
654.923497	0.078496
655.128715	0.078363
655.333915	0.078509
655.539096	0.078573
655.744259	0.078569
655.949404	0.078514
656.154531	0.078664
656.359640	0.078686
656.564730	0.078751
656.769802	0.079104
656.974856	0.079393
657.179892	0.079416
657.384909	0.079447
657.589908	0.079603
657.794889	0.079676
657.999852	0.079747
658.204797	0.079823
658.409723	0.079766
658.614631	0.079598
658.819521	0.079502
659.024393	0.079581
659.229246	0.079758
659.434081	0.079730
659.638898	0.079921
659.843697	0.079859
660.048478	0.080050
660.253240	0.080198
660.457984	0.080339
660.662710	0.080472
660.867417	0.080439
661.072107	0.080471
661.276778	0.080553
661.481431	0.080464
661.686066	0.080542
661.890682	0.080477
662.095281	0.080545
662.299861	0.080532
662.504422	0.080555
662.708966	0.080465
662.913491	0.080450
663.117999	0.080561
663.322488	0.080537
663.526958	0.080642
663.731411	0.080818
663.935845	0.080696
664.140261	0.080675
664.344659	0.080524
664.549038	0.080628
664.753400	0.080797
664.957743	0.080714
665.162068	0.080803
665.366375	0.080885
665.570663	0.080839
665.774933	0.081092
665.979185	0.081107
666.183419	0.081461
666.387635	0.081647
666.591832	0.081505
666.796011	0.081656
667.000172	0.081790
667.204315	0.081620
667.408439	0.081544
667.612545	0.081515
667.816634	0.081697
668.020703	0.081723
668.224755	0.081738
668.428788	0.081801
668.632803	0.081819
668.836800	0.081853
669.040779	0.082084
669.244739	0.082070
669.448681	0.082107
669.652605	0.082117
669.856511	0.082080
670.060399	0.081950
670.264268	0.082076
670.468119	0.082083
670.671952	0.082138
670.875767	0.082242
671.079563	0.082611
671.283341	0.082810
671.487101	0.083028
671.690843	0.083260
671.894567	0.083474
672.098272	0.083626
672.301959	0.083907
672.505628	0.084007
672.709278	0.084151
672.912911	0.084003
673.116525	0.083980
673.320121	0.083848
673.523699	0.083673
673.727258	0.083740
673.930799	0.083776
674.134322	0.083605
674.337827	0.083685
674.541314	0.083641
674.744782	0.083622
674.948232	0.083555
675.151664	0.083702
675.355078	0.083848
675.558474	0.083907
675.761851	0.084062
675.965210	0.084235
676.168551	0.084281
676.371873	0.084329
676.575178	0.084601
676.778464	0.084678
676.981732	0.084611
677.184981	0.084568
677.388213	0.084534
677.591426	0.084338
677.794621	0.084346
677.997798	0.084354
678.200956	0.084385
678.404097	0.084409
678.607219	0.084454
678.810323	0.084848
679.013408	0.084994
679.216476	0.085018
679.419525	0.085207
679.622556	0.085194
679.825569	0.085283
680.028563	0.085360
680.231540	0.085546
680.434498	0.085515
680.637438	0.085303
680.840359	0.085424
681.043263	0.085402
681.246148	0.085336
681.449015	0.085529
681.651864	0.085341
681.854694	0.085350
682.057506	0.085346
682.260301	0.085632
682.463076	0.085773
682.665834	0.085754
682.868573	0.085952
683.071295	0.086062
683.273998	0.086006
683.476682	0.086312
683.679349	0.086165
683.881997	0.086001
684.084627	0.085833
684.287239	0.085926
684.489833	0.085932
684.692408	0.085806
684.894965	0.085758
685.097504	0.085758
685.300025	0.085685
685.502527	0.085860
685.705012	0.085927
685.907478	0.085948
686.109925	0.085881
686.312355	0.085838
686.514766	0.085968
686.717159	0.086231
686.919534	0.086461
687.121891	0.086442
687.324230	0.086475
687.526550	0.086518
687.728852	0.086575
687.931136	0.086598
688.133401	0.086747
688.335649	0.087035
688.537878	0.086803
688.740089	0.086742
688.942281	0.086906
689.144456	0.086861
689.346612	0.086973
689.548750	0.087188
689.750870	0.087303
689.952971	0.087342
690.155055	0.087164
690.357120	0.087422
690.559167	0.087286
690.761195	0.087354
690.963206	0.087596
691.165198	0.087615
691.367172	0.087435
691.569128	0.087411
691.771065	0.087526
691.972984	0.087510
692.174885	0.087554
692.376768	0.087853
692.578633	0.087670
692.780479	0.087701
692.982308	0.087769
693.184118	0.088241
693.385909	0.088241
693.587683	0.088267
693.789438	0.088344
693.991175	0.088318
694.192894	0.088164
694.394595	0.088401
694.596277	0.088283
694.797941	0.088415
694.999587	0.088252
695.201215	0.088346
695.402824	0.088302
695.604416	0.088497
695.805989	0.088664
696.007543	0.088867
696.209080	0.088925
696.410598	0.089136
696.612099	0.089035
696.813580	0.088937
697.015044	0.089180
697.216490	0.089257
697.417917	0.089249
697.619326	0.089212
697.820717	0.089246
698.022089	0.089169
698.223444	0.089202
698.424780	0.089217
698.626098	0.089306
698.827397	0.089114
699.028679	0.089260
699.229942	0.089323
699.431187	0.089357
699.632414	0.089456
699.833622	0.089498
700.034813	0.089570
700.235985	0.089719
700.437139	0.089911
700.638274	0.090115
700.839392	0.090146
701.040491	0.090230
701.241572	0.090241
701.442635	0.090384
701.643679	0.090502
701.844706	0.090526
702.045714	0.090454
702.246704	0.090376
702.447675	0.090404
702.648629	0.090272
702.849564	0.090249
703.050481	0.090232
703.251380	0.090037
703.452260	0.090140
703.653122	0.090124
703.853966	0.090151
704.054792	0.090148
704.255600	0.090111
704.456389	0.090200
704.657160	0.090208
704.857913	0.090223
705.058648	0.090170
705.259365	0.090218
705.460063	0.090245
705.660743	0.090190
705.861405	0.090243
706.062048	0.090354
706.262674	0.090488
706.463281	0.090415
706.663870	0.090523
706.864441	0.090618
707.064993	0.090603
707.265527	0.090622
707.466043	0.090908
707.666541	0.091058
707.867021	0.091044
708.067482	0.091249
708.267925	0.091349
708.468350	0.091428
708.668757	0.091482
708.869145	0.091639
709.069516	0.091791
709.269868	0.091794
709.470201	0.091848
709.670517	0.091900
709.870814	0.091761
710.071093	0.091835
710.271354	0.091907
710.471597	0.092135
710.671821	0.091990
710.872028	0.091800
711.072216	0.091650
711.272385	0.091420
711.472537	0.091222
711.672670	0.091167
711.872785	0.091183
712.072882	0.091275
712.272961	0.091134
712.473021	0.091237
712.673063	0.091300
712.873087	0.091422
713.073093	0.091452
713.273081	0.091528
713.473050	0.091503
713.673001	0.091456
713.872934	0.091303
714.072849	0.091404
714.272745	0.091383
714.472623	0.091508
714.672483	0.091536
714.872325	0.091722
715.072148	0.091958
715.271954	0.091977
715.471741	0.092104
715.671509	0.092100
715.871260	0.091862
716.070992	0.091833
716.270707	0.091711
716.470403	0.091745
716.670080	0.091779
716.869740	0.091705
717.069381	0.091880
717.269004	0.091831
717.468609	0.091797
717.668195	0.091796
717.867764	0.091858
718.067314	0.091913
718.266846	0.091912
718.466360	0.091801
718.665855	0.091744
718.865332	0.091446
719.064791	0.091207
719.264232	0.091338
719.463655	0.091369
719.663059	0.091314
719.862445	0.091272
720.061813	0.091114
720.261163	0.091136
720.460494	0.091070
720.659807	0.091126
720.859102	0.091377
721.058379	0.091267
721.257638	0.091197
721.456878	0.091054
721.656100	0.090981
721.855304	0.090987
722.054490	0.090937
722.253657	0.090949
722.452806	0.090975
722.651937	0.090931
722.851050	0.091001
723.050145	0.091053
723.249221	0.091118
723.448279	0.091262
723.647319	0.091326
723.846340	0.091069
724.045344	0.091026
724.244329	0.091046
724.443296	0.091020
724.642245	0.090942
724.841175	0.091266
725.040088	0.091347
725.238982	0.091333
725.437857	0.091345
725.636715	0.091565
725.835554	0.091652
726.034376	0.091770
726.233179	0.091718
726.431963	0.091695
726.630730	0.091649
726.829478	0.091451
727.028208	0.091493
727.226920	0.091253
727.425614	0.091317
727.624289	0.091290
727.822946	0.091212
728.021585	0.091060
728.220206	0.091188
728.418808	0.090959
728.617392	0.091041
728.815958	0.090935
729.014506	0.091084
729.213036	0.091074
729.411547	0.091056
729.610040	0.091107
729.808515	0.091305
730.006972	0.091270
730.205410	0.091322
730.403831	0.091331
730.602233	0.091422
730.800616	0.091478
730.998982	0.091421
731.197329	0.091357
731.395658	0.091117
731.593969	0.090966
731.792262	0.090940
731.990536	0.090824
732.188793	0.090783
732.387031	0.090698
732.585250	0.090803
732.783452	0.090950
732.981635	0.090934
733.179800	0.090969
733.377947	0.091053
733.576076	0.091090
733.774186	0.091155
733.972278	0.091180
734.170352	0.091129
734.368408	0.090963
734.566446	0.090753
734.764465	0.090538
734.962466	0.090558
735.160449	0.090472
735.358413	0.090322
735.556360	0.090222
735.754288	0.089956
735.952198	0.089756
736.150090	0.089693
736.347963	0.089639
736.545818	0.089708
736.743655	0.089569
736.941474	0.089504
737.139275	0.089205
737.337057	0.089227
737.534821	0.089397
737.732567	0.089565
737.930295	0.089798
738.128005	0.089838
738.325696	0.089922
738.523369	0.090020
738.721024	0.090050
738.918660	0.090171
739.116279	0.090229
739.313879	0.090364
739.511461	0.090428
739.709024	0.090303
739.906570	0.090252
740.104097	0.090405
740.301606	0.090513
740.499097	0.090580
740.696569	0.090684
740.894024	0.090816
741.091460	0.090557
741.288878	0.090565
741.486277	0.090530
741.683659	0.090451
741.881022	0.090194
742.078367	0.090187
742.275694	0.090124
742.473002	0.090099
742.670293	0.089777
742.867565	0.089936
743.064819	0.089870
743.262054	0.089534
743.459272	0.089375
743.656471	0.089247
743.853652	0.089130
744.050815	0.088944
744.247959	0.088844
744.445085	0.088825
744.642194	0.088701
744.839283	0.088518
745.036355	0.088541
745.233408	0.088617
745.430444	0.088655
745.627461	0.088450
745.824459	0.088503
746.021440	0.088471
746.218402	0.088425
746.415346	0.088370
746.612272	0.088299
746.809180	0.088416
747.006069	0.088305
747.202940	0.088329
747.399793	0.088342
747.596628	0.088233
747.793444	0.088194
747.990243	0.088144
748.187023	0.087872
748.383784	0.087908
748.580528	0.087713
748.777253	0.087766
748.973960	0.087663
749.170649	0.087809
749.367320	0.087835
749.563973	0.087606
749.760607	0.087601
749.957223	0.087827
750.153821	0.087682
750.350400	0.087724
750.546962	0.087792
750.743505	0.087813
750.940030	0.087548
751.136536	0.087448
751.333025	0.087747
751.529495	0.087628
751.725947	0.087552
751.922381	0.087549
752.118796	0.087361
752.315194	0.087120
752.511573	0.087280
752.707934	0.087181
752.904276	0.087191
753.100601	0.087062
753.296907	0.086992
753.493195	0.087000
753.689465	0.086938
753.885716	0.087079
754.081949	0.087292
754.278164	0.086984
754.474361	0.086983
754.670540	0.087072
754.866700	0.087073
755.062843	0.086987
755.258967	0.086964
755.455072	0.086876
755.651160	0.086758
755.847229	0.086539
756.043280	0.086473
756.239313	0.086420
756.435328	0.086335
756.631324	0.086163
756.827302	0.086321
757.023262	0.086172
757.219204	0.086414
757.415127	0.086282
757.611033	0.086163
757.806920	0.086254
758.002788	0.086476
758.198639	0.086477
758.394471	0.086591
758.590286	0.086660
758.786081	0.086758
758.981859	0.086525
759.177619	0.086782
759.373360	0.086959
759.569083	0.087032
759.764788	0.086831
759.960474	0.086832
760.156143	0.086724
760.351793	0.086834
760.547425	0.086889
760.743038	0.087113
760.938634	0.086929
761.134211	0.086654
761.329770	0.086428
761.525311	0.086444
761.720833	0.086176
761.916338	0.086092
762.111824	0.085777
762.307292	0.085517
762.502741	0.085311
762.698173	0.085277
762.893586	0.085189
763.088981	0.085272
763.284358	0.085179
763.479716	0.085285
763.675057	0.085228
763.870379	0.085380
764.065683	0.085485
764.260968	0.085467
764.456236	0.085465
764.651485	0.085675
764.846716	0.085505
765.041929	0.085548
765.237123	0.085440
765.432299	0.085585
765.627457	0.085357
765.822597	0.085285
766.017719	0.085314
766.212822	0.085239
766.407907	0.085368
766.602974	0.085594
766.798023	0.085660
766.993054	0.085774
767.188066	0.085684
767.383060	0.085556
767.578036	0.085419
767.772993	0.085332
767.967933	0.085241
768.162854	0.085044
768.357757	0.084788
768.552642	0.084611
768.747508	0.084525
768.942356	0.084346
769.137186	0.084314
769.331998	0.084439
769.526792	0.084380
769.721567	0.084482
769.916324	0.084359
770.111063	0.084259
770.305784	0.084287
770.500486	0.084150
770.695171	0.084209
770.889837	0.084368
771.084484	0.084333
771.279114	0.084073
771.473725	0.083942
771.668318	0.083870
771.862893	0.083873
772.057450	0.083928
772.251988	0.084141
772.446509	0.084045
772.641011	0.083967
772.835494	0.083814
773.029960	0.084170
773.224407	0.084202
773.418836	0.084344
773.613247	0.084454
773.807640	0.084338
774.002014	0.084152
774.196370	0.084251
774.390708	0.084253
774.585028	0.084371
774.779330	0.084193
774.973613	0.084099
775.167878	0.084267
775.362125	0.084363
775.556354	0.084457
775.750564	0.084656
775.944756	0.084824
776.138930	0.084747
776.333086	0.084640
776.527223	0.084692
776.721343	0.084813
776.915444	0.084800
777.109526	0.084625
777.303591	0.084604
777.497637	0.084605
777.691666	0.084317
777.885676	0.084355
778.079667	0.084436
778.273641	0.084220
778.467596	0.084306
778.661533	0.084071
778.855452	0.084175
779.049352	0.084135
779.243235	0.083992
779.437099	0.084081
779.630945	0.084044
779.824773	0.083978
780.018582	0.084121
780.212373	0.084020
780.406146	0.084006
780.599901	0.083756
780.793638	0.083753
780.987356	0.083850
781.181056	0.083667
781.374738	0.083645
781.568402	0.083507
781.762047	0.083449
781.955674	0.083417
782.149283	0.083477
782.342874	0.083454
782.536447	0.083362
782.730001	0.083308
782.923537	0.083430
783.117055	0.083455
783.310555	0.083490
783.504036	0.083496
783.697499	0.083380
783.890944	0.083212
784.084371	0.083402
784.277780	0.083459
784.471170	0.083322
784.664542	0.083369
784.857896	0.083434
785.051231	0.083467
785.244549	0.083486
785.437848	0.083661
785.631129	0.084012
785.824392	0.084065
786.017636	0.084006
786.210863	0.083943
786.404071	0.083995
786.597260	0.084051
786.790432	0.084147
786.983585	0.084275
787.176721	0.084249
787.369838	0.084109
787.562936	0.084055
787.756017	0.084094
787.949079	0.084298
788.142123	0.084384
788.335149	0.084331
788.528156	0.084372
788.721146	0.084351
788.914117	0.084446
789.107070	0.084428
789.300005	0.084416
789.492921	0.084451
789.685819	0.084353
789.878699	0.084282
790.071561	0.084273
790.264405	0.084247
790.457230	0.084254
790.650037	0.084254
790.842826	0.084313
791.035597	0.084198
791.228349	0.084132
791.421084	0.084348
791.613800	0.084399
791.806497	0.084477
791.999177	0.084469
792.191838	0.084597
792.384481	0.084706
792.577106	0.084651
792.769713	0.085009
792.962301	0.084976
793.154871	0.084772
793.347423	0.084790
793.539957	0.084783
793.732473	0.084767
793.924970	0.084676
794.117449	0.084457
794.309910	0.084436
794.502353	0.084427
794.694777	0.084653
794.887183	0.084813
795.079571	0.084878
795.271941	0.084691
795.464293	0.084929
795.656626	0.085143
795.848941	0.085255
796.041238	0.085378
796.233516	0.085373
796.425777	0.085347
796.618019	0.085522
796.810243	0.085460
797.002449	0.085596
797.194636	0.085533
797.386805	0.085588
797.578956	0.085603
797.771089	0.085748
797.963204	0.085664
798.155300	0.085511
798.347378	0.085378
798.539438	0.085366
798.731480	0.085451
798.923503	0.085386
799.115509	0.084967
799.307496	0.084901
799.499465	0.084728
799.691415	0.084475
799.883348	0.084555
800.075262	0.084414
800.267158	0.084365
800.459035	0.084285
800.650895	0.084461
800.842736	0.084789
801.034559	0.084878
801.226364	0.084716
801.418150	0.085018
801.609919	0.085291
801.801669	0.085411
801.993401	0.085508
802.185114	0.085394
802.376810	0.085179
802.568487	0.085195
802.760146	0.085247
802.951787	0.085522
803.143409	0.085388
803.335014	0.085330
803.526600	0.085298
803.718168	0.085253
803.909717	0.085528
804.101249	0.085744
804.292762	0.085758
804.484257	0.085738
804.675734	0.085780
804.867192	0.085959
805.058632	0.085766
805.250054	0.085795
805.441458	0.085819
805.632844	0.086048
805.824211	0.086116
806.015561	0.086008
806.206891	0.086037
806.398204	0.086011
806.589499	0.086028
806.780775	0.086427
806.972033	0.086492
807.163273	0.086627
807.354495	0.086395
807.545698	0.086388
807.736883	0.086517
807.928050	0.086601
808.119199	0.086616
808.310329	0.086755
808.501441	0.086634
808.692535	0.086779
808.883611	0.086802
809.074669	0.087082
809.265708	0.087182
809.456729	0.087321
809.647732	0.087594
809.838717	0.087694
810.029683	0.087753
810.220632	0.087694
810.411562	0.087915
810.602474	0.087903
810.793367	0.087939
810.984242	0.087923
811.175100	0.088109
811.365938	0.088154
811.556759	0.088427
811.747562	0.088437
811.938346	0.088590
812.129112	0.088493
812.319860	0.088656
812.510589	0.088757
812.701300	0.088895
812.891994	0.088728
813.082668	0.088760
813.273325	0.088623
813.463964	0.088779
813.654584	0.088865
813.845186	0.088677
814.035769	0.088910
814.226335	0.088798
814.416882	0.088948
814.607411	0.089104
814.797922	0.089011
814.988415	0.089240
815.178889	0.089145
815.369345	0.089245
815.559783	0.089629
815.750203	0.089562
815.940605	0.089717
816.130988	0.089747
816.321353	0.089770
816.511700	0.089853
816.702028	0.089584
816.892339	0.089597
817.082631	0.089466
817.272905	0.089364
817.463161	0.089234
817.653398	0.089180
817.843617	0.089160
818.033819	0.089396
818.224001	0.089429
818.414166	0.089852
818.604312	0.090173
818.794440	0.090452
818.984550	0.090719
819.174642	0.090880
819.364716	0.091006
819.554771	0.090971
819.744808	0.090817
819.934827	0.091202
820.124827	0.091305
820.314810	0.091253
820.504774	0.091363
820.694720	0.091357
820.884647	0.091436
821.074557	0.091466
821.264448	0.091465
821.454321	0.091521
821.644176	0.091396
821.834012	0.091376
822.023831	0.091544
822.213631	0.091457
822.403413	0.091542
822.593176	0.091862
822.782922	0.091968
822.972649	0.092003
823.162358	0.091866
823.352049	0.091747
823.541721	0.091797
823.731376	0.091742
823.921012	0.091723
824.110629	0.091644
824.300229	0.091470
824.489811	0.091687
824.679374	0.091814
824.868919	0.092025
825.058445	0.092009
825.247954	0.092201
825.437444	0.092216
825.626916	0.092497
825.816370	0.092615
826.005806	0.092834
826.195223	0.092857
826.384622	0.092976
826.574003	0.093086
826.763366	0.093329
826.952711	0.093309
827.142037	0.093458
827.331345	0.093477
827.520635	0.093415
827.709906	0.093442
827.899160	0.093520
828.088395	0.093869
828.277612	0.093989
828.466810	0.094307
828.655991	0.094300
828.845153	0.094297
829.034297	0.094477
829.223423	0.094753
829.412531	0.094894
829.601620	0.094942
829.790691	0.094994
829.979744	0.094889
830.168779	0.094668
830.357795	0.094622
830.546793	0.094733
830.735773	0.094527
830.924735	0.094432
831.113679	0.094542
831.302604	0.094539
831.491511	0.094391
831.680400	0.094542
831.869271	0.094774
832.058123	0.094824
832.246957	0.094975
832.435773	0.095407
832.624571	0.095559
832.813351	0.095432
833.002112	0.095512
833.190855	0.095807
833.379580	0.096010
833.568287	0.095770
833.756975	0.095855
833.945645	0.095808
834.134297	0.095792
834.322931	0.095866
834.511547	0.095902
834.700144	0.096099
834.888723	0.096049
835.077284	0.095987
835.265826	0.096113
835.454351	0.096309
835.642857	0.096682
835.831345	0.096654
836.019815	0.096773
836.208266	0.096980
836.396699	0.096993
836.585114	0.097053
836.773511	0.097330
836.961890	0.097746
837.150250	0.097730
837.338592	0.097567
837.526916	0.097697
837.715222	0.097539
837.903510	0.097793
838.091779	0.097780
838.280030	0.097667
838.468263	0.097668
838.656477	0.097451
838.844674	0.097571
839.032852	0.097709
839.221012	0.097786
839.409153	0.098116
839.597277	0.097943
839.785382	0.098024
839.973469	0.098267
840.161538	0.098402
840.349589	0.098643
840.537621	0.098696
840.725635	0.098767
840.913631	0.098808
841.101609	0.098917
841.289568	0.099047
841.477509	0.099094
841.665432	0.099088
841.853337	0.099182
842.041224	0.099190
842.229092	0.099376
842.416942	0.099350
842.604774	0.099480
842.792588	0.099476
842.980383	0.099566
843.168160	0.099708
843.355919	0.099869
843.543660	0.099902
843.731382	0.100217
843.919087	0.100331
844.106773	0.100407
844.294441	0.100345
844.482090	0.100491
844.669722	0.100681
844.857335	0.100960
845.044930	0.101170
845.232507	0.101441
845.420065	0.101283
845.607605	0.101442
845.795127	0.101699
845.982631	0.101675
846.170117	0.101729
846.357584	0.101879
846.545033	0.101753
846.732464	0.101652
846.919877	0.101838
847.107272	0.101888
847.294648	0.101829
847.482006	0.101825
847.669346	0.102187
847.856667	0.102343
848.043971	0.102640
848.231256	0.103121
848.418523	0.103364
848.605771	0.103528
848.793002	0.103915
848.980214	0.104111
849.167408	0.104436
849.354584	0.104693
849.541742	0.105008
849.728881	0.104801
849.916002	0.104542
850.103105	0.104857
850.290190	0.104670
850.477256	0.104971
850.664304	0.105208
850.851334	0.105296
851.038346	0.105406
851.225340	0.105399
851.412315	0.105540
851.599272	0.105900
851.786211	0.105630
851.973132	0.105831
852.160034	0.105679
852.346918	0.105941
852.533784	0.106189
852.720632	0.106211
852.907462	0.106218
853.094273	0.106377
853.281066	0.106290
853.467841	0.106528
853.654598	0.106473
853.841336	0.106841
854.028056	0.106731
854.214758	0.106640
854.401442	0.106878
854.588107	0.106986
854.774755	0.107174
854.961384	0.107212
855.147995	0.107321
855.334587	0.107436
855.521162	0.107411
855.707718	0.107519
855.894256	0.107410
856.080775	0.107179
856.267277	0.107290
856.453760	0.107174
856.640225	0.107437
856.826672	0.107510
857.013101	0.107867
857.199511	0.107817
857.385903	0.107870
857.572277	0.108209
857.758633	0.108547
857.944970	0.108674
858.131290	0.108861
858.317591	0.109269
858.503873	0.109220
858.690138	0.109111
858.876384	0.109310
859.062612	0.109526
859.248822	0.109678
859.435014	0.109580
859.621188	0.109842
859.807343	0.109932
859.993480	0.109807
860.179599	0.110057
860.365699	0.110234
860.551781	0.110284
860.737846	0.110390
860.923891	0.110554
861.109919	0.110979
861.295929	0.111009
861.481920	0.111160
861.667893	0.111144
861.853848	0.111479
862.039784	0.111469
862.225702	0.111585
862.411603	0.111519
862.597484	0.111565
862.783348	0.111293
862.969193	0.111522
863.155021	0.111608
863.340830	0.111825
863.526620	0.112018
863.712393	0.112244
863.898147	0.112373
864.083883	0.112506
864.269601	0.112354
864.455301	0.112745
864.640982	0.112717
864.826645	0.112542
865.012290	0.112401
865.197917	0.112142
865.383526	0.112023
865.569116	0.112039
865.754688	0.112200
865.940242	0.112474
866.125777	0.112493
866.311295	0.112494
866.496794	0.112790
866.682275	0.112896
866.867737	0.113102
867.053182	0.113155
867.238608	0.113173
867.424016	0.113194
867.609406	0.113114
867.794778	0.113107
867.980131	0.113415
868.165466	0.113638
868.350783	0.113730
868.536082	0.113379
868.721362	0.113796
868.906625	0.113809
869.091869	0.113946
869.277094	0.114272
869.462302	0.114450
869.647491	0.114455
869.832662	0.114393
870.017815	0.114494
870.202950	0.114991
870.388066	0.114957
870.573165	0.115628
870.758245	0.115875
870.943306	0.115880
871.128350	0.116077
871.313375	0.116387
871.498382	0.116748
871.683371	0.116750
871.868342	0.116861
872.053294	0.116982
872.238229	0.116972
872.423144	0.116709
872.608042	0.116889
872.792922	0.116736
872.977783	0.116277
873.162626	0.116058
873.347451	0.115915
873.532258	0.115798
873.717046	0.115989
873.901816	0.115472
874.086568	0.115761
874.271302	0.115831
874.456017	0.115871
874.640715	0.116030
874.825394	0.116279
875.010055	0.116632
875.194697	0.116769
875.379322	0.116659
875.563928	0.117070
875.748516	0.117206
875.933085	0.117006
876.117637	0.117064
876.302170	0.117238
876.486685	0.117017
876.671182	0.117191
876.855661	0.117455
877.040121	0.117360
877.224563	0.117115
877.408987	0.116749
877.593393	0.116586
877.777780	0.116596
877.962150	0.116439
878.146501	0.116669
878.330833	0.116454
878.515148	0.116206
878.699444	0.116477
878.883722	0.116370
879.067982	0.116606
879.252224	0.116627
879.436447	0.116467
879.620653	0.116676
879.804840	0.116541
879.989008	0.116605
880.173159	0.116480
880.357291	0.116457
880.541405	0.116881
880.725501	0.116431
880.909579	0.116949
881.093638	0.117208
881.277680	0.117140
881.461703	0.116998
881.645707	0.117304
881.829694	0.117523
882.013662	0.117211
882.197612	0.117077
882.381544	0.117590
882.565458	0.117555
882.749353	0.117235
882.933230	0.117509
883.117089	0.117457
883.300930	0.117484
883.484753	0.117643
883.668557	0.117701
883.852343	0.117736
884.036111	0.117677
884.219861	0.117691
884.403592	0.118030
884.587305	0.117878
884.771000	0.117953
884.954677	0.117797
885.138335	0.117789
885.321976	0.118056
885.505598	0.118329
885.689201	0.118199
885.872787	0.118240
886.056354	0.118368
886.239904	0.118619
886.423434	0.118635
886.606947	0.118825
886.790442	0.118842
886.973918	0.118635
887.157376	0.118589
887.340816	0.118853
887.524237	0.118935
887.707641	0.118984
887.891026	0.118683
888.074393	0.119091
888.257741	0.118660
888.441072	0.118874
888.624384	0.118762
888.807678	0.118703
888.990954	0.118779
889.174211	0.118543
889.357451	0.118431
889.540672	0.118396
889.723875	0.118322
889.907059	0.118776
890.090226	0.118824
890.273374	0.119167
890.456504	0.119247
890.639616	0.119110
890.822709	0.118804
891.005785	0.118720
891.188842	0.118905
891.371881	0.118994
891.554901	0.118873
891.737904	0.118419
891.920888	0.118586
892.103854	0.118586
892.286802	0.118502
892.469731	0.118881
892.652643	0.118989
892.835536	0.118813
893.018410	0.118673
893.201267	0.118882
893.384106	0.119197
893.566926	0.119146
893.749728	0.118639
893.932511	0.118623
894.115277	0.118488
894.298024	0.118523
894.480753	0.118577
894.663464	0.118158
894.846157	0.117814
895.028831	0.117752
895.211487	0.117557
895.394125	0.117625
895.576745	0.117307
895.759346	0.117400
895.941930	0.117382
896.124495	0.117288
896.307041	0.117325
896.489570	0.117045
896.672080	0.116518
896.854573	0.116432
897.037046	0.116026
897.219502	0.116336
897.401940	0.116038
897.584359	0.115895
897.766760	0.115531
897.949143	0.115517
898.131507	0.115598
898.313854	0.115875
898.496182	0.115848
898.678492	0.116183
898.860783	0.116237
899.043057	0.116527
899.225312	0.116538
899.407549	0.116784
899.589768	0.116997
899.771968	0.116919
899.954151	0.116987
900.136315	0.116822
900.318461	0.116780
900.500588	0.116598
900.682698	0.116244
900.864789	0.115800
901.046862	0.115482
901.228917	0.115424
901.410953	0.115373
901.592971	0.115376
901.774972	0.115546
901.956953	0.115390
902.138917	0.115578
902.320862	0.115717
902.502790	0.115657
902.684699	0.115790
902.866589	0.115465
903.048462	0.115495
903.230316	0.115238
903.412152	0.114901
903.593970	0.114910
903.775770	0.114316
903.957551	0.113830
904.139314	0.113709
904.321059	0.113694
904.502786	0.113731
904.684494	0.113375
904.866185	0.113033
905.047857	0.112847
905.229510	0.112861
905.411146	0.112872
905.592763	0.112962
905.774363	0.113026
905.955943	0.113469
906.137506	0.113476
906.319051	0.113340
906.500577	0.113208
906.682085	0.113359
906.863575	0.112847
907.045046	0.112503
907.226500	0.112196
907.407935	0.111879
907.589352	0.110944
907.770750	0.110699
907.952131	0.110856
908.133493	0.110889
908.314837	0.110711
908.496163	0.110803
908.677470	0.111148
908.858760	0.111462
909.040031	0.111557
909.221284	0.111719
909.402518	0.111863
909.583735	0.111537
909.764933	0.111446
909.946113	0.111293
910.127275	0.111376
910.308418	0.111027
910.489544	0.110348
910.670651	0.110171
910.851740	0.110102
911.032810	0.109810
911.213863	0.109839
911.394897	0.109904
911.575913	0.109931
911.756911	0.109764
911.937890	0.109681
912.118851	0.109792
912.299794	0.109765
912.480719	0.109277
912.661626	0.109164
912.842514	0.108905
913.023384	0.108582
913.204236	0.107949
913.385070	0.107604
913.565886	0.107345
913.746683	0.107168
913.927462	0.106904
914.108223	0.106967
914.288965	0.106611
914.469690	0.106224
914.650396	0.105919
914.831084	0.105944
915.011754	0.105785
915.192405	0.105469
915.373038	0.105198
915.553653	0.105169
915.734250	0.104879
915.914829	0.104657
916.095389	0.104960
916.275931	0.104761
916.456455	0.104703
916.636961	0.104304
916.817448	0.104361
916.997917	0.103841
917.178368	0.103621
917.358801	0.103113
917.539216	0.103406
917.719612	0.103176
917.899990	0.102966
918.080350	0.102595
918.260692	0.102716
918.441015	0.102124
918.621320	0.102205
918.801607	0.101895
918.981876	0.102089
919.162127	0.101145
919.342359	0.101163
919.522573	0.100842
919.702769	0.100549
919.882947	0.100046
920.063106	0.100524
920.243247	0.100161
920.423370	0.099840
920.603475	0.099271
920.783562	0.099290
920.963630	0.098728
921.143680	0.098852
921.323712	0.099042
921.503725	0.099147
921.683721	0.098465
921.863698	0.098745
922.043657	0.098809
922.223598	0.098875
922.403520	0.098911
922.583424	0.098852
922.763311	0.098569
922.943178	0.097988
923.123028	0.097891
923.302859	0.098031
923.482673	0.097534
923.662467	0.096733
923.842244	0.096712
924.022003	0.096327
924.201743	0.095896
924.381465	0.095429
924.561169	0.095281
924.740854	0.094730
924.920522	0.094319
925.100171	0.094425
925.279802	0.094622
925.459414	0.094386
925.639009	0.094058
925.818585	0.093535
925.998143	0.093082
926.177683	0.092871
926.357205	0.092966
926.536708	0.092515
926.716193	0.092004
926.895660	0.091464
927.075109	0.090906
927.254539	0.090947
927.433951	0.090822
927.613345	0.091032
927.792721	0.090611
927.972079	0.090036
928.151418	0.090079
928.330739	0.090057
928.510042	0.090018
928.689327	0.090117
928.868593	0.089601
929.047841	0.089277
929.227071	0.089105
929.406283	0.089299
929.585476	0.089206
929.764652	0.088674
929.943809	0.088525
930.122948	0.088216
930.302068	0.087865
930.481171	0.087632
930.660255	0.087957
930.839321	0.087497
931.018369	0.086374
931.197398	0.085662
931.376409	0.085378
931.555402	0.084469
931.734377	0.084324
931.913334	0.083480
932.092272	0.083680
932.271192	0.083046
932.450094	0.082786
932.628978	0.083094
932.807844	0.082832
932.986691	0.082737
933.165520	0.082942
933.344331	0.082914
933.523123	0.082678
933.701898	0.082099
933.880654	0.081887
934.059392	0.081646
934.238111	0.081487
934.416813	0.081674
934.595496	0.081421
934.774161	0.081009
934.952808	0.080170
935.131437	0.080049
935.310047	0.079904
935.488639	0.079460
935.667213	0.079170
935.845769	0.079029
936.024306	0.078695
936.202825	0.078445
936.381326	0.077205
936.559809	0.077318
936.738274	0.077492
936.916720	0.076961
937.095148	0.076945
937.273558	0.077140
937.451950	0.076377
937.630323	0.075794
937.808678	0.075424
937.987015	0.075352
938.165334	0.075444
938.343635	0.075329
938.521917	0.075598
938.700181	0.075106
938.878427	0.073976
939.056655	0.073461
939.234864	0.073587
939.413055	0.073158
939.591228	0.073185
939.769383	0.073039
939.947519	0.072571
940.125638	0.070280
940.303738	0.070614
940.481820	0.070705
940.659883	0.071075
940.837929	0.070008
941.015956	0.070288
941.193965	0.070007
941.371955	0.068753
941.549928	0.068168
941.727882	0.069051
941.905818	0.068462
942.083736	0.067676
942.261636	0.066923
942.439517	0.067302
942.617380	0.066269
942.795225	0.067303
942.973052	0.067830
943.150860	0.066366
943.328651	0.066209
943.506423	0.064885
943.684176	0.064525
943.861912	0.063968
944.039629	0.063137
944.217328	0.063101
944.395009	0.062172
944.572672	0.061304
944.750317	0.061828
944.927943	0.060866
945.105551	0.060167
945.283141	0.060774
945.460712	0.060861
945.638265	0.060583
945.815801	0.060261
945.993317	0.059051
946.170816	0.058558
946.348297	0.058103
946.525759	0.057970
946.703203	0.058691
946.880629	0.058623
947.058036	0.059054
947.235425	0.059370
947.412797	0.060514
947.590149	0.060208
947.767484	0.060074
947.944800	0.060397
948.122099	0.061419
948.299379	0.061400
948.476640	0.060767
948.653884	0.060179
948.831109	0.059710
949.008316	0.060273
949.185505	0.061157
949.362676	0.061507
949.539828	0.061477
949.716962	0.061963
949.894078	0.061462
950.071176	0.061670
950.248256	0.061123
950.425317	0.060985
950.602360	0.058717
950.779385	0.058495
950.956391	0.057120
951.133380	0.056088
951.310350	0.053683
951.487302	0.053744
951.664235	0.053481
951.841151	0.054687
952.018048	0.054719
952.194927	0.053882
952.371788	0.054391
952.548631	0.056074
952.725455	0.056757
952.902261	0.057893
953.079049	0.057635
953.255819	0.056934
953.432570	0.056102
953.609303	0.056854
953.786018	0.057778
953.962715	0.055851
954.139394	0.053820
954.316054	0.054103
954.492696	0.053927
954.669320	0.054755
954.845926	0.054405
955.022513	0.053926
955.199083	0.053593
955.375634	0.052062
955.552166	0.053379
955.728681	0.054482
955.905177	0.053118
956.081655	0.052911
956.258115	0.051835
956.434557	0.052035
956.610980	0.052069
956.787385	0.051864
956.963772	0.053946
957.140141	0.052022
957.316492	0.050964
957.492824	0.050808
957.669138	0.050289
957.845434	0.050278
958.021712	0.051332
958.197971	0.050188
958.374212	0.049409
958.550435	0.047506
958.726640	0.049994
958.902826	0.047827
959.078995	0.048907
959.255145	0.049092
959.431277	0.049253
959.607390	0.048436
959.783486	0.048420
959.959563	0.048265
960.135622	0.049463
960.311662	0.047727
960.487685	0.050848
960.663689	0.049384
960.839675	0.048842
961.015643	0.048675
961.191593	0.049881
961.367524	0.049421
961.543437	0.050771
961.719332	0.049408
961.895209	0.049875
962.071067	0.050684
962.246907	0.051755
962.422730	0.053850
962.598533	0.053178
962.774319	0.051175
962.950086	0.052088
963.125835	0.050334
963.301566	0.052707
963.477279	0.053053
963.652973	0.052425
963.828650	0.051576
964.004308	0.051234
964.179947	0.051367
964.355569	0.052755
964.531172	0.054088
964.706757	0.054007
964.882324	0.052219
965.057873	0.051900
965.233403	0.051438
965.408916	0.052605
965.584410	0.052348
965.759885	0.053854
965.935343	0.052506
966.110782	0.051952
966.286203	0.052736
966.461606	0.053006
966.636991	0.054107
966.812357	0.054042
966.987705	0.051981
967.163035	0.050883
967.338347	0.050904
967.513641	0.050632
967.688916	0.051882
967.864173	0.052232
968.039412	0.052347
968.214632	0.050975
968.389835	0.052107
968.565019	0.054888
968.740185	0.052832
968.915333	0.050340
969.090462	0.051430
969.265573	0.051969
969.440667	0.050923
969.615741	0.050538
969.790798	0.052069
969.965836	0.052456
970.140856	0.050835
970.315858	0.050645
970.490842	0.052178
970.665808	0.051576
970.840755	0.049544
971.015684	0.049088
971.190595	0.049813
971.365487	0.047752
971.540362	0.046498
971.715218	0.045087
971.890056	0.048532
972.064875	0.050085
972.239677	0.050003
972.414460	0.049337
972.589225	0.049566
972.763972	0.047860
972.938700	0.047428
973.113411	0.046668
973.288103	0.048857
973.462777	0.048848
973.637432	0.047676
973.812070	0.047494
973.986689	0.047724
974.161290	0.047337
974.335873	0.047560
974.510437	0.048240
974.684984	0.050194
974.859512	0.051168
975.034022	0.050730
975.208513	0.049654
975.382987	0.050437
975.557442	0.048772
975.731879	0.047048
975.906298	0.047983
976.080698	0.048832
976.255080	0.046578
976.429445	0.046951
976.603790	0.047348
976.778118	0.047939
976.952427	0.046814
977.126719	0.049286
977.300992	0.051504
977.475246	0.050717
977.649483	0.051414
977.823701	0.050446
977.997901	0.048095
978.172083	0.045986
978.346247	0.047206
978.520392	0.045895
978.694519	0.044938
978.868628	0.047588
979.042719	0.048861
979.216791	0.047776
979.390845	0.049826
979.564882	0.050637
979.738899	0.051223
979.912899	0.051908
980.086880	0.053990
980.260843	0.055855
980.434788	0.053454
980.608715	0.051941
980.782623	0.052265
980.956514	0.049572
981.130386	0.049323
981.304240	0.049179
981.478075	0.048873
981.651892	0.048170
981.825692	0.047823
981.999472	0.047660
982.173235	0.048765
982.346980	0.047568
982.520706	0.048911
982.694414	0.049004
982.868104	0.049355
983.041775	0.045778
983.215428	0.045227
983.389064	0.043369
983.562680	0.045380
983.736279	0.042157
983.909860	0.042861
984.083422	0.042216
984.256966	0.042922
984.430491	0.043370
984.603999	0.046400
984.777488	0.047287
984.950959	0.048580
985.124412	0.045964
985.297847	0.048023
985.471263	0.047131
985.644661	0.049411
985.818041	0.049473
985.991403	0.049969
986.164747	0.049104
986.338072	0.049507
986.511379	0.048998
986.684668	0.051399
986.857938	0.052519
987.031191	0.052087
987.204425	0.050550
987.377641	0.051554
987.550839	0.051649
987.724018	0.050568
987.897179	0.050384
988.070322	0.050499
988.243447	0.048325
988.416554	0.048080
988.589642	0.051506
988.762712	0.051096
988.935764	0.048130
989.108798	0.046611
989.281813	0.046887
989.454811	0.046248
989.627790	0.047321
989.800751	0.048604
989.973693	0.047973
990.146617	0.046389
990.319524	0.049542
990.492412	0.050262
990.665281	0.050452
990.838133	0.051482
991.010966	0.051120
991.183781	0.049345
991.356578	0.047153
991.529356	0.047287
991.702117	0.046289
991.874859	0.043896
992.047583	0.045667
992.220288	0.047166
992.392976	0.046835
992.565645	0.048718
992.738296	0.048457
992.910929	0.050139
993.083543	0.050641
993.256139	0.051237
993.428718	0.050218
993.601277	0.049537
993.773819	0.047898
993.946342	0.048426
994.118848	0.047864
994.291335	0.047545
994.463803	0.047089
994.636254	0.047532
994.808686	0.046790
994.981100	0.047904
995.153496	0.047743
995.325874	0.047994
995.498233	0.047520
995.670574	0.047115
995.842897	0.049334
996.015202	0.049983
996.187488	0.049217
996.359757	0.049695
996.532007	0.049417
996.704239	0.048054
996.876452	0.049674
997.048648	0.049349
997.220825	0.049860
997.392984	0.048047
997.565124	0.048105
997.737247	0.048217
997.909351	0.047863
998.081437	0.048463
998.253505	0.049445
998.425554	0.048429
998.597586	0.048338
998.769599	0.047700
998.941594	0.048349
999.113571	0.046883
999.285529	0.046287
999.457469	0.045711
999.629391	0.045195
999.801295	0.045662
999.973181	0.045204
1000.145048	0.044905
1000.316897	0.043524
1000.488728	0.043332
1000.660541	0.043651
1000.832335	0.043899
1001.004111	0.044532
1001.175869	0.043998
1001.347609	0.041947
1001.519331	0.041987
1001.691034	0.042106
1001.862719	0.043303
1002.034386	0.041875
1002.206035	0.041633
1002.377665	0.040576
1002.549277	0.039988
1002.720871	0.040861
1002.892447	0.042341
1003.064004	0.042423
1003.235544	0.041588
1003.407065	0.042398
1003.578568	0.043519
1003.750052	0.044718
1003.921519	0.045436
1004.092967	0.046743
1004.264397	0.045824
1004.435809	0.045721
1004.607202	0.047280
1004.778577	0.048173
1004.949934	0.047799
1005.121273	0.049281
1005.292594	0.048836
1005.463896	0.048735
1005.635180	0.048671
1005.806446	0.048122
1005.977694	0.047830
1006.148923	0.044794
1006.320135	0.046161
1006.491328	0.046999
1006.662503	0.045965
1006.833659	0.047410
1007.004798	0.047920
1007.175918	0.048123
1007.347020	0.049604
1007.518103	0.050661
1007.689169	0.052296
1007.860216	0.051137
1008.031245	0.049873
1008.202256	0.050721
1008.373248	0.048857
1008.544223	0.047405
1008.715179	0.046119
1008.886117	0.046115
1009.057036	0.046431
1009.227938	0.045394
1009.398821	0.043551
1009.569686	0.044177
1009.740533	0.042136
1009.911361	0.041681
1010.082172	0.042241
1010.252964	0.042646
1010.423738	0.042637
1010.594493	0.041726
1010.765231	0.043586
1010.935950	0.045584
1011.106651	0.043710
1011.277334	0.044245
1011.447998	0.047075
1011.618645	0.046354
1011.789273	0.046913
1011.959882	0.045807
1012.130474	0.045251
1012.301048	0.043438
1012.471603	0.042720
1012.642140	0.043273
1012.812658	0.045206
1012.983159	0.042897
1013.153641	0.044617
1013.324105	0.045133
1013.494551	0.046436
1013.664979	0.046075
1013.835388	0.045885
1014.005779	0.046936
1014.176152	0.045836
1014.346507	0.044448
1014.516843	0.044417
1014.687162	0.044097
1014.857462	0.043016
1015.027744	0.041778
1015.198007	0.041752
1015.368252	0.041925
1015.538480	0.041231
1015.708689	0.043810
1015.878879	0.042581
1016.049052	0.041976
1016.219206	0.042173
1016.389342	0.041958
1016.559460	0.043019
1016.729559	0.044358
1016.899641	0.044639
1017.069704	0.044057
1017.239749	0.043982
1017.409775	0.045625
1017.579784	0.046804
1017.749774	0.046269
1017.919746	0.047278
1018.089700	0.047132
1018.259635	0.046370
1018.429553	0.046192
1018.599452	0.047123
1018.769333	0.046462
1018.939195	0.046279
1019.109040	0.045304
1019.278866	0.045447
1019.448674	0.045369
1019.618464	0.044910
1019.788235	0.043983
1019.957989	0.044243
1020.127724	0.044172
1020.297441	0.043606
1020.467139	0.042831
1020.636820	0.043777
1020.806482	0.043775
1020.976126	0.042405
1021.145752	0.042364
1021.315359	0.042846
1021.484948	0.043210
1021.654519	0.042650
1021.824072	0.042446
1021.993607	0.041762
1022.163123	0.041200
1022.332621	0.042024
1022.502101	0.042387
1022.671563	0.041828
1022.841007	0.042949
1023.010432	0.042280
1023.179839	0.043361
1023.349228	0.044074
1023.518598	0.045618
1023.687951	0.046733
1023.857285	0.046442
1024.026601	0.046002
1024.195899	0.046782
1024.365178	0.047037
1024.534439	0.047535
1024.703682	0.047680
1024.872907	0.047218
1025.042114	0.048741
1025.211302	0.046612
1025.380472	0.046746
1025.549624	0.046172
1025.718758	0.044581
1025.887873	0.042931
1026.056970	0.043336
1026.226049	0.041813
1026.395110	0.043093
1026.564153	0.040247
1026.733177	0.041520
1026.902183	0.042491
1027.071171	0.046641
1027.240141	0.047861
1027.409092	0.049023
1027.578026	0.048855
1027.746940	0.050043
1027.915837	0.048514
1028.084716	0.049458
1028.253576	0.049326
1028.422418	0.046895
1028.591242	0.043471
1028.760048	0.043988
1028.928835	0.043476
1029.097604	0.044625
1029.266355	0.044804
1029.435088	0.043900
1029.603803	0.043761
1029.772499	0.043707
1029.941177	0.043943
1030.109837	0.044502
1030.278478	0.043731
1030.447102	0.042325
1030.615707	0.043081
1030.784294	0.043075
1030.952863	0.044702
1031.121413	0.044204
1031.289945	0.044557
1031.458460	0.044636
1031.626955	0.043735
1031.795433	0.043920
1031.963892	0.045145
1032.132334	0.041265
1032.300756	0.040757
1032.469161	0.040260
1032.637548	0.040876
1032.805916	0.040342
1032.974266	0.039748
1033.142598	0.039831
1033.310911	0.040238
1033.479207	0.040000
1033.647484	0.040776
1033.815743	0.042354
1033.983983	0.042734
1034.152206	0.042635
1034.320410	0.041998
1034.488596	0.042690
1034.656764	0.042923
1034.824914	0.042621
1034.993045	0.042105
1035.161158	0.044461
1035.329253	0.042561
1035.497330	0.041809
1035.665388	0.039674
1035.833428	0.040128
1036.001450	0.041277
1036.169454	0.040012
1036.337440	0.040764
1036.505407	0.042353
1036.673356	0.040994
1036.841287	0.041816
1037.009200	0.042716
1037.177094	0.044802
1037.344970	0.044694
1037.512828	0.043947
1037.680668	0.046565
1037.848489	0.045330
1038.016293	0.043326
1038.184078	0.041264
1038.351845	0.039686
1038.519593	0.038610
1038.687324	0.038064
1038.855036	0.039110
1039.022730	0.038379
1039.190406	0.037068
1039.358063	0.036893
1039.525702	0.039024
1039.693323	0.041265
1039.860926	0.041713
1040.028511	0.041589
1040.196077	0.042119
1040.363625	0.041058
1040.531155	0.042279
1040.698667	0.043288
1040.866161	0.044413
1041.033636	0.042440
1041.201093	0.042062
1041.368532	0.042204
1041.535952	0.042359
1041.703355	0.042408
1041.870739	0.043218
1042.038105	0.043446
1042.205452	0.043009
1042.372782	0.042506
1042.540093	0.043875
1042.707386	0.043620
1042.874661	0.042700
1043.041918	0.043588
1043.209156	0.043886
1043.376376	0.043032
1043.543578	0.041927
1043.710762	0.041743
1043.877927	0.040855
1044.045074	0.041908
1044.212203	0.042024
1044.379314	0.042837
1044.546407	0.041678
1044.713481	0.040589
1044.880537	0.039928
1045.047575	0.040440
1045.214595	0.039389
1045.381596	0.040893
1045.548579	0.040005
1045.715544	0.040339
1045.882491	0.039218
1046.049420	0.040615
1046.216330	0.041684
1046.383222	0.043379
1046.550096	0.043392
1046.716951	0.043766
1046.883789	0.042772
1047.050608	0.043180
1047.217409	0.042210
1047.384192	0.043418
1047.550956	0.042498
1047.717703	0.041856
1047.884431	0.041616
1048.051140	0.041228
1048.217832	0.041891
1048.384505	0.041914
1048.551161	0.040337
1048.717798	0.041915
1048.884416	0.043018
1049.051017	0.043585
1049.217599	0.044827
1049.384163	0.044257
1049.550709	0.043719
1049.717237	0.044379
1049.883746	0.045181
1050.050237	0.045212
1050.216710	0.045576
1050.383165	0.046556
1050.549601	0.047132
1050.716019	0.045565
1050.882420	0.045518
1051.048801	0.046301
1051.215165	0.045685
1051.381510	0.044689
1051.547837	0.045707
1051.714146	0.044573
1051.880437	0.042353
1052.046709	0.041624
1052.212964	0.041766
1052.379200	0.041646
1052.545417	0.039703
1052.711617	0.040893
1052.877798	0.043046
1053.043961	0.043542
1053.210106	0.042445
1053.376233	0.042275
1053.542341	0.042735
1053.708432	0.043494
1053.874504	0.042918
1054.040557	0.045425
1054.206593	0.045185
1054.372610	0.043536
1054.538609	0.041427
1054.704590	0.044310
1054.870553	0.045462
1055.036497	0.046193
1055.202424	0.046032
1055.368331	0.046359
1055.534221	0.044745
1055.700093	0.043417
1055.865946	0.043609
1056.031781	0.044398
1056.197598	0.043107
1056.363397	0.041941
1056.529177	0.038860
1056.694939	0.038614
1056.860683	0.040418
1057.026409	0.041742
1057.192116	0.040288
1057.357806	0.040347
1057.523477	0.040134
1057.689130	0.038659
1057.854764	0.039916
1058.020381	0.042761
1058.185979	0.042620
1058.351559	0.042266
1058.517120	0.041180
1058.682664	0.042408
1058.848189	0.040888
1059.013696	0.041599
1059.179185	0.042817
1059.344656	0.041064
1059.510108	0.039525
1059.675542	0.038287
1059.840958	0.038173
1060.006356	0.037747
1060.171735	0.037405
1060.337096	0.038029
1060.502439	0.037125
1060.667764	0.038065
1060.833071	0.040445
1060.998359	0.040347
1061.163629	0.043421
1061.328881	0.043023
1061.494115	0.043848
1061.659330	0.044605
1061.824527	0.045350
1061.989706	0.047213
1062.154867	0.047162
1062.320010	0.045196
1062.485134	0.044831
1062.650240	0.042399
1062.815328	0.042665
1062.980398	0.041810
1063.145449	0.041916
1063.310482	0.040425
1063.475497	0.038560
1063.640494	0.037240
1063.805473	0.036192
1063.970433	0.037551
1064.135375	0.039347
1064.300299	0.039181
1064.465204	0.039821
1064.630092	0.039552
1064.794961	0.041200
1064.959812	0.039796
1065.124645	0.040693
1065.289459	0.044075
1065.454256	0.044240
1065.619034	0.043914
1065.783793	0.041791
1065.948535	0.041547
1066.113258	0.044230
1066.277964	0.045788
1066.442651	0.048091
1066.607319	0.048070
1066.771970	0.047421
1066.936602	0.046261
1067.101216	0.045452
1067.265812	0.046982
1067.430389	0.047533
1067.594949	0.044175
1067.759490	0.042458
1067.924013	0.042602
1068.088518	0.040614
1068.253004	0.040721
1068.417472	0.043067
1068.581922	0.041540
1068.746354	0.040200
1068.910768	0.040605
1069.075163	0.041128
1069.239540	0.040773
1069.403899	0.039211
1069.568240	0.038847
1069.732562	0.037887
1069.896866	0.035466
1070.061152	0.037229
1070.225420	0.040074
1070.389670	0.039112
1070.553901	0.040185
1070.718114	0.039631
1070.882309	0.040214
1071.046486	0.042190
1071.210644	0.041634
1071.374784	0.040588
1071.538906	0.040410
1071.703010	0.038970
1071.867096	0.039228
1072.031163	0.039280
1072.195212	0.040974
1072.359243	0.040887
1072.523256	0.041068
1072.687250	0.041762
1072.851226	0.044276
1073.015184	0.046781
1073.179124	0.045673
1073.343045	0.044778
1073.506949	0.044129
1073.670834	0.044052
1073.834701	0.046563
1073.998549	0.047632
1074.162380	0.046002
1074.326192	0.044872
1074.489986	0.042824
1074.653761	0.044488
1074.817519	0.046739
1074.981258	0.046693
1075.144979	0.045855
1075.308682	0.043187
1075.472367	0.041377
1075.636033	0.042549
1075.799681	0.044176
1075.963311	0.042440
1076.126923	0.041564
1076.290516	0.040344
1076.454092	0.040937
1076.617649	0.041263
1076.781187	0.042020
1076.944708	0.040735
1077.108210	0.040673
1077.271695	0.039265
1077.435160	0.041303
1077.598608	0.041130
1077.762038	0.040920
1077.925449	0.039924
1078.088842	0.038921
1078.252217	0.038912
1078.415573	0.039585
1078.578912	0.040026
1078.742232	0.039292
1078.905534	0.039701
1079.068817	0.040500
1079.232083	0.042029
1079.395330	0.043639
1079.558559	0.044177
1079.721770	0.044640
1079.884962	0.044660
1080.048136	0.043405
1080.211293	0.045477
1080.374430	0.042446
1080.537550	0.041674
1080.700651	0.040762
1080.863735	0.038312
1081.026800	0.038519
1081.189846	0.040463
1081.352875	0.041798
1081.515885	0.040449
1081.678877	0.039730
1081.841851	0.042424
1082.004807	0.041891
1082.167744	0.042884
1082.330663	0.043446
1082.493564	0.042481
1082.656447	0.040059
1082.819312	0.039564
1082.982158	0.041196
1083.144986	0.039709
1083.307796	0.039165
1083.470587	0.042149
1083.633361	0.044034
1083.796116	0.044317
1083.958853	0.045721
1084.121571	0.045612
1084.284272	0.045928
1084.446954	0.049922
1084.609618	0.049529
1084.772264	0.049122
1084.934892	0.047815
1085.097501	0.045753
1085.260092	0.046485
1085.422665	0.047699
1085.585220	0.046432
1085.747756	0.044799
1085.910274	0.041835
1086.072774	0.041587
1086.235256	0.041145
1086.397720	0.039070
1086.560165	0.038734
1086.722592	0.039144
1086.885001	0.037478
1087.047392	0.039127
1087.209764	0.043019
1087.372119	0.044229
1087.534455	0.047196
1087.696772	0.047583
1087.859072	0.049338
1088.021353	0.047408
1088.183616	0.047410
1088.345861	0.048326
1088.508088	0.048633
1088.670296	0.046006
1088.832486	0.044040
1088.994658	0.046835
1089.156812	0.049589
1089.318948	0.050631
1089.481065	0.053337
1089.643164	0.053095
1089.805245	0.052328
1089.967308	0.053291
1090.129352	0.053594
1090.291378	0.053955
1090.453386	0.051183
1090.615376	0.047436
1090.777347	0.048552
1090.939301	0.047973
1091.101236	0.044724
1091.263153	0.045264
1091.425051	0.045480
1091.586932	0.045891
1091.748794	0.046454
1091.910638	0.046643
1092.072463	0.047005
1092.234271	0.048029
1092.396060	0.047400
1092.557831	0.050175
1092.719584	0.050635
1092.881319	0.048954
1093.043035	0.049297
1093.204733	0.051168
1093.366413	0.049782
1093.528075	0.051184
1093.689718	0.046789
1093.851343	0.050042
1094.012950	0.050871
1094.174539	0.048534
1094.336110	0.051103
1094.497662	0.049315
1094.659196	0.048171
1094.820712	0.048884
1094.982210	0.047670
1095.143689	0.048998
1095.305151	0.046938
1095.466594	0.045709
1095.628018	0.046731
1095.789425	0.044459
1095.950813	0.046415
1096.112183	0.045604
1096.273535	0.046348
1096.434869	0.046601
1096.596184	0.045739
1096.757482	0.042721
1096.918761	0.044647
1097.080021	0.044330
1097.241264	0.042225
1097.402488	0.039439
1097.563694	0.040002
1097.724882	0.036592
1097.886052	0.036940
1098.047203	0.037251
1098.208336	0.038079
1098.369451	0.037427
1098.530548	0.041124
1098.691627	0.046677
1098.852687	0.050675
1099.013729	0.049082
1099.174753	0.050747
1099.335758	0.051908
1099.496746	0.055401
1099.657715	0.056298
1099.818666	0.057399
1099.979599	0.055693
1100.140513	0.052725
1100.301409	0.050150
1100.462287	0.051686
1100.623147	0.054513
1100.783989	0.056239
1100.944812	0.055783
1101.105617	0.054468
1101.266404	0.055552
1101.427173	0.055580
1101.587923	0.054032
1101.748656	0.050517
1101.909370	0.047707
1102.070066	0.044449
1102.230743	0.043740
1102.391403	0.042206
1102.552044	0.044547
1102.712667	0.039551
1102.873271	0.036475
1103.033858	0.037946
1103.194426	0.042619
1103.354976	0.044682
1103.515508	0.044386
1103.676021	0.046063
1103.836517	0.045267
1103.996994	0.044678
1104.157453	0.049130
1104.317893	0.050767
1104.478316	0.050744
1104.638720	0.053189
1104.799106	0.056334
1104.959474	0.054348
1105.119823	0.048734
1105.280155	0.045542
1105.440468	0.047318
1105.600763	0.047605
1105.761039	0.046522
1105.921298	0.047459
1106.081538	0.043810
1106.241760	0.038124
1106.401964	0.044963
1106.562149	0.046731
1106.722316	0.048147
1106.882465	0.043910
1107.042596	0.037775
1107.202709	0.038032
1107.362803	0.034338
1107.522879	0.033935
1107.682937	0.035527
1107.842977	0.033051
1108.002999	0.035077
1108.163002	0.036815
1108.322987	0.042531
1108.482954	0.044180
1108.642902	0.045752
1108.802833	0.048940
1108.962745	0.049089
1109.122639	0.051882
1109.282515	0.050014
1109.442372	0.051029
1109.602211	0.051375
1109.762032	0.049221
1109.921835	0.052078
1110.081620	0.049893
1110.241386	0.048376
1110.401134	0.049930
1110.560864	0.052145
1110.720576	0.051910
1110.880269	0.050756
1111.039945	0.051733
1111.199602	0.051192
1111.359240	0.050691
1111.518861	0.054204
1111.678463	0.056446
1111.838047	0.055557
1111.997613	0.051896
1112.157161	0.051859
1112.316690	0.049975
1112.476202	0.050102
1112.635695	0.051309
1112.795169	0.052290
1112.954626	0.051002
1113.114064	0.051419
1113.273484	0.048945
1113.432886	0.047618
1113.592270	0.046392
1113.751635	0.045889
1113.910983	0.047332
1114.070312	0.045261
1114.229622	0.048125
1114.388915	0.047996
1114.548189	0.049189
1114.707445	0.053260
1114.866683	0.056205
1115.025903	0.061422
1115.185104	0.067829
1115.344287	0.066853
1115.503452	0.069652
1115.662599	0.065071
1115.821727	0.063993
1115.980838	0.060757
1116.139930	0.058368
1116.299004	0.058610
1116.458059	0.057094
1116.617097	0.053080
1116.776116	0.052934
1116.935117	0.048101
1117.094099	0.047821
1117.253064	0.046622
1117.412010	0.048070
1117.570938	0.048531
1117.729848	0.049767
1117.888740	0.050507
1118.047613	0.049851
1118.206468	0.046184
1118.365305	0.048942
1118.524124	0.053347
1118.682924	0.056418
1118.841707	0.057777
1119.000471	0.057828
1119.159216	0.056157
1119.317944	0.052492
1119.476653	0.050718
1119.635344	0.054583
1119.794017	0.050461
1119.952672	0.048937
1120.111308	0.048394
1120.269927	0.046995
1120.428527	0.045256
1120.587108	0.043306
1120.745672	0.043844
1120.904217	0.047801
1121.062744	0.049170
1121.221253	0.054464
1121.379744	0.055364
1121.538216	0.056223
1121.696671	0.057718
1121.855107	0.059717
1122.013524	0.060726
1122.171924	0.063217
1122.330305	0.063152
1122.488668	0.062023
1122.647013	0.062267
1122.805340	0.059520
1122.963648	0.057801
1123.121938	0.054438
1123.280210	0.055831
1123.438464	0.057945
1123.596700	0.056796
1123.754917	0.053643
1123.913116	0.056222
1124.071297	0.053188
1124.229459	0.054534
1124.387604	0.057973
1124.545730	0.061564
1124.703838	0.061644
1124.861928	0.061606
1125.019999	0.066609
1125.178052	0.065398
1125.336088	0.063628
1125.494104	0.065619
1125.652103	0.064152
1125.810083	0.060603
1125.968045	0.053174
1126.125989	0.052354
1126.283915	0.051156
1126.441823	0.049606
1126.599712	0.047056
1126.757583	0.044878
1126.915436	0.041851
1127.073270	0.041220
1127.231087	0.042782
1127.388885	0.048133
1127.546665	0.045994
1127.704426	0.046531
1127.862170	0.040639
1128.019895	0.042818
1128.177602	0.045046
1128.335291	0.043569
1128.492961	0.044820
1128.650614	0.044135
1128.808248	0.043861
1128.965864	0.049582
1129.123461	0.049225
1129.281041	0.046035
1129.438602	0.049612
1129.596145	0.047274
1129.753670	0.053923
1129.911176	0.056117
1130.068665	0.054932
1130.226135	0.052448
1130.383587	0.049789
1130.541020	0.043036
1130.698436	0.052312
1130.855833	0.052191
1131.013212	0.051869
1131.170573	0.047964
1131.327915	0.048690
1131.485239	0.047445
1131.642545	0.050610
1131.799833	0.046077
1131.957103	0.051893
1132.114354	0.048020
1132.271588	0.041420
1132.428803	0.040832
1132.585999	0.040783
1132.743178	0.040225
1132.900338	0.047119
1133.057480	0.049143
1133.214604	0.053608
1133.371710	0.056953
1133.528797	0.060230
1133.685866	0.069182
1133.842917	0.066288
1133.999950	0.067864
1134.156964	0.064330
1134.313960	0.057132
1134.470938	0.052129
1134.627898	0.054257
1134.784840	0.051318
1134.941763	0.050531
1135.098668	0.047527
1135.255555	0.055691
1135.412424	0.058938
1135.569274	0.061880
1135.726107	0.064672
1135.882921	0.063313
1136.039716	0.062072
1136.196494	0.060620
1136.353253	0.060030
1136.509995	0.057521
1136.666717	0.049096
1136.823422	0.048718
1136.980109	0.046497
1137.136777	0.047879
1137.293427	0.056436
1137.450059	0.055445
1137.606672	0.052582
1137.763267	0.051190
1137.919844	0.056459
1138.076403	0.064864
1138.232944	0.054082
1138.389466	0.055990
1138.545971	0.055370
1138.702457	0.055577
1138.858924	0.056912
1139.015374	0.070969
1139.171805	0.072384
1139.328218	0.069912
1139.484613	0.059285
1139.640990	0.067188
1139.797348	0.069161
1139.953688	0.066717
1140.110010	0.065921
1140.266314	0.065583
1140.422600	0.056261
1140.578867	0.058358
1140.735116	0.052696
1140.891347	0.057065
1141.047559	0.054062
1141.203754	0.053104
1141.359930	0.050611
1141.516088	0.052844
1141.672228	0.049947
1141.828349	0.056758
1141.984452	0.050217
1142.140537	0.056417
1142.296604	0.062855
1142.452653	0.065730
1142.608683	0.065244
1142.764695	0.071447
1142.920689	0.066941
1143.076665	0.071149
1143.232622	0.067091
1143.388562	0.066498
1143.544483	0.064836
1143.700385	0.058017
1143.856270	0.063003
1144.012136	0.053899
1144.167985	0.047314
1144.323814	0.045497
1144.479626	0.042147
1144.635420	0.045085
1144.791195	0.049412
1144.946952	0.046924
1145.102691	0.050956
1145.258411	0.051115
1145.414113	0.057583
1145.569798	0.065006
1145.725463	0.066464
1145.881111	0.067245
1146.036741	0.060366
1146.192352	0.063010
1146.347945	0.064022
1146.503519	0.059202
1146.659076	0.057637
1146.814614	0.059374
1146.970134	0.057760
1147.125636	0.057355
1147.281120	0.061028
1147.436585	0.058243
1147.592032	0.049910
1147.747461	0.049691
1147.902872	0.052590
1148.058265	0.052398
1148.213639	0.048910
1148.368995	0.052497
1148.524333	0.054471
1148.679653	0.051222
1148.834954	0.053773
1148.990237	0.063987
1149.145502	0.071095
1149.300749	0.065241
1149.455977	0.058050
1149.611188	0.053739
1149.766380	0.052485
1149.921553	0.053416
1150.076709	0.050316
1150.231846	0.049751
1150.386966	0.052136
1150.542066	0.045398
1150.697149	0.054547
1150.852214	0.057127
1151.007260	0.065378
1151.162288	0.066137
1151.317298	0.057174
1151.472289	0.059163
1151.627263	0.062957
1151.782218	0.052009
1151.937155	0.058004
1152.092073	0.055284
1152.246974	0.049266
1152.401856	0.049579
1152.556720	0.050725
1152.711566	0.059305
1152.866393	0.058647
1153.021203	0.048616
1153.175994	0.055542
1153.330767	0.051777
1153.485521	0.051852
1153.640258	0.064479
1153.794976	0.063075
1153.949676	0.061340
1154.104358	0.060492
1154.259021	0.057198
1154.413667	0.059440
1154.568294	0.053411
1154.722903	0.051084
1154.877493	0.051562
1155.032066	0.050397
1155.186620	0.051230
1155.341156	0.053704
1155.495674	0.052132
1155.650173	0.059149
1155.804654	0.063177
1155.959118	0.066225
1156.113562	0.074660
1156.267989	0.076563
1156.422397	0.078100
1156.576788	0.086538
1156.731160	0.080165
1156.885513	0.077666
1157.039849	0.073567
1157.194166	0.072779
1157.348465	0.066192
1157.502746	0.065110
1157.657009	0.062354
1157.811253	0.061131
1157.965479	0.049123
1158.119687	0.049384
1158.273877	0.048624
1158.428048	0.046707
1158.582201	0.043934
1158.736337	0.054125
1158.890453	0.055817
1159.044552	0.060643
1159.198632	0.053985
1159.352694	0.056115
1159.506738	0.052649
1159.660764	0.051642
1159.814771	0.049031
1159.968761	0.056154
1160.122732	0.054188
1160.276685	0.051202
1160.430619	0.046702
1160.584535	0.052820
1160.738434	0.054371
1160.892313	0.057691
1161.046175	0.053151
1161.200019	0.059673
1161.353844	0.057679
1161.507651	0.059005
1161.661440	0.051622
1161.815210	0.056928
1161.968962	0.054868
1162.122697	0.045529
1162.276412	0.045099
1162.430110	0.066999
1162.583789	0.060900
1162.737451	0.061444
1162.891094	0.058918
1163.044718	0.064379
1163.198325	0.055817
1163.351913	0.043008
1163.505483	0.054637
1163.659035	0.061097
1163.812569	0.051359
1163.966084	0.063042
1164.119581	0.064588
1164.273060	0.063673
1164.426521	0.065893
1164.579964	0.070447
1164.733388	0.084440
1164.886794	0.079806
1165.040182	0.072673
1165.193551	0.061361
1165.346903	0.062856
1165.500236	0.059523
1165.653551	0.062179
1165.806848	0.061942
1165.960126	0.066083
1166.113386	0.055919
1166.266628	0.063438
1166.419852	0.070520
1166.573058	0.062458
1166.726245	0.045219
1166.879414	0.046859
1167.032565	0.038571
1167.185698	0.027285
1167.338812	0.019310
1167.491909	0.025157
1167.644987	0.027714
1167.798046	0.015291
1167.951088	0.033960
1168.104111	0.057071
1168.257117	0.055872
1168.410103	0.058038
1168.563072	0.079858
1168.716023	0.081846
1168.868955	0.083217
1169.021869	0.077088
1169.174765	0.105047
1169.327642	0.086091
1169.480501	0.060830
1169.633343	0.060881
1169.786165	0.057697
1169.938970	0.041790
1170.091757	0.040351
1170.244525	0.044894
1170.397275	0.039967
1170.550007	0.018433
1170.702720	0.031093
1170.855415	0.039889
1171.008092	0.043702
1171.160751	0.056816
1171.313392	0.065056
1171.466014	0.032788
1171.618619	0.101515
1171.771205	0.101515
1171.923772	0.101515
