sample name	sample
index	892
start time	 04-08-2021  02:54:40 PM


Wavelength (nm)	Absorbance
494.344910	0.009672
494.563924	0.009672
494.782919	0.009672
495.001897	-0.004633
495.220856	0.009790
495.439797	0.002354
495.658719	0.003153
495.877624	-0.002332
496.096510	-0.000937
496.315378	-0.007368
496.534227	-0.004637
496.753059	-0.004226
496.971872	-0.003718
497.190667	0.065100
497.409444	0.110420
497.628203	0.129629
497.846943	0.140900
498.065665	0.145923
498.284369	0.152985
498.503055	0.156004
498.721723	0.159550
498.940372	0.161034
499.159003	0.162435
499.377616	0.163807
499.596210	0.164260
499.814787	0.164609
500.033345	0.165834
500.251885	0.166518
500.470406	0.167718
500.688910	0.166917
500.907395	0.168079
501.125862	0.167204
501.344311	0.166802
501.562742	0.167136
501.781154	0.168297
501.999548	0.169334
502.217924	0.169219
502.436282	0.168734
502.654621	0.169278
502.872942	0.168592
503.091245	0.169354
503.309530	0.169557
503.527797	0.169497
503.746045	0.169771
503.964275	0.169502
504.182487	0.170018
504.400681	0.169752
504.618856	0.170513
504.837013	0.171861
505.055152	0.172258
505.273273	0.173098
505.491376	0.174446
505.709460	0.174928
505.927526	0.175097
506.145574	0.175038
506.363604	0.175522
506.581615	0.175490
506.799608	0.175730
507.017583	0.175142
507.235540	0.174986
507.453478	0.173839
507.671399	0.174128
507.889301	0.174289
508.107185	0.174409
508.325050	0.174679
508.542898	0.175360
508.760727	0.176149
508.978538	0.177335
509.196330	0.177267
509.414105	0.178654
509.631861	0.178636
509.849599	0.179595
510.067319	0.179256
510.285021	0.180277
510.502704	0.180193
510.720369	0.180440
510.938016	0.181072
511.155645	0.182353
511.373255	0.182263
511.590848	0.182119
511.808422	0.182240
512.025977	0.183807
512.243515	0.183721
512.461034	0.183911
512.678536	0.183608
512.896018	0.183967
513.113483	0.184180
513.330930	0.183922
513.548358	0.184296
513.765768	0.185111
513.983160	0.184713
514.200533	0.185511
514.417889	0.185988
514.635226	0.186013
514.852545	0.186272
515.069845	0.185892
515.287128	0.186474
515.504392	0.186621
515.721638	0.186580
515.938866	0.186575
516.156075	0.186153
516.373267	0.186901
516.590440	0.187210
516.807594	0.187202
517.024731	0.187762
517.241850	0.188429
517.458950	0.188470
517.676032	0.188903
517.893095	0.189833
518.110141	0.190909
518.327168	0.191107
518.544177	0.191484
518.761168	0.192456
518.978141	0.193113
519.195095	0.193312
519.412031	0.194187
519.628949	0.194278
519.845849	0.194818
520.062731	0.194572
520.279594	0.194337
520.496439	0.195200
520.713266	0.194744
520.930074	0.193881
521.146865	0.194385
521.363637	0.194920
521.580391	0.195208
521.797127	0.195690
522.013844	0.196802
522.230543	0.197601
522.447224	0.198101
522.663887	0.197618
522.880532	0.199562
523.097158	0.200438
523.313766	0.200898
523.530356	0.201882
523.746928	0.201386
523.963481	0.201138
524.180017	0.201411
524.396534	0.201377
524.613032	0.202647
524.829513	0.202563
525.045975	0.201982
525.262420	0.201802
525.478845	0.201410
525.695253	0.201819
525.911643	0.202648
526.128014	0.203137
526.344367	0.203892
526.560702	0.204373
526.777018	0.204686
526.993316	0.205359
527.209597	0.206022
527.425858	0.206756
527.642102	0.207967
527.858328	0.208194
528.074535	0.208566
528.290724	0.208312
528.506894	0.208836
528.723047	0.209360
528.939181	0.209568
529.155297	0.210205
529.371395	0.210499
529.587475	0.210909
529.803536	0.211565
530.019579	0.212320
530.235604	0.212591
530.451611	0.213409
530.667600	0.214033
530.883570	0.214637
531.099522	0.215001
531.315456	0.215846
531.531372	0.216425
531.747269	0.216818
531.963148	0.217231
532.179009	0.218330
532.394852	0.218313
532.610676	0.218172
532.826482	0.218786
533.042271	0.219241
533.258040	0.219400
533.473792	0.219584
533.689525	0.220429
533.905240	0.220667
534.120937	0.221199
534.336616	0.222089
534.552277	0.222936
534.767919	0.223089
534.983543	0.223448
535.199149	0.223759
535.414736	0.224225
535.630306	0.224148
535.845857	0.225118
536.061390	0.225409
536.276904	0.225636
536.492401	0.226273
536.707879	0.227055
536.923339	0.227324
537.138781	0.227802
537.354204	0.228207
537.569610	0.228578
537.784997	0.228683
538.000366	0.228395
538.215716	0.228101
538.431049	0.227783
538.646363	0.228099
538.861659	0.228299
539.076937	0.228772
539.292196	0.229210
539.507438	0.229299
539.722661	0.229746
539.937866	0.230698
540.153052	0.231787
540.368221	0.232309
540.583371	0.232313
540.798503	0.232907
541.013617	0.233672
541.228712	0.234206
541.443789	0.234611
541.658848	0.234294
541.873889	0.234822
542.088912	0.234844
542.303916	0.235224
542.518902	0.235536
542.733870	0.236204
542.948820	0.236083
543.163752	0.236165
543.378665	0.237520
543.593560	0.238489
543.808437	0.238793
544.023295	0.239178
544.238136	0.239683
544.452958	0.240327
544.667762	0.240439
544.882548	0.240849
545.097315	0.241585
545.312064	0.241607
545.526795	0.241530
545.741508	0.242256
545.956203	0.242113
546.170879	0.242603
546.385537	0.243287
546.600177	0.244135
546.814799	0.244992
547.029402	0.244977
547.243988	0.244752
547.458555	0.245582
547.673103	0.245655
547.887634	0.246441
548.102146	0.247032
548.316640	0.246274
548.531116	0.246218
548.745574	0.245979
548.960013	0.246726
549.174435	0.247522
549.388838	0.246979
549.603222	0.246886
549.817589	0.247324
550.031937	0.246887
550.246267	0.247847
550.460579	0.247994
550.674873	0.248521
550.889148	0.248541
551.103405	0.248202
551.317644	0.248812
551.531865	0.249547
551.746068	0.249875
551.960252	0.250175
552.174418	0.250090
552.388566	0.250843
552.602696	0.250697
552.816807	0.251266
553.030900	0.251539
553.244975	0.252208
553.459032	0.252157
553.673070	0.252465
553.887091	0.252960
554.101093	0.253531
554.315077	0.253665
554.529042	0.254354
554.742990	0.254468
554.956919	0.255181
555.170830	0.255436
555.384722	0.255805
555.598597	0.256313
555.812453	0.257007
556.026291	0.257264
556.240111	0.257587
556.453913	0.257585
556.667696	0.257815
556.881461	0.258260
557.095208	0.258650
557.308937	0.259292
557.522647	0.259259
557.736339	0.259330
557.950013	0.259639
558.163669	0.259932
558.377307	0.260544
558.590926	0.260659
558.804527	0.260751
559.018110	0.260246
559.231675	0.259978
559.445221	0.260302
559.658749	0.260486
559.872259	0.260818
560.085751	0.261013
560.299225	0.260795
560.512680	0.260940
560.726117	0.261324
560.939536	0.261664
561.152937	0.262038
561.366319	0.261665
561.579683	0.261852
561.793029	0.261973
562.006357	0.261906
562.219667	0.262065
562.432958	0.262288
562.646231	0.262156
562.859486	0.262831
563.072723	0.263115
563.285941	0.263812
563.499141	0.264396
563.712323	0.264997
563.925487	0.265337
564.138632	0.265737
564.351760	0.265835
564.564869	0.266005
564.777960	0.266492
564.991032	0.266518
565.204087	0.267055
565.417123	0.267026
565.630141	0.266703
565.843140	0.266858
566.056122	0.266994
566.269085	0.267635
566.482030	0.267782
566.694957	0.267487
566.907866	0.267993
567.120756	0.267645
567.333628	0.267829
567.546482	0.268567
567.759318	0.268967
567.972135	0.269220
568.184935	0.269081
568.397716	0.269461
568.610478	0.270061
568.823223	0.269957
569.035949	0.270833
569.248657	0.271124
569.461347	0.270789
569.674019	0.271135
569.886672	0.271428
570.099308	0.271524
570.311925	0.271620
570.524523	0.271280
570.737104	0.271729
570.949666	0.271725
571.162210	0.271641
571.374736	0.272424
571.587244	0.272494
571.799733	0.272533
572.012205	0.272983
572.224658	0.273311
572.437092	0.273857
572.649509	0.273742
572.861907	0.273657
573.074287	0.274226
573.286649	0.274031
573.498993	0.273825
573.711318	0.274445
573.923625	0.274760
574.135914	0.274644
574.348185	0.274519
574.560438	0.275265
574.772672	0.275866
574.984888	0.275813
575.197086	0.275961
575.409266	0.276699
575.621427	0.276710
575.833570	0.276871
576.045695	0.277365
576.257802	0.278349
576.469890	0.278044
576.681961	0.278170
576.894013	0.278440
577.106046	0.278896
577.318062	0.278772
577.530059	0.278893
577.742039	0.279066
577.954000	0.279253
578.165942	0.278633
578.377867	0.279057
578.589773	0.279242
578.801661	0.279264
579.013531	0.279143
579.225382	0.279778
579.437216	0.279524
579.649031	0.279815
579.860828	0.279745
580.072606	0.280111
580.284367	0.279847
580.496109	0.280036
580.707833	0.280312
580.919539	0.280623
581.131227	0.280577
581.342896	0.281603
581.554547	0.281457
581.766180	0.281867
581.977795	0.281942
582.189391	0.282331
582.400969	0.282618
582.612529	0.282766
582.824071	0.282959
583.035595	0.283103
583.247100	0.282926
583.458587	0.283380
583.670056	0.283403
583.881506	0.283695
584.092939	0.284045
584.304353	0.284085
584.515749	0.284677
584.727127	0.284763
584.938486	0.285315
585.149828	0.285615
585.361151	0.285554
585.572456	0.286238
585.783742	0.286447
585.995011	0.287072
586.206261	0.287169
586.417493	0.287381
586.628706	0.287691
586.839902	0.287398
587.051079	0.287831
587.262238	0.288018
587.473379	0.287790
587.684502	0.288269
587.895606	0.288162
588.106692	0.288590
588.317760	0.288390
588.528810	0.288690
588.739841	0.289227
588.950855	0.289108
589.161850	0.289306
589.372827	0.289753
589.583785	0.290358
589.794726	0.290375
590.005648	0.290289
590.216552	0.290656
590.427437	0.291034
590.638305	0.290800
590.849154	0.290927
591.059985	0.291096
591.270798	0.290733
591.481592	0.290972
591.692369	0.291137
591.903127	0.291270
592.113867	0.291481
592.324588	0.291114
592.535292	0.291635
592.745977	0.291443
592.956644	0.291716
593.167293	0.292366
593.377923	0.291731
593.588536	0.292084
593.799130	0.292587
594.009706	0.293145
594.220263	0.293874
594.430803	0.294069
594.641324	0.294580
594.851827	0.294502
595.062312	0.295043
595.272778	0.295897
595.483227	0.296145
595.693657	0.296648
595.904069	0.296546
596.114462	0.296730
596.324838	0.296155
596.535195	0.296306
596.745534	0.296962
596.955855	0.296673
597.166157	0.296069
597.376441	0.296030
597.586707	0.295679
597.796955	0.295603
598.007185	0.295612
598.217396	0.296400
598.427589	0.296886
598.637764	0.297147
598.847921	0.297387
599.058060	0.297890
599.268180	0.298556
599.478282	0.298914
599.688366	0.299264
599.898431	0.299909
600.108479	0.300052
600.318508	0.299861
600.528519	0.299854
600.738511	0.300120
600.948486	0.300251
601.158442	0.300483
601.368380	0.300737
601.578300	0.300532
601.788202	0.300267
601.998085	0.300572
602.207950	0.301055
602.417797	0.301097
602.627626	0.301205
602.837436	0.301764
603.047228	0.301907
603.257002	0.302202
603.466758	0.302780
603.676496	0.303245
603.886215	0.303427
604.095916	0.303222
604.305599	0.303507
604.515264	0.303526
604.724910	0.303304
604.934538	0.303247
605.144148	0.302956
605.353740	0.303208
605.563314	0.303363
605.772869	0.303702
605.982406	0.304272
606.191925	0.304481
606.401425	0.305136
606.610908	0.305289
606.820372	0.305599
607.029818	0.305807
607.239246	0.306017
607.448655	0.305921
607.658047	0.305809
607.867420	0.305704
608.076775	0.305814
608.286111	0.305674
608.495430	0.306100
608.704730	0.306183
608.914012	0.306638
609.123275	0.307027
609.332521	0.307120
609.541748	0.307198
609.750957	0.307676
609.960148	0.307881
610.169321	0.308280
610.378475	0.308438
610.587611	0.308302
610.796729	0.308396
611.005829	0.308232
611.214910	0.308497
611.423974	0.308683
611.633019	0.308816
611.842045	0.309233
612.051054	0.309415
612.260044	0.309374
612.469017	0.309775
612.677970	0.309954
612.886906	0.310325
613.095824	0.310796
613.304723	0.311457
613.513604	0.311389
613.722467	0.311562
613.931311	0.311424
614.140138	0.312043
614.348946	0.312150
614.557736	0.312439
614.766507	0.312508
614.975261	0.312360
615.183996	0.312408
615.392713	0.312761
615.601412	0.312577
615.810092	0.313005
616.018754	0.312819
616.227399	0.313027
616.436024	0.312958
616.644632	0.312704
616.853222	0.313393
617.061793	0.313460
617.270346	0.313826
617.478880	0.314199
617.687397	0.314352
617.895895	0.314419
618.104375	0.314597
618.312837	0.314913
618.521281	0.315487
618.729706	0.315332
618.938113	0.315565
619.146502	0.315279
619.354873	0.315321
619.563226	0.315007
619.771560	0.315626
619.979876	0.315753
620.188174	0.315915
620.396453	0.315985
620.604715	0.316088
620.812958	0.316227
621.021183	0.316688
621.229390	0.316920
621.437578	0.317361
621.645748	0.317227
621.853900	0.317433
622.062034	0.317368
622.270150	0.317514
622.478247	0.317341
622.686326	0.317455
622.894387	0.317372
623.102430	0.317171
623.310454	0.317344
623.518461	0.317355
623.726449	0.317524
623.934418	0.317516
624.142370	0.317726
624.350303	0.317778
624.558218	0.317919
624.766115	0.318400
624.973994	0.318788
625.181855	0.318843
625.389697	0.319178
625.597521	0.319400
625.805327	0.319995
626.013114	0.320214
626.220883	0.320675
626.428634	0.320747
626.636367	0.320705
626.844082	0.320747
627.051778	0.321360
627.259457	0.321695
627.467117	0.321979
627.674758	0.322121
627.882382	0.321984
628.089987	0.322156
628.297574	0.322174
628.505143	0.322602
628.712694	0.323017
628.920226	0.322818
629.127740	0.323017
629.335236	0.323005
629.542714	0.323079
629.750174	0.323655
629.957615	0.323954
630.165038	0.324318
630.372443	0.324316
630.579829	0.324614
630.787198	0.325044
630.994548	0.325173
631.201880	0.325385
631.409194	0.325788
631.616489	0.325789
631.823766	0.326195
632.031025	0.326257
632.238266	0.326408
632.445489	0.326566
632.652693	0.326700
632.859879	0.326773
633.067047	0.326910
633.274197	0.326982
633.481329	0.327178
633.688442	0.327046
633.895537	0.327515
634.102614	0.327785
634.309672	0.327714
634.516713	0.327473
634.723735	0.327839
634.930739	0.328121
635.137724	0.328246
635.344692	0.328194
635.551641	0.328700
635.758572	0.328785
635.965485	0.328855
636.172379	0.329330
636.379256	0.329850
636.586114	0.330168
636.792954	0.330189
636.999775	0.330191
637.206579	0.330501
637.413364	0.330563
637.620131	0.330586
637.826880	0.331048
638.033610	0.331064
638.240323	0.331229
638.447017	0.331003
638.653692	0.331306
638.860350	0.331548
639.066990	0.331857
639.273611	0.331992
639.480214	0.332329
639.686798	0.332479
639.893365	0.332475
640.099913	0.332984
640.306443	0.333572
640.512955	0.333689
640.719449	0.334230
640.925924	0.334734
641.132381	0.335212
641.338820	0.335535
641.545241	0.335682
641.751644	0.336126
641.958028	0.336113
642.164394	0.336227
642.370742	0.336375
642.577071	0.336493
642.783383	0.336414
642.989676	0.336280
643.195951	0.336197
643.402207	0.336091
643.608446	0.336108
643.814666	0.336442
644.020868	0.336566
644.227052	0.336622
644.433218	0.336563
644.639365	0.336534
644.845494	0.336727
645.051605	0.337135
645.257698	0.337184
645.463772	0.337519
645.669828	0.337444
645.875866	0.337370
646.081886	0.337909
646.287888	0.338229
646.493871	0.338833
646.699836	0.338713
646.905783	0.338998
647.111712	0.339533
647.317622	0.339792
647.523514	0.339910
647.729388	0.340360
647.935244	0.340416
648.141082	0.340669
648.346901	0.340568
648.552702	0.341145
648.758485	0.341238
648.964250	0.341432
649.169996	0.341600
649.375724	0.342059
649.581434	0.342180
649.787126	0.342350
649.992800	0.342697
650.198455	0.343185
650.404092	0.343510
650.609711	0.343553
650.815311	0.343981
651.020894	0.344269
651.226458	0.344449
651.432004	0.344851
651.637532	0.345230
651.843041	0.345094
652.048532	0.345104
652.254006	0.345207
652.459460	0.345265
652.664897	0.345269
652.870315	0.345791
653.075716	0.346155
653.281097	0.346228
653.486461	0.346186
653.691807	0.346481
653.897134	0.346759
654.102443	0.346806
654.307734	0.347147
654.513006	0.347321
654.718261	0.347313
654.923497	0.347333
655.128715	0.347640
655.333915	0.348123
655.539096	0.348432
655.744259	0.348738
655.949404	0.349229
656.154531	0.349539
656.359640	0.350037
656.564730	0.350196
656.769802	0.350463
656.974856	0.350803
657.179892	0.351190
657.384909	0.351423
657.589908	0.351341
657.794889	0.351692
657.999852	0.352070
658.204797	0.352154
658.409723	0.352430
658.614631	0.352765
658.819521	0.352875
659.024393	0.353010
659.229246	0.353306
659.434081	0.354028
659.638898	0.354090
659.843697	0.354018
660.048478	0.354280
660.253240	0.354534
660.457984	0.354531
660.662710	0.354706
660.867417	0.354959
661.072107	0.355092
661.276778	0.355161
661.481431	0.355311
661.686066	0.355927
661.890682	0.355988
662.095281	0.356067
662.299861	0.356582
662.504422	0.356823
662.708966	0.357250
662.913491	0.357614
663.117999	0.357762
663.322488	0.358035
663.526958	0.357870
663.731411	0.358322
663.935845	0.358643
664.140261	0.358717
664.344659	0.358864
664.549038	0.358816
664.753400	0.358616
664.957743	0.359058
665.162068	0.359391
665.366375	0.360035
665.570663	0.360382
665.774933	0.360802
665.979185	0.360980
666.183419	0.361326
666.387635	0.361606
666.591832	0.362237
666.796011	0.362319
667.000172	0.362325
667.204315	0.362394
667.408439	0.362510
667.612545	0.362575
667.816634	0.363045
668.020703	0.363219
668.224755	0.363444
668.428788	0.363660
668.632803	0.363844
668.836800	0.364314
669.040779	0.364567
669.244739	0.364932
669.448681	0.365419
669.652605	0.365744
669.856511	0.366162
670.060399	0.366445
670.264268	0.366670
670.468119	0.366683
670.671952	0.367064
670.875767	0.367309
671.079563	0.367536
671.283341	0.367596
671.487101	0.367960
671.690843	0.368384
671.894567	0.368708
672.098272	0.369003
672.301959	0.369737
672.505628	0.369891
672.709278	0.370236
672.912911	0.370229
673.116525	0.370582
673.320121	0.370441
673.523699	0.370412
673.727258	0.370526
673.930799	0.370785
674.134322	0.371021
674.337827	0.371114
674.541314	0.371372
674.744782	0.371839
674.948232	0.371758
675.151664	0.372077
675.355078	0.372454
675.558474	0.372879
675.761851	0.372943
675.965210	0.373158
676.168551	0.373328
676.371873	0.373730
676.575178	0.373895
676.778464	0.374667
676.981732	0.375104
677.184981	0.375263
677.388213	0.375491
677.591426	0.375740
677.794621	0.375795
677.997798	0.376379
678.200956	0.376208
678.404097	0.376748
678.607219	0.376750
678.810323	0.376710
679.013408	0.376931
679.216476	0.377026
679.419525	0.377505
679.622556	0.377891
679.825569	0.377829
680.028563	0.378266
680.231540	0.378149
680.434498	0.378282
680.637438	0.378659
680.840359	0.378995
681.043263	0.379252
681.246148	0.379403
681.449015	0.379591
681.651864	0.380026
681.854694	0.380254
682.057506	0.380505
682.260301	0.380951
682.463076	0.381112
682.665834	0.381279
682.868573	0.381544
683.071295	0.381795
683.273998	0.381949
683.476682	0.382189
683.679349	0.382313
683.881997	0.382442
684.084627	0.382718
684.287239	0.383032
684.489833	0.383379
684.692408	0.383578
684.894965	0.383853
685.097504	0.383941
685.300025	0.384191
685.502527	0.384527
685.705012	0.384811
685.907478	0.384791
686.109925	0.385062
686.312355	0.385118
686.514766	0.385515
686.717159	0.385825
686.919534	0.386325
687.121891	0.386500
687.324230	0.386835
687.526550	0.387016
687.728852	0.387503
687.931136	0.387878
688.133401	0.388450
688.335649	0.388665
688.537878	0.388884
688.740089	0.389251
688.942281	0.389263
689.144456	0.389460
689.346612	0.390080
689.548750	0.389994
689.750870	0.390187
689.952971	0.390187
690.155055	0.390453
690.357120	0.390395
690.559167	0.390208
690.761195	0.390769
690.963206	0.391123
691.165198	0.391229
691.367172	0.391500
691.569128	0.391450
691.771065	0.391697
691.972984	0.391738
692.174885	0.392147
692.376768	0.392722
692.578633	0.392878
692.780479	0.392919
692.982308	0.393221
693.184118	0.393548
693.385909	0.393982
693.587683	0.394008
693.789438	0.394509
693.991175	0.394736
694.192894	0.394806
694.394595	0.394947
694.596277	0.395126
694.797941	0.395124
694.999587	0.395248
695.201215	0.395440
695.402824	0.395549
695.604416	0.395492
695.805989	0.395773
696.007543	0.395758
696.209080	0.396019
696.410598	0.396012
696.612099	0.396184
696.813580	0.396256
697.015044	0.396246
697.216490	0.396597
697.417917	0.396493
697.619326	0.396341
697.820717	0.396439
698.022089	0.396300
698.223444	0.396720
698.424780	0.396900
698.626098	0.396956
698.827397	0.397428
699.028679	0.397377
699.229942	0.397864
699.431187	0.398021
699.632414	0.398403
699.833622	0.398672
700.034813	0.398585
700.235985	0.398733
700.437139	0.398757
700.638274	0.398542
700.839392	0.398859
701.040491	0.399007
701.241572	0.399212
701.442635	0.399207
701.643679	0.399109
701.844706	0.399017
702.045714	0.399122
702.246704	0.399386
702.447675	0.399664
702.648629	0.399838
702.849564	0.399912
703.050481	0.400218
703.251380	0.400330
703.452260	0.400684
703.653122	0.400847
703.853966	0.400647
704.054792	0.400863
704.255600	0.400826
704.456389	0.400542
704.657160	0.400436
704.857913	0.400220
705.058648	0.400251
705.259365	0.400371
705.460063	0.400506
705.660743	0.400853
705.861405	0.400918
706.062048	0.401138
706.262674	0.401323
706.463281	0.401558
706.663870	0.401965
706.864441	0.402327
707.064993	0.402407
707.265527	0.402769
707.466043	0.402763
707.666541	0.402915
707.867021	0.402826
708.067482	0.403003
708.267925	0.402748
708.468350	0.402572
708.668757	0.402322
708.869145	0.402534
709.069516	0.402361
709.269868	0.402407
709.470201	0.402280
709.670517	0.402211
709.870814	0.402224
710.071093	0.402336
710.271354	0.402426
710.471597	0.402611
710.671821	0.402303
710.872028	0.402248
711.072216	0.402086
711.272385	0.402345
711.472537	0.402486
711.672670	0.402494
711.872785	0.402680
712.072882	0.402569
712.272961	0.402328
712.473021	0.402387
712.673063	0.402268
712.873087	0.402269
713.073093	0.401851
713.273081	0.401593
713.473050	0.401300
713.673001	0.401097
713.872934	0.401259
714.072849	0.401342
714.272745	0.401273
714.472623	0.401314
714.672483	0.401433
714.872325	0.401654
715.072148	0.401699
715.271954	0.401832
715.471741	0.401940
715.671509	0.401609
715.871260	0.401622
716.070992	0.401310
716.270707	0.401537
716.470403	0.401322
716.670080	0.401323
716.869740	0.401539
717.069381	0.401381
717.269004	0.401199
717.468609	0.401130
717.668195	0.401189
717.867764	0.401287
718.067314	0.401189
718.266846	0.400857
718.466360	0.400422
718.665855	0.400202
718.865332	0.400058
719.064791	0.399863
719.264232	0.399934
719.463655	0.399772
719.663059	0.399807
719.862445	0.399493
720.061813	0.399711
720.261163	0.399847
720.460494	0.399604
720.659807	0.399589
720.859102	0.399739
721.058379	0.399687
721.257638	0.399360
721.456878	0.399105
721.656100	0.399083
721.855304	0.398975
722.054490	0.398866
722.253657	0.398870
722.452806	0.399004
722.651937	0.398726
722.851050	0.398528
723.050145	0.398450
723.249221	0.398471
723.448279	0.398117
723.647319	0.397841
723.846340	0.397276
724.045344	0.396949
724.244329	0.396335
724.443296	0.396087
724.642245	0.395931
724.841175	0.395934
725.040088	0.395979
725.238982	0.396028
725.437857	0.395952
725.636715	0.396122
725.835554	0.396013
726.034376	0.396088
726.233179	0.396037
726.431963	0.396033
726.630730	0.395998
726.829478	0.395832
727.028208	0.395488
727.226920	0.395464
727.425614	0.395262
727.624289	0.395288
727.822946	0.395331
728.021585	0.395355
728.220206	0.395030
728.418808	0.394497
728.617392	0.394285
728.815958	0.394183
729.014506	0.393976
729.213036	0.393901
729.411547	0.393661
729.610040	0.393395
729.808515	0.392988
730.006972	0.393095
730.205410	0.392925
730.403831	0.392444
730.602233	0.392344
730.800616	0.391999
730.998982	0.391804
731.197329	0.391752
731.395658	0.391373
731.593969	0.391373
731.792262	0.391065
731.990536	0.390965
732.188793	0.390611
732.387031	0.390429
732.585250	0.390465
732.783452	0.390241
732.981635	0.389748
733.179800	0.389738
733.377947	0.388958
733.576076	0.388639
733.774186	0.388239
733.972278	0.388392
734.170352	0.388151
734.368408	0.387710
734.566446	0.387541
734.764465	0.387192
734.962466	0.386928
735.160449	0.386988
735.358413	0.386618
735.556360	0.386538
735.754288	0.386196
735.952198	0.385785
736.150090	0.385680
736.347963	0.385202
736.545818	0.385036
736.743655	0.384582
736.941474	0.384384
737.139275	0.384202
737.337057	0.383603
737.534821	0.383315
737.732567	0.382986
737.930295	0.382668
738.128005	0.382462
738.325696	0.382218
738.523369	0.382257
738.721024	0.381891
738.918660	0.381446
739.116279	0.381451
739.313879	0.381174
739.511461	0.381060
739.709024	0.380886
739.906570	0.380554
740.104097	0.380481
740.301606	0.380002
740.499097	0.380110
740.696569	0.380051
740.894024	0.380099
741.091460	0.379904
741.288878	0.379644
741.486277	0.379129
741.683659	0.379144
741.881022	0.378862
742.078367	0.378757
742.275694	0.378288
742.473002	0.378188
742.670293	0.377587
742.867565	0.377552
743.064819	0.377632
743.262054	0.377602
743.459272	0.377130
743.656471	0.376968
743.853652	0.376791
744.050815	0.376553
744.247959	0.375919
744.445085	0.375895
744.642194	0.375370
744.839283	0.374824
745.036355	0.374678
745.233408	0.374492
745.430444	0.374362
745.627461	0.374298
745.824459	0.373956
746.021440	0.373991
746.218402	0.373633
746.415346	0.373145
746.612272	0.373039
746.809180	0.372626
747.006069	0.372321
747.202940	0.371795
747.399793	0.371303
747.596628	0.371005
747.793444	0.370629
747.990243	0.370686
748.187023	0.370701
748.383784	0.370583
748.580528	0.370373
748.777253	0.370154
748.973960	0.370008
749.170649	0.369719
749.367320	0.369470
749.563973	0.369302
749.760607	0.368951
749.957223	0.368675
750.153821	0.368175
750.350400	0.367981
750.546962	0.367720
750.743505	0.367278
750.940030	0.366990
751.136536	0.366835
751.333025	0.366670
751.529495	0.366277
751.725947	0.366207
751.922381	0.366228
752.118796	0.365925
752.315194	0.365787
752.511573	0.365563
752.707934	0.365430
752.904276	0.365324
753.100601	0.365139
753.296907	0.365009
753.493195	0.364469
753.689465	0.363994
753.885716	0.364281
754.081949	0.364309
754.278164	0.364118
754.474361	0.364061
754.670540	0.363802
754.866700	0.363554
755.062843	0.363318
755.258967	0.363339
755.455072	0.362927
755.651160	0.362302
755.847229	0.361799
756.043280	0.361750
756.239313	0.361215
756.435328	0.361262
756.631324	0.360776
756.827302	0.360317
757.023262	0.360185
757.219204	0.360514
757.415127	0.360548
757.611033	0.360399
757.806920	0.360306
758.002788	0.360125
758.198639	0.359610
758.394471	0.359447
758.590286	0.359494
758.786081	0.359210
758.981859	0.358985
759.177619	0.358596
759.373360	0.358721
759.569083	0.358588
759.764788	0.358711
759.960474	0.358795
760.156143	0.358870
760.351793	0.358543
760.547425	0.358318
760.743038	0.358022
760.938634	0.357814
761.134211	0.357412
761.329770	0.356965
761.525311	0.356715
761.720833	0.356510
761.916338	0.356290
762.111824	0.356127
762.307292	0.355962
762.502741	0.355948
762.698173	0.355717
762.893586	0.355690
763.088981	0.355723
763.284358	0.355369
763.479716	0.355237
763.675057	0.355019
763.870379	0.354891
764.065683	0.354895
764.260968	0.354415
764.456236	0.354295
764.651485	0.353875
764.846716	0.353387
765.041929	0.353499
765.237123	0.352960
765.432299	0.352688
765.627457	0.352574
765.822597	0.352358
766.017719	0.352101
766.212822	0.351640
766.407907	0.351567
766.602974	0.351821
766.798023	0.351581
766.993054	0.351401
767.188066	0.351179
767.383060	0.351338
767.578036	0.351139
767.772993	0.351143
767.967933	0.351115
768.162854	0.350928
768.357757	0.350619
768.552642	0.350118
768.747508	0.350054
768.942356	0.350035
769.137186	0.349858
769.331998	0.349753
769.526792	0.349652
769.721567	0.349815
769.916324	0.350040
770.111063	0.349959
770.305784	0.350061
770.500486	0.350071
770.695171	0.350145
770.889837	0.349768
771.084484	0.349642
771.279114	0.349439
771.473725	0.349393
771.668318	0.349016
771.862893	0.348698
772.057450	0.348512
772.251988	0.348473
772.446509	0.348320
772.641011	0.348399
772.835494	0.348182
773.029960	0.348217
773.224407	0.347762
773.418836	0.347790
773.613247	0.348074
773.807640	0.348098
774.002014	0.348272
774.196370	0.348131
774.390708	0.347977
774.585028	0.348042
774.779330	0.348310
774.973613	0.348323
775.167878	0.348255
775.362125	0.347872
775.556354	0.347491
775.750564	0.347088
775.944756	0.347294
776.138930	0.347135
776.333086	0.346938
776.527223	0.346464
776.721343	0.346581
776.915444	0.346282
777.109526	0.346316
777.303591	0.346714
777.497637	0.346696
777.691666	0.346581
777.885676	0.346816
778.079667	0.347179
778.273641	0.347311
778.467596	0.347390
778.661533	0.347685
778.855452	0.347993
779.049352	0.347933
779.243235	0.348178
779.437099	0.347910
779.630945	0.348031
779.824773	0.347954
780.018582	0.348018
780.212373	0.348301
780.406146	0.348086
780.599901	0.347746
780.793638	0.347555
780.987356	0.347707
781.181056	0.347764
781.374738	0.347590
781.568402	0.347562
781.762047	0.347588
781.955674	0.347420
782.149283	0.347733
782.342874	0.347828
782.536447	0.348280
782.730001	0.348058
782.923537	0.348220
783.117055	0.348254
783.310555	0.348088
783.504036	0.348096
783.697499	0.348126
783.890944	0.348233
784.084371	0.348449
784.277780	0.348216
784.471170	0.348129
784.664542	0.348399
784.857896	0.348432
785.051231	0.348397
785.244549	0.348770
785.437848	0.348537
785.631129	0.348306
785.824392	0.348480
786.017636	0.348688
786.210863	0.348727
786.404071	0.348301
786.597260	0.348300
786.790432	0.348635
786.983585	0.348495
787.176721	0.348957
787.369838	0.349331
787.562936	0.349323
787.756017	0.349440
787.949079	0.349507
788.142123	0.349651
788.335149	0.349937
788.528156	0.350027
788.721146	0.349854
788.914117	0.349722
789.107070	0.349995
789.300005	0.349911
789.492921	0.349745
789.685819	0.350082
789.878699	0.350553
790.071561	0.350653
790.264405	0.350934
790.457230	0.351327
790.650037	0.351383
790.842826	0.351236
791.035597	0.351653
791.228349	0.351848
791.421084	0.351902
791.613800	0.352021
791.806497	0.352049
791.999177	0.351867
792.191838	0.351830
792.384481	0.352115
792.577106	0.352211
792.769713	0.352196
792.962301	0.352536
793.154871	0.352820
793.347423	0.352744
793.539957	0.352709
793.732473	0.353250
793.924970	0.353480
794.117449	0.353379
794.309910	0.353391
794.502353	0.353696
794.694777	0.353758
794.887183	0.353921
795.079571	0.354230
795.271941	0.354718
795.464293	0.355040
795.656626	0.355295
795.848941	0.355622
796.041238	0.356141
796.233516	0.356254
796.425777	0.356705
796.618019	0.356776
796.810243	0.357055
797.002449	0.357278
797.194636	0.357176
797.386805	0.356891
797.578956	0.357462
797.771089	0.357572
797.963204	0.357939
798.155300	0.357962
798.347378	0.358238
798.539438	0.358382
798.731480	0.358503
798.923503	0.358706
799.115509	0.359525
799.307496	0.359506
799.499465	0.359560
799.691415	0.359391
799.883348	0.359717
800.075262	0.359954
800.267158	0.360092
800.459035	0.360449
800.650895	0.360673
800.842736	0.360944
801.034559	0.361156
801.226364	0.361541
801.418150	0.362181
801.609919	0.362284
801.801669	0.362690
801.993401	0.362936
802.185114	0.362949
802.376810	0.363172
802.568487	0.363420
802.760146	0.363788
802.951787	0.363924
803.143409	0.363965
803.335014	0.364400
803.526600	0.364537
803.718168	0.365054
803.909717	0.365351
804.101249	0.365693
804.292762	0.366006
804.484257	0.366300
804.675734	0.366394
804.867192	0.366689
805.058632	0.366839
805.250054	0.367022
805.441458	0.367297
805.632844	0.367688
805.824211	0.367785
806.015561	0.367962
806.206891	0.368436
806.398204	0.369120
806.589499	0.369375
806.780775	0.369729
806.972033	0.370070
807.163273	0.370372
807.354495	0.370723
807.545698	0.371121
807.736883	0.371364
807.928050	0.371496
808.119199	0.371836
808.310329	0.372276
808.501441	0.372854
808.692535	0.373377
808.883611	0.373592
809.074669	0.373922
809.265708	0.374432
809.456729	0.374933
809.647732	0.375382
809.838717	0.375659
810.029683	0.376023
810.220632	0.376422
810.411562	0.376837
810.602474	0.377326
810.793367	0.377580
810.984242	0.377775
811.175100	0.378245
811.365938	0.378671
811.556759	0.378956
811.747562	0.379154
811.938346	0.379268
812.129112	0.379522
812.319860	0.379933
812.510589	0.380190
812.701300	0.380589
812.891994	0.380798
813.082668	0.380868
813.273325	0.381141
813.463964	0.381522
813.654584	0.381823
813.845186	0.382303
814.035769	0.382654
814.226335	0.383367
814.416882	0.384003
814.607411	0.384432
814.797922	0.385223
814.988415	0.385691
815.178889	0.386105
815.369345	0.386448
815.559783	0.386676
815.750203	0.386805
815.940605	0.387192
816.130988	0.387491
816.321353	0.387766
816.511700	0.387867
816.702028	0.388697
816.892339	0.389641
817.082631	0.390488
817.272905	0.390996
817.463161	0.391678
817.653398	0.392041
817.843617	0.392546
818.033819	0.393182
818.224001	0.393548
818.414166	0.393715
818.604312	0.393832
818.794440	0.394363
818.984550	0.395036
819.174642	0.395388
819.364716	0.396124
819.554771	0.396813
819.744808	0.397357
819.934827	0.398084
820.124827	0.398310
820.314810	0.398803
820.504774	0.399117
820.694720	0.399565
820.884647	0.400053
821.074557	0.400186
821.264448	0.400596
821.454321	0.400760
821.644176	0.401349
821.834012	0.402233
822.023831	0.402685
822.213631	0.402886
822.403413	0.403195
822.593176	0.403795
822.782922	0.404013
822.972649	0.404403
823.162358	0.405176
823.352049	0.405053
823.541721	0.405204
823.731376	0.405816
823.921012	0.406133
824.110629	0.406488
824.300229	0.406769
824.489811	0.407462
824.679374	0.407836
824.868919	0.408275
825.058445	0.409087
825.247954	0.409694
825.437444	0.409859
825.626916	0.410692
825.816370	0.411247
826.005806	0.411910
826.195223	0.412447
826.384622	0.413017
826.574003	0.413457
826.763366	0.413992
826.952711	0.414367
827.142037	0.415024
827.331345	0.415370
827.520635	0.415873
827.709906	0.416479
827.899160	0.416958
828.088395	0.417024
828.277612	0.417569
828.466810	0.418245
828.655991	0.418665
828.845153	0.419293
829.034297	0.420088
829.223423	0.420555
829.412531	0.421181
829.601620	0.421821
829.790691	0.422602
829.979744	0.423130
830.168779	0.423626
830.357795	0.424291
830.546793	0.424840
830.735773	0.425149
830.924735	0.425685
831.113679	0.426226
831.302604	0.426684
831.491511	0.427277
831.680400	0.427577
831.869271	0.428233
832.058123	0.428853
832.246957	0.429311
832.435773	0.429837
832.624571	0.430366
832.813351	0.430679
833.002112	0.431583
833.190855	0.431734
833.379580	0.432833
833.568287	0.433080
833.756975	0.433497
833.945645	0.433701
834.134297	0.434114
834.322931	0.434895
834.511547	0.435542
834.700144	0.435501
834.888723	0.436549
835.077284	0.436754
835.265826	0.437384
835.454351	0.437970
835.642857	0.438557
835.831345	0.439391
836.019815	0.439624
836.208266	0.439793
836.396699	0.440456
836.585114	0.440930
836.773511	0.441090
836.961890	0.441611
837.150250	0.442130
837.338592	0.442956
837.526916	0.443336
837.715222	0.443758
837.903510	0.444365
838.091779	0.444968
838.280030	0.445045
838.468263	0.445892
838.656477	0.446738
838.844674	0.447606
839.032852	0.448036
839.221012	0.448460
839.409153	0.449350
839.597277	0.450023
839.785382	0.450846
839.973469	0.451855
840.161538	0.452313
840.349589	0.452644
840.537621	0.453056
840.725635	0.453642
840.913631	0.454484
841.101609	0.455149
841.289568	0.455598
841.477509	0.456297
841.665432	0.456881
841.853337	0.457740
842.041224	0.458455
842.229092	0.458995
842.416942	0.459588
842.604774	0.460431
842.792588	0.460646
842.980383	0.461319
843.168160	0.461786
843.355919	0.462543
843.543660	0.463078
843.731382	0.463633
843.919087	0.464588
844.106773	0.465582
844.294441	0.465929
844.482090	0.466437
844.669722	0.467240
844.857335	0.467787
845.044930	0.467842
845.232507	0.468128
845.420065	0.468713
845.607605	0.468962
845.795127	0.469014
845.982631	0.469801
846.170117	0.470759
846.357584	0.471467
846.545033	0.471952
846.732464	0.473052
846.919877	0.473662
847.107272	0.474227
847.294648	0.474789
847.482006	0.475790
847.669346	0.476025
847.856667	0.476827
848.043971	0.477348
848.231256	0.478443
848.418523	0.478514
848.605771	0.479129
848.793002	0.479643
848.980214	0.480010
849.167408	0.480387
849.354584	0.481241
849.541742	0.481632
849.728881	0.482157
849.916002	0.482192
850.103105	0.483061
850.290190	0.483778
850.477256	0.484057
850.664304	0.484796
850.851334	0.485415
851.038346	0.485845
851.225340	0.486350
851.412315	0.487043
851.599272	0.487754
851.786211	0.488405
851.973132	0.489317
852.160034	0.489918
852.346918	0.490522
852.533784	0.490901
852.720632	0.491624
852.907462	0.492704
853.094273	0.492959
853.281066	0.493425
853.467841	0.493937
853.654598	0.494273
853.841336	0.495095
854.028056	0.495845
854.214758	0.496219
854.401442	0.496036
854.588107	0.495931
854.774755	0.496531
854.961384	0.497022
855.147995	0.497784
855.334587	0.498209
855.521162	0.498403
855.707718	0.498899
855.894256	0.499636
856.080775	0.500905
856.267277	0.501568
856.453760	0.502503
856.640225	0.503271
856.826672	0.503660
857.013101	0.504356
857.199511	0.505318
857.385903	0.506014
857.572277	0.506541
857.758633	0.506949
857.944970	0.507613
858.131290	0.508301
858.317591	0.508417
858.503873	0.508859
858.690138	0.509259
858.876384	0.509896
859.062612	0.510042
859.248822	0.510704
859.435014	0.511023
859.621188	0.511351
859.807343	0.511018
859.993480	0.511978
860.179599	0.512602
860.365699	0.513025
860.551781	0.513348
860.737846	0.513795
860.923891	0.514505
861.109919	0.514888
861.295929	0.515248
861.481920	0.515902
861.667893	0.516482
861.853848	0.517389
862.039784	0.518078
862.225702	0.518008
862.411603	0.519361
862.597484	0.520103
862.783348	0.521094
862.969193	0.521601
863.155021	0.522475
863.340830	0.522540
863.526620	0.522503
863.712393	0.522856
863.898147	0.523648
864.083883	0.523647
864.269601	0.523864
864.455301	0.523760
864.640982	0.524654
864.826645	0.524912
865.012290	0.525813
865.197917	0.526258
865.383526	0.526677
865.569116	0.526942
865.754688	0.527273
865.940242	0.527130
866.125777	0.528094
866.311295	0.528373
866.496794	0.529056
866.682275	0.529134
866.867737	0.529647
867.053182	0.530166
867.238608	0.530774
867.424016	0.530762
867.609406	0.531432
867.794778	0.531994
867.980131	0.532267
868.165466	0.532163
868.350783	0.532455
868.536082	0.532588
868.721362	0.532604
868.906625	0.533667
869.091869	0.534306
869.277094	0.534771
869.462302	0.534552
869.647491	0.535001
869.832662	0.535169
870.017815	0.535758
870.202950	0.536679
870.388066	0.537256
870.573165	0.537277
870.758245	0.538220
870.943306	0.538360
871.128350	0.539046
871.313375	0.539231
871.498382	0.540235
871.683371	0.540213
871.868342	0.539969
872.053294	0.540138
872.238229	0.539802
872.423144	0.539216
872.608042	0.539587
872.792922	0.539997
872.977783	0.540582
873.162626	0.540299
873.347451	0.540580
873.532258	0.541410
873.717046	0.541639
873.901816	0.542321
874.086568	0.543125
874.271302	0.543703
874.456017	0.544057
874.640715	0.543960
874.825394	0.545259
875.010055	0.545900
875.194697	0.545797
875.379322	0.546819
875.563928	0.547240
875.748516	0.547507
875.933085	0.547607
876.117637	0.547513
876.302170	0.548061
876.486685	0.548226
876.671182	0.548686
876.855661	0.549318
877.040121	0.548878
877.224563	0.549163
877.408987	0.549409
877.593393	0.549875
877.777780	0.549977
877.962150	0.550391
878.146501	0.550258
878.330833	0.550260
878.515148	0.550277
878.699444	0.551024
878.883722	0.551441
879.067982	0.551847
879.252224	0.551524
879.436447	0.551950
879.620653	0.552148
879.804840	0.552475
879.989008	0.553072
880.173159	0.553219
880.357291	0.552713
880.541405	0.552616
880.725501	0.552267
880.909579	0.552883
881.093638	0.552801
881.277680	0.552828
881.461703	0.552787
881.645707	0.552812
881.829694	0.552872
882.013662	0.553169
882.197612	0.553224
882.381544	0.554193
882.565458	0.554456
882.749353	0.554601
882.933230	0.554390
883.117089	0.554694
883.300930	0.553862
883.484753	0.554340
883.668557	0.554622
883.852343	0.554826
884.036111	0.554554
884.219861	0.554535
884.403592	0.554652
884.587305	0.555022
884.771000	0.554974
884.954677	0.555925
885.138335	0.555663
885.321976	0.555489
885.505598	0.555583
885.689201	0.555482
885.872787	0.555265
886.056354	0.555724
886.239904	0.556078
886.423434	0.555770
886.606947	0.555731
886.790442	0.555957
886.973918	0.556367
887.157376	0.557296
887.340816	0.557664
887.524237	0.557725
887.707641	0.557697
887.891026	0.557462
888.074393	0.557461
888.257741	0.557576
888.441072	0.557293
888.624384	0.556859
888.807678	0.556157
888.990954	0.555717
889.174211	0.555975
889.357451	0.555827
889.540672	0.556467
889.723875	0.556888
889.907059	0.556322
890.090226	0.556398
890.273374	0.556555
890.456504	0.556174
890.639616	0.556134
890.822709	0.556522
891.005785	0.556714
891.188842	0.555896
891.371881	0.555385
891.554901	0.555300
891.737904	0.555097
891.920888	0.555151
892.103854	0.555383
892.286802	0.555574
892.469731	0.554800
892.652643	0.554243
892.835536	0.553766
893.018410	0.554078
893.201267	0.554227
893.384106	0.554408
893.566926	0.554235
893.749728	0.553746
893.932511	0.553400
894.115277	0.553601
894.298024	0.553626
894.480753	0.554084
894.663464	0.553800
894.846157	0.553344
895.028831	0.552948
895.211487	0.552638
895.394125	0.552839
895.576745	0.552726
895.759346	0.552656
895.941930	0.551974
896.124495	0.551576
896.307041	0.550751
896.489570	0.551411
896.672080	0.551011
896.854573	0.551220
897.037046	0.551376
897.219502	0.550638
897.401940	0.550564
897.584359	0.550708
897.766760	0.550836
897.949143	0.551363
898.131507	0.550595
898.313854	0.550472
898.496182	0.550688
898.678492	0.549902
898.860783	0.549795
899.043057	0.548856
899.225312	0.548275
899.407549	0.547874
899.589768	0.547237
899.771968	0.546414
899.954151	0.546007
900.136315	0.544934
900.318461	0.544444
900.500588	0.544086
900.682698	0.543330
900.864789	0.542988
901.046862	0.542288
901.228917	0.542828
901.410953	0.542991
901.592971	0.542679
901.774972	0.542443
901.956953	0.542683
902.138917	0.542644
902.320862	0.543070
902.502790	0.543300
902.684699	0.542590
902.866589	0.541190
903.048462	0.540948
903.230316	0.540676
903.412152	0.539300
903.593970	0.537959
903.775770	0.537314
903.957551	0.536626
904.139314	0.535549
904.321059	0.535387
904.502786	0.535479
904.684494	0.534820
904.866185	0.534195
905.047857	0.534645
905.229510	0.534192
905.411146	0.534540
905.592763	0.533939
905.774363	0.533360
905.955943	0.533015
906.137506	0.532045
906.319051	0.531064
906.500577	0.531239
906.682085	0.530330
906.863575	0.529966
907.045046	0.528975
907.226500	0.528162
907.407935	0.528376
907.589352	0.527993
907.770750	0.527914
907.952131	0.527741
908.133493	0.526446
908.314837	0.526085
908.496163	0.526112
908.677470	0.524906
908.858760	0.524446
909.040031	0.523405
909.221284	0.522344
909.402518	0.521557
909.583735	0.520973
909.764933	0.520867
909.946113	0.520261
910.127275	0.518435
910.308418	0.518358
910.489544	0.518336
910.670651	0.517507
910.851740	0.517083
911.032810	0.516810
911.213863	0.516272
911.394897	0.515045
911.575913	0.514588
911.756911	0.514750
911.937890	0.514294
912.118851	0.512989
912.299794	0.513273
912.480719	0.512363
912.661626	0.510793
912.842514	0.510250
913.023384	0.509518
913.204236	0.508533
913.385070	0.507507
913.565886	0.506764
913.746683	0.506556
913.927462	0.505573
914.108223	0.505542
914.288965	0.504964
914.469690	0.504304
914.650396	0.503823
914.831084	0.502972
915.011754	0.502152
915.192405	0.500997
915.373038	0.499876
915.553653	0.498524
915.734250	0.497670
915.914829	0.497280
916.095389	0.495600
916.275931	0.494706
916.456455	0.494467
916.636961	0.493791
916.817448	0.493084
916.997917	0.492235
917.178368	0.491568
917.358801	0.490273
917.539216	0.489266
917.719612	0.488980
917.899990	0.488427
918.080350	0.487027
918.260692	0.486381
918.441015	0.485111
918.621320	0.484039
918.801607	0.483148
918.981876	0.482585
919.162127	0.481839
919.342359	0.480221
919.522573	0.478399
919.702769	0.477848
919.882947	0.476402
920.063106	0.475576
920.243247	0.475035
920.423370	0.473394
920.603475	0.471693
920.783562	0.470167
920.963630	0.469713
921.143680	0.468925
921.323712	0.467856
921.503725	0.467107
921.683721	0.466133
921.863698	0.464490
922.043657	0.464039
922.223598	0.462821
922.403520	0.461908
922.583424	0.461155
922.763311	0.460271
922.943178	0.459615
923.123028	0.458768
923.302859	0.457553
923.482673	0.456494
923.662467	0.455608
923.842244	0.454631
924.022003	0.453759
924.201743	0.452209
924.381465	0.452176
924.561169	0.451119
924.740854	0.449188
924.920522	0.447867
925.100171	0.447609
925.279802	0.446198
925.459414	0.445725
925.639009	0.444490
925.818585	0.442841
925.998143	0.440542
926.177683	0.437899
926.357205	0.437261
926.536708	0.436804
926.716193	0.435381
926.895660	0.434429
927.075109	0.433196
927.254539	0.431995
927.433951	0.432501
927.613345	0.431229
927.792721	0.431405
927.972079	0.430125
928.151418	0.429150
928.330739	0.427645
928.510042	0.426858
928.689327	0.425252
928.868593	0.424194
929.047841	0.421644
929.227071	0.420321
929.406283	0.419466
929.585476	0.419114
929.764652	0.417430
929.943809	0.416445
930.122948	0.414762
930.302068	0.414350
930.481171	0.413340
930.660255	0.412208
930.839321	0.411715
931.018369	0.409052
931.197398	0.407658
931.376409	0.406108
931.555402	0.405430
931.734377	0.404183
931.913334	0.402086
932.092272	0.400324
932.271192	0.399832
932.450094	0.398152
932.628978	0.397153
932.807844	0.395409
932.986691	0.394003
933.165520	0.392865
933.344331	0.390953
933.523123	0.390080
933.701898	0.388768
933.880654	0.386695
934.059392	0.385462
934.238111	0.384822
934.416813	0.383110
934.595496	0.381372
934.774161	0.378124
934.952808	0.377129
935.131437	0.375620
935.310047	0.373980
935.488639	0.372983
935.667213	0.371344
935.845769	0.369909
936.024306	0.368850
936.202825	0.368411
936.381326	0.368232
936.559809	0.366607
936.738274	0.364314
936.916720	0.363139
937.095148	0.361851
937.273558	0.360170
937.451950	0.358034
937.630323	0.355820
937.808678	0.355060
937.987015	0.352760
938.165334	0.351536
938.343635	0.350134
938.521917	0.348288
938.700181	0.346401
938.878427	0.345047
939.056655	0.343553
939.234864	0.342442
939.413055	0.340526
939.591228	0.339540
939.769383	0.338898
939.947519	0.338157
940.125638	0.336500
940.303738	0.334512
940.481820	0.332994
940.659883	0.331019
940.837929	0.328938
941.015956	0.325659
941.193965	0.324794
941.371955	0.322011
941.549928	0.319625
941.727882	0.318428
941.905818	0.317752
942.083736	0.315070
942.261636	0.313690
942.439517	0.313550
942.617380	0.312034
942.795225	0.309358
942.973052	0.307719
943.150860	0.306106
943.328651	0.305005
943.506423	0.303129
943.684176	0.302478
943.861912	0.300556
944.039629	0.297606
944.217328	0.296100
944.395009	0.295406
944.572672	0.294296
944.750317	0.292559
944.927943	0.290140
945.105551	0.288220
945.283141	0.287113
945.460712	0.286148
945.638265	0.284599
945.815801	0.283998
945.993317	0.280702
946.170816	0.277844
946.348297	0.276537
946.525759	0.275454
946.703203	0.273480
946.880629	0.271905
947.058036	0.270117
947.235425	0.268763
947.412797	0.266448
947.590149	0.266513
947.767484	0.265712
947.944800	0.262821
948.122099	0.260270
948.299379	0.259013
948.476640	0.257469
948.653884	0.255778
948.831109	0.253719
949.008316	0.252507
949.185505	0.250198
949.362676	0.247757
949.539828	0.247055
949.716962	0.245556
949.894078	0.244152
950.071176	0.241759
950.248256	0.240476
950.425317	0.239692
950.602360	0.235985
950.779385	0.232154
950.956391	0.229551
951.133380	0.226621
951.310350	0.225654
951.487302	0.223383
951.664235	0.221878
951.841151	0.220185
952.018048	0.217794
952.194927	0.216899
952.371788	0.217155
952.548631	0.215894
952.725455	0.215142
952.902261	0.213870
953.079049	0.211926
953.255819	0.211005
953.432570	0.208639
953.609303	0.207988
953.786018	0.207720
953.962715	0.206292
954.139394	0.205157
954.316054	0.205754
954.492696	0.202477
954.669320	0.201068
954.845926	0.198891
955.022513	0.198073
955.199083	0.195920
955.375634	0.193500
955.552166	0.191981
955.728681	0.191495
955.905177	0.187692
956.081655	0.186410
956.258115	0.185096
956.434557	0.184682
956.610980	0.183581
956.787385	0.180838
956.963772	0.180790
957.140141	0.179691
957.316492	0.178547
957.492824	0.178102
957.669138	0.177715
957.845434	0.176144
958.021712	0.172630
958.197971	0.171511
958.374212	0.171242
958.550435	0.168703
958.726640	0.168267
958.902826	0.167079
959.078995	0.166843
959.255145	0.165511
959.431277	0.164875
959.607390	0.165368
959.783486	0.163538
959.959563	0.164583
960.135622	0.162899
960.311662	0.161030
960.487685	0.159844
960.663689	0.158931
960.839675	0.158148
961.015643	0.159034
961.191593	0.158626
961.367524	0.156635
961.543437	0.154898
961.719332	0.155173
961.895209	0.154703
962.071067	0.154680
962.246907	0.155699
962.422730	0.154279
962.598533	0.151791
962.774319	0.149908
962.950086	0.150522
963.125835	0.148744
963.301566	0.147327
963.477279	0.146715
963.652973	0.145648
963.828650	0.142871
964.004308	0.141996
964.179947	0.142525
964.355569	0.141400
964.531172	0.143327
964.706757	0.143632
964.882324	0.142899
965.057873	0.142316
965.233403	0.141093
965.408916	0.140114
965.584410	0.140924
965.759885	0.139973
965.935343	0.140990
966.110782	0.137410
966.286203	0.135141
966.461606	0.135999
966.636991	0.134492
966.812357	0.135068
966.987705	0.135808
967.163035	0.134746
967.338347	0.133635
967.513641	0.133439
967.688916	0.134347
967.864173	0.136408
968.039412	0.138837
968.214632	0.139862
968.389835	0.139590
968.565019	0.139153
968.740185	0.139984
968.915333	0.141474
969.090462	0.140568
969.265573	0.141146
969.440667	0.141091
969.615741	0.139171
969.790798	0.139017
969.965836	0.138640
970.140856	0.140023
970.315858	0.140373
970.490842	0.139124
970.665808	0.141093
970.840755	0.140463
971.015684	0.140746
971.190595	0.140956
971.365487	0.139919
971.540362	0.140599
971.715218	0.137466
971.890056	0.136068
972.064875	0.137026
972.239677	0.135863
972.414460	0.136009
972.589225	0.132859
972.763972	0.133848
972.938700	0.135304
973.113411	0.135135
973.288103	0.133803
973.462777	0.135057
973.637432	0.134608
973.812070	0.133563
973.986689	0.135233
974.161290	0.138001
974.335873	0.136567
974.510437	0.134599
974.684984	0.136828
974.859512	0.139875
975.034022	0.138104
975.208513	0.139254
975.382987	0.139241
975.557442	0.137434
975.731879	0.135330
975.906298	0.134584
976.080698	0.136132
976.255080	0.134471
976.429445	0.134643
976.603790	0.136419
976.778118	0.133022
976.952427	0.132744
977.126719	0.131675
977.300992	0.132717
977.475246	0.133540
977.649483	0.133325
977.823701	0.131762
977.997901	0.130824
978.172083	0.131310
978.346247	0.133114
978.520392	0.134600
978.694519	0.135276
978.868628	0.135582
979.042719	0.135782
979.216791	0.137482
979.390845	0.140225
979.564882	0.142837
979.738899	0.142901
979.912899	0.143598
980.086880	0.143267
980.260843	0.143961
980.434788	0.144383
980.608715	0.142194
980.782623	0.141446
980.956514	0.142310
981.130386	0.139503
981.304240	0.137671
981.478075	0.137906
981.651892	0.138620
981.825692	0.139457
981.999472	0.140503
982.173235	0.141757
982.346980	0.140774
982.520706	0.136748
982.694414	0.137964
982.868104	0.138713
983.041775	0.138464
983.215428	0.138461
983.389064	0.135601
983.562680	0.134904
983.736279	0.135763
983.909860	0.138120
984.083422	0.138599
984.256966	0.138268
984.430491	0.137820
984.603999	0.137769
984.777488	0.137861
984.950959	0.138214
985.124412	0.138196
985.297847	0.136788
985.471263	0.135369
985.644661	0.136908
985.818041	0.139781
985.991403	0.140363
986.164747	0.138806
986.338072	0.138445
986.511379	0.140722
986.684668	0.139829
986.857938	0.141237
987.031191	0.140839
987.204425	0.141344
987.377641	0.140035
987.550839	0.140994
987.724018	0.142249
987.897179	0.143455
988.070322	0.142745
988.243447	0.144859
988.416554	0.145409
988.589642	0.144952
988.762712	0.146172
988.935764	0.145227
989.108798	0.145115
989.281813	0.144150
989.454811	0.142953
989.627790	0.142700
989.800751	0.141508
989.973693	0.141688
990.146617	0.142685
990.319524	0.141304
990.492412	0.142310
990.665281	0.142429
990.838133	0.144490
991.010966	0.144536
991.183781	0.144378
991.356578	0.143462
991.529356	0.141439
991.702117	0.140593
991.874859	0.140239
992.047583	0.139817
992.220288	0.140998
992.392976	0.139016
992.565645	0.140355
992.738296	0.141412
992.910929	0.142624
993.083543	0.144011
993.256139	0.144496
993.428718	0.144064
993.601277	0.142979
993.773819	0.141065
993.946342	0.141332
994.118848	0.139942
994.291335	0.139091
994.463803	0.139715
994.636254	0.139433
994.808686	0.139415
994.981100	0.139444
995.153496	0.140713
995.325874	0.143034
995.498233	0.143836
995.670574	0.144038
995.842897	0.145590
996.015202	0.145981
996.187488	0.146788
996.359757	0.147913
996.532007	0.148404
996.704239	0.149033
996.876452	0.147588
997.048648	0.147631
997.220825	0.146421
997.392984	0.145877
997.565124	0.144761
997.737247	0.144537
997.909351	0.144740
998.081437	0.143579
998.253505	0.142194
998.425554	0.142177
998.597586	0.143233
998.769599	0.144687
998.941594	0.144539
999.113571	0.143421
999.285529	0.143620
999.457469	0.142473
999.629391	0.142671
999.801295	0.143505
999.973181	0.143916
1000.145048	0.142332
1000.316897	0.141765
1000.488728	0.140346
1000.660541	0.140250
1000.832335	0.140580
1001.004111	0.140689
1001.175869	0.142235
1001.347609	0.142646
1001.519331	0.141518
1001.691034	0.143317
1001.862719	0.142616
1002.034386	0.143602
1002.206035	0.144307
1002.377665	0.144237
1002.549277	0.143258
1002.720871	0.142644
1002.892447	0.142109
1003.064004	0.142767
1003.235544	0.141386
1003.407065	0.140893
1003.578568	0.142033
1003.750052	0.142896
1003.921519	0.141403
1004.092967	0.142006
1004.264397	0.141847
1004.435809	0.142553
1004.607202	0.143422
1004.778577	0.142682
1004.949934	0.145340
1005.121273	0.143390
1005.292594	0.143699
1005.463896	0.144224
1005.635180	0.145835
1005.806446	0.146417
1005.977694	0.145394
1006.148923	0.145399
1006.320135	0.146931
1006.491328	0.146821
1006.662503	0.147333
1006.833659	0.148079
1007.004798	0.148828
1007.175918	0.147166
1007.347020	0.145174
1007.518103	0.145104
1007.689169	0.143618
1007.860216	0.143397
1008.031245	0.144247
1008.202256	0.145954
1008.373248	0.144600
1008.544223	0.144158
1008.715179	0.146231
1008.886117	0.148109
1009.057036	0.147910
1009.227938	0.148685
1009.398821	0.147295
1009.569686	0.145688
1009.740533	0.144706
1009.911361	0.145653
1010.082172	0.146455
1010.252964	0.145044
1010.423738	0.143678
1010.594493	0.143373
1010.765231	0.142899
1010.935950	0.142965
1011.106651	0.141557
1011.277334	0.142801
1011.447998	0.142045
1011.618645	0.142217
1011.789273	0.142163
1011.959882	0.143924
1012.130474	0.144105
1012.301048	0.143592
1012.471603	0.144601
1012.642140	0.145954
1012.812658	0.145830
1012.983159	0.145466
1013.153641	0.144467
1013.324105	0.143943
1013.494551	0.144768
1013.664979	0.146224
1013.835388	0.147634
1014.005779	0.147774
1014.176152	0.147777
1014.346507	0.147356
1014.516843	0.146883
1014.687162	0.148809
1014.857462	0.149939
1015.027744	0.149896
1015.198007	0.150427
1015.368252	0.149785
1015.538480	0.149929
1015.708689	0.149777
1015.878879	0.149272
1016.049052	0.150408
1016.219206	0.150487
1016.389342	0.151211
1016.559460	0.150956
1016.729559	0.148958
1016.899641	0.149579
1017.069704	0.149351
1017.239749	0.149387
1017.409775	0.149425
1017.579784	0.149306
1017.749774	0.147095
1017.919746	0.146913
1018.089700	0.146028
1018.259635	0.145261
1018.429553	0.145237
1018.599452	0.146129
1018.769333	0.147388
1018.939195	0.148058
1019.109040	0.148614
1019.278866	0.149825
1019.448674	0.149299
1019.618464	0.149458
1019.788235	0.150316
1019.957989	0.152340
1020.127724	0.149248
1020.297441	0.147838
1020.467139	0.147775
1020.636820	0.146853
1020.806482	0.145603
1020.976126	0.146166
1021.145752	0.145600
1021.315359	0.145283
1021.484948	0.143587
1021.654519	0.146005
1021.824072	0.147850
1021.993607	0.147669
1022.163123	0.148804
1022.332621	0.149692
1022.502101	0.149665
1022.671563	0.150774
1022.841007	0.152325
1023.010432	0.151699
1023.179839	0.150997
1023.349228	0.150086
1023.518598	0.150070
1023.687951	0.149186
1023.857285	0.148286
1024.026601	0.148285
1024.195899	0.147458
1024.365178	0.146740
1024.534439	0.146124
1024.703682	0.145962
1024.872907	0.146002
1025.042114	0.145553
1025.211302	0.144835
1025.380472	0.144977
1025.549624	0.144834
1025.718758	0.144615
1025.887873	0.144223
1026.056970	0.145178
1026.226049	0.144830
1026.395110	0.144212
1026.564153	0.143240
1026.733177	0.144935
1026.902183	0.146450
1027.071171	0.146105
1027.240141	0.147105
1027.409092	0.146699
1027.578026	0.147307
1027.746940	0.148273
1027.915837	0.149011
1028.084716	0.149482
1028.253576	0.147701
1028.422418	0.147061
1028.591242	0.145271
1028.760048	0.143482
1028.928835	0.142876
1029.097604	0.139979
1029.266355	0.139674
1029.435088	0.138606
1029.603803	0.138809
1029.772499	0.140293
1029.941177	0.141251
1030.109837	0.142656
1030.278478	0.144071
1030.447102	0.145062
1030.615707	0.146674
1030.784294	0.145437
1030.952863	0.146624
1031.121413	0.146809
1031.289945	0.145689
1031.458460	0.145128
1031.626955	0.145639
1031.795433	0.145516
1031.963892	0.146307
1032.132334	0.147631
1032.300756	0.148790
1032.469161	0.147585
1032.637548	0.146807
1032.805916	0.147747
1032.974266	0.147569
1033.142598	0.147148
1033.310911	0.147591
1033.479207	0.146413
1033.647484	0.146213
1033.815743	0.144696
1033.983983	0.143594
1034.152206	0.144653
1034.320410	0.144990
1034.488596	0.144835
1034.656764	0.144173
1034.824914	0.144301
1034.993045	0.143031
1035.161158	0.141721
1035.329253	0.143442
1035.497330	0.146326
1035.665388	0.146656
1035.833428	0.146596
1036.001450	0.144509
1036.169454	0.146599
1036.337440	0.145920
1036.505407	0.148259
1036.673356	0.149233
1036.841287	0.150303
1037.009200	0.148128
1037.177094	0.146562
1037.344970	0.146578
1037.512828	0.150096
1037.680668	0.146960
1037.848489	0.146601
1038.016293	0.146220
1038.184078	0.145207
1038.351845	0.145915
1038.519593	0.146494
1038.687324	0.147354
1038.855036	0.146224
1039.022730	0.145070
1039.190406	0.147791
1039.358063	0.147949
1039.525702	0.148489
1039.693323	0.148876
1039.860926	0.146805
1040.028511	0.146376
1040.196077	0.147184
1040.363625	0.147632
1040.531155	0.146543
1040.698667	0.144324
1040.866161	0.143936
1041.033636	0.143089
1041.201093	0.142288
1041.368532	0.143785
1041.535952	0.143197
1041.703355	0.141599
1041.870739	0.141834
1042.038105	0.142846
1042.205452	0.143856
1042.372782	0.144107
1042.540093	0.145885
1042.707386	0.146355
1042.874661	0.145831
1043.041918	0.146753
1043.209156	0.148352
1043.376376	0.147812
1043.543578	0.147411
1043.710762	0.145946
1043.877927	0.145651
1044.045074	0.144129
1044.212203	0.144982
1044.379314	0.144798
1044.546407	0.146137
1044.713481	0.145112
1044.880537	0.144801
1045.047575	0.144742
1045.214595	0.146374
1045.381596	0.147041
1045.548579	0.147541
1045.715544	0.146390
1045.882491	0.146158
1046.049420	0.144476
1046.216330	0.145896
1046.383222	0.146750
1046.550096	0.146606
1046.716951	0.146867
1046.883789	0.145832
1047.050608	0.145553
1047.217409	0.146758
1047.384192	0.145959
1047.550956	0.146071
1047.717703	0.144676
1047.884431	0.144472
1048.051140	0.144946
1048.217832	0.145410
1048.384505	0.146607
1048.551161	0.145129
1048.717798	0.143940
1048.884416	0.144462
1049.051017	0.145754
1049.217599	0.146086
1049.384163	0.144925
1049.550709	0.143284
1049.717237	0.141660
1049.883746	0.141720
1050.050237	0.143768
1050.216710	0.144230
1050.383165	0.144998
1050.549601	0.143311
1050.716019	0.144458
1050.882420	0.144149
1051.048801	0.145750
1051.215165	0.146444
1051.381510	0.145403
1051.547837	0.144931
1051.714146	0.145046
1051.880437	0.145134
1052.046709	0.144098
1052.212964	0.142728
1052.379200	0.142510
1052.545417	0.141578
1052.711617	0.142002
1052.877798	0.144197
1053.043961	0.142500
1053.210106	0.142799
1053.376233	0.140747
1053.542341	0.143035
1053.708432	0.144215
1053.874504	0.147146
1054.040557	0.147257
1054.206593	0.144734
1054.372610	0.143100
1054.538609	0.145794
1054.704590	0.145017
1054.870553	0.145304
1055.036497	0.144619
1055.202424	0.143213
1055.368331	0.141500
1055.534221	0.142465
1055.700093	0.143309
1055.865946	0.143152
1056.031781	0.142017
1056.197598	0.142546
1056.363397	0.144928
1056.529177	0.144773
1056.694939	0.145883
1056.860683	0.145959
1057.026409	0.145668
1057.192116	0.145381
1057.357806	0.145817
1057.523477	0.146154
1057.689130	0.145676
1057.854764	0.145243
1058.020381	0.147086
1058.185979	0.147524
1058.351559	0.147652
1058.517120	0.149680
1058.682664	0.150235
1058.848189	0.148856
1059.013696	0.147770
1059.179185	0.148570
1059.344656	0.148103
1059.510108	0.147788
1059.675542	0.145647
1059.840958	0.146861
1060.006356	0.145909
1060.171735	0.146600
1060.337096	0.146670
1060.502439	0.147992
1060.667764	0.147368
1060.833071	0.147429
1060.998359	0.146010
1061.163629	0.146952
1061.328881	0.145165
1061.494115	0.143017
1061.659330	0.142461
1061.824527	0.144147
1061.989706	0.143903
1062.154867	0.145392
1062.320010	0.147197
1062.485134	0.147431
1062.650240	0.147400
1062.815328	0.147553
1062.980398	0.148911
1063.145449	0.148811
1063.310482	0.150518
1063.475497	0.151142
1063.640494	0.151449
1063.805473	0.149501
1063.970433	0.149977
1064.135375	0.149594
1064.300299	0.149834
1064.465204	0.150774
1064.630092	0.150633
1064.794961	0.148962
1064.959812	0.147508
1065.124645	0.148359
1065.289459	0.147257
1065.454256	0.147404
1065.619034	0.147113
1065.783793	0.147633
1065.948535	0.146399
1066.113258	0.148544
1066.277964	0.148569
1066.442651	0.147753
1066.607319	0.144749
1066.771970	0.144866
1066.936602	0.144743
1067.101216	0.146907
1067.265812	0.147386
1067.430389	0.147048
1067.594949	0.146084
1067.759490	0.145207
1067.924013	0.147089
1068.088518	0.148452
1068.253004	0.149579
1068.417472	0.151675
1068.581922	0.149856
1068.746354	0.150402
1068.910768	0.151191
1069.075163	0.151256
1069.239540	0.150834
1069.403899	0.150319
1069.568240	0.150220
1069.732562	0.150192
1069.896866	0.148079
1070.061152	0.148213
1070.225420	0.147254
1070.389670	0.146809
1070.553901	0.145435
1070.718114	0.146135
1070.882309	0.145551
1071.046486	0.144475
1071.210644	0.143627
1071.374784	0.144423
1071.538906	0.144442
1071.703010	0.143755
1071.867096	0.143377
1072.031163	0.145115
1072.195212	0.146240
1072.359243	0.145643
1072.523256	0.144063
1072.687250	0.143254
1072.851226	0.143825
1073.015184	0.143780
1073.179124	0.144757
1073.343045	0.145727
1073.506949	0.144747
1073.670834	0.143550
1073.834701	0.145921
1073.998549	0.146952
1074.162380	0.149356
1074.326192	0.148032
1074.489986	0.149102
1074.653761	0.148733
1074.817519	0.148684
1074.981258	0.151319
1075.144979	0.151363
1075.308682	0.150247
1075.472367	0.151123
1075.636033	0.150114
1075.799681	0.150168
1075.963311	0.148832
1076.126923	0.149167
1076.290516	0.149415
1076.454092	0.147154
1076.617649	0.148275
1076.781187	0.148533
1076.944708	0.147820
1077.108210	0.147108
1077.271695	0.144897
1077.435160	0.145979
1077.598608	0.147885
1077.762038	0.147339
1077.925449	0.145435
1078.088842	0.145497
1078.252217	0.144507
1078.415573	0.145449
1078.578912	0.146407
1078.742232	0.150047
1078.905534	0.151364
1079.068817	0.148294
1079.232083	0.148961
1079.395330	0.150366
1079.558559	0.149137
1079.721770	0.149700
1079.884962	0.149347
1080.048136	0.148932
1080.211293	0.147876
1080.374430	0.144483
1080.537550	0.145403
1080.700651	0.144143
1080.863735	0.144433
1081.026800	0.145097
1081.189846	0.144414
1081.352875	0.146595
1081.515885	0.145907
1081.678877	0.144664
1081.841851	0.147673
1082.004807	0.147197
1082.167744	0.146954
1082.330663	0.147957
1082.493564	0.149254
1082.656447	0.148689
1082.819312	0.147558
1082.982158	0.147145
1083.144986	0.146812
1083.307796	0.145238
1083.470587	0.144924
1083.633361	0.143774
1083.796116	0.142341
1083.958853	0.139912
1084.121571	0.141000
1084.284272	0.141467
1084.446954	0.142802
1084.609618	0.143561
1084.772264	0.143511
1084.934892	0.143157
1085.097501	0.145341
1085.260092	0.144443
1085.422665	0.146664
1085.585220	0.147023
1085.747756	0.145806
1085.910274	0.146606
1086.072774	0.145812
1086.235256	0.145958
1086.397720	0.147972
1086.560165	0.147163
1086.722592	0.148772
1086.885001	0.145095
1087.047392	0.144080
1087.209764	0.143016
1087.372119	0.141465
1087.534455	0.142691
1087.696772	0.140842
1087.859072	0.140646
1088.021353	0.139170
1088.183616	0.138957
1088.345861	0.143154
1088.508088	0.144435
1088.670296	0.147086
1088.832486	0.148569
1088.994658	0.149627
1089.156812	0.152009
1089.318948	0.148825
1089.481065	0.151112
1089.643164	0.151440
1089.805245	0.151345
1089.967308	0.150889
1090.129352	0.150791
1090.291378	0.150877
1090.453386	0.149105
1090.615376	0.149825
1090.777347	0.151493
1090.939301	0.150678
1091.101236	0.148697
1091.263153	0.147729
1091.425051	0.147187
1091.586932	0.146737
1091.748794	0.148342
1091.910638	0.147559
1092.072463	0.145646
1092.234271	0.147387
1092.396060	0.149971
1092.557831	0.151531
1092.719584	0.150820
1092.881319	0.150687
1093.043035	0.149424
1093.204733	0.146488
1093.366413	0.148457
1093.528075	0.150294
1093.689718	0.148309
1093.851343	0.147988
1094.012950	0.147995
1094.174539	0.145964
1094.336110	0.146317
1094.497662	0.147981
1094.659196	0.146400
1094.820712	0.146194
1094.982210	0.145918
1095.143689	0.147265
1095.305151	0.145971
1095.466594	0.148365
1095.628018	0.150587
1095.789425	0.150220
1095.950813	0.147256
1096.112183	0.147482
1096.273535	0.146656
1096.434869	0.145796
1096.596184	0.145880
1096.757482	0.145203
1096.918761	0.143449
1097.080021	0.143279
1097.241264	0.143482
1097.402488	0.143232
1097.563694	0.144973
1097.724882	0.146062
1097.886052	0.146293
1098.047203	0.146883
1098.208336	0.146924
1098.369451	0.147323
1098.530548	0.145387
1098.691627	0.147250
1098.852687	0.148999
1099.013729	0.150874
1099.174753	0.148462
1099.335758	0.147658
1099.496746	0.148694
1099.657715	0.151526
1099.818666	0.154024
1099.979599	0.155643
1100.140513	0.153396
1100.301409	0.153459
1100.462287	0.151677
1100.623147	0.153317
1100.783989	0.152613
1100.944812	0.152016
1101.105617	0.149470
1101.266404	0.145875
1101.427173	0.145300
1101.587923	0.145494
1101.748656	0.147027
1101.909370	0.148005
1102.070066	0.147360
1102.230743	0.148968
1102.391403	0.145674
1102.552044	0.145382
1102.712667	0.145661
1102.873271	0.144974
1103.033858	0.144246
1103.194426	0.142385
1103.354976	0.141799
1103.515508	0.140424
1103.676021	0.140558
1103.836517	0.141080
1103.996994	0.141245
1104.157453	0.140263
1104.317893	0.140056
1104.478316	0.142002
1104.638720	0.143271
1104.799106	0.143266
1104.959474	0.143454
1105.119823	0.140944
1105.280155	0.142535
1105.440468	0.144121
1105.600763	0.144902
1105.761039	0.143736
1105.921298	0.145021
1106.081538	0.143235
1106.241760	0.139021
1106.401964	0.142193
1106.562149	0.145926
1106.722316	0.145284
1106.882465	0.144917
1107.042596	0.144580
1107.202709	0.148328
1107.362803	0.147391
1107.522879	0.146412
1107.682937	0.148842
1107.842977	0.146762
1108.002999	0.146276
1108.163002	0.146046
1108.322987	0.144733
1108.482954	0.146014
1108.642902	0.146278
1108.802833	0.145866
1108.962745	0.149917
1109.122639	0.151898
1109.282515	0.152197
1109.442372	0.152054
1109.602211	0.152191
1109.762032	0.151306
1109.921835	0.151895
1110.081620	0.151087
1110.241386	0.148166
1110.401134	0.148226
1110.560864	0.146640
1110.720576	0.147819
1110.880269	0.147266
1111.039945	0.146894
1111.199602	0.149968
1111.359240	0.149281
1111.518861	0.148907
1111.678463	0.152640
1111.838047	0.153428
1111.997613	0.153423
1112.157161	0.148790
1112.316690	0.148270
1112.476202	0.147500
1112.635695	0.143528
1112.795169	0.144336
1112.954626	0.146785
1113.114064	0.145971
1113.273484	0.143039
1113.432886	0.144630
1113.592270	0.145686
1113.751635	0.145061
1113.910983	0.147763
1114.070312	0.146905
1114.229622	0.142810
1114.388915	0.137646
1114.548189	0.139186
1114.707445	0.140375
1114.866683	0.139945
1115.025903	0.140330
1115.185104	0.142363
1115.344287	0.140920
1115.503452	0.141408
1115.662599	0.143517
1115.821727	0.143816
1115.980838	0.139656
1116.139930	0.138292
1116.299004	0.138351
1116.458059	0.139222
1116.617097	0.138177
1116.776116	0.140250
1116.935117	0.145081
1117.094099	0.145151
1117.253064	0.148512
1117.412010	0.147829
1117.570938	0.144854
1117.729848	0.146283
1117.888740	0.146823
1118.047613	0.148612
1118.206468	0.146613
1118.365305	0.146745
1118.524124	0.146123
1118.682924	0.144729
1118.841707	0.147299
1119.000471	0.150944
1119.159216	0.145605
1119.317944	0.146211
1119.476653	0.142562
1119.635344	0.142583
1119.794017	0.137584
1119.952672	0.139284
1120.111308	0.136786
1120.269927	0.137993
1120.428527	0.136684
1120.587108	0.139145
1120.745672	0.135980
1120.904217	0.134991
1121.062744	0.136334
1121.221253	0.135661
1121.379744	0.134402
1121.538216	0.137343
1121.696671	0.134584
1121.855107	0.136155
1122.013524	0.137096
1122.171924	0.137148
1122.330305	0.136512
1122.488668	0.135308
1122.647013	0.137196
1122.805340	0.138415
1122.963648	0.137214
1123.121938	0.138143
1123.280210	0.136671
1123.438464	0.137429
1123.596700	0.142687
1123.754917	0.147023
1123.913116	0.147726
1124.071297	0.149143
1124.229459	0.146224
1124.387604	0.144847
1124.545730	0.144665
1124.703838	0.143707
1124.861928	0.144664
1125.019999	0.139617
1125.178052	0.136476
1125.336088	0.135549
1125.494104	0.135316
1125.652103	0.136983
1125.810083	0.140062
1125.968045	0.141335
1126.125989	0.140122
1126.283915	0.136931
1126.441823	0.139693
1126.599712	0.138921
1126.757583	0.138451
1126.915436	0.136688
1127.073270	0.137010
1127.231087	0.134852
1127.388885	0.134982
1127.546665	0.136457
1127.704426	0.138341
1127.862170	0.136358
1128.019895	0.140173
1128.177602	0.139613
1128.335291	0.140086
1128.492961	0.139733
1128.650614	0.140326
1128.808248	0.140721
1128.965864	0.141935
1129.123461	0.142255
1129.281041	0.144078
1129.438602	0.139452
1129.596145	0.140919
1129.753670	0.139815
1129.911176	0.137668
1130.068665	0.135558
1130.226135	0.135892
1130.383587	0.134360
1130.541020	0.131895
1130.698436	0.129803
1130.855833	0.131377
1131.013212	0.129454
1131.170573	0.132021
1131.327915	0.135037
1131.485239	0.138898
1131.642545	0.136148
1131.799833	0.139279
1131.957103	0.141204
1132.114354	0.145504
1132.271588	0.144232
1132.428803	0.143758
1132.585999	0.143894
1132.743178	0.141746
1132.900338	0.141511
1133.057480	0.137994
1133.214604	0.132646
1133.371710	0.133421
1133.528797	0.128593
1133.685866	0.129220
1133.842917	0.125262
1133.999950	0.121526
1134.156964	0.123001
1134.313960	0.122023
1134.470938	0.126579
1134.627898	0.128813
1134.784840	0.131120
1134.941763	0.131173
1135.098668	0.133747
1135.255555	0.139317
1135.412424	0.140670
1135.569274	0.139459
1135.726107	0.141830
1135.882921	0.137705
1136.039716	0.137718
1136.196494	0.131832
1136.353253	0.134724
1136.509995	0.132292
1136.666717	0.130646
1136.823422	0.131896
1136.980109	0.132224
1137.136777	0.130178
1137.293427	0.129378
1137.450059	0.127909
1137.606672	0.132209
1137.763267	0.128509
1137.919844	0.130673
1138.076403	0.127671
1138.232944	0.124449
1138.389466	0.124231
1138.545971	0.122720
1138.702457	0.127381
1138.858924	0.124722
1139.015374	0.119584
1139.171805	0.122359
1139.328218	0.120883
1139.484613	0.122560
1139.640990	0.124606
1139.797348	0.125924
1139.953688	0.123613
1140.110010	0.120808
1140.266314	0.123351
1140.422600	0.123894
1140.578867	0.125376
1140.735116	0.123991
1140.891347	0.127796
1141.047559	0.129809
1141.203754	0.129124
1141.359930	0.130806
1141.516088	0.130941
1141.672228	0.134283
1141.828349	0.134644
1141.984452	0.133348
1142.140537	0.136587
1142.296604	0.134232
1142.452653	0.134878
1142.608683	0.131971
1142.764695	0.132205
1142.920689	0.133092
1143.076665	0.133715
1143.232622	0.129326
1143.388562	0.130110
1143.544483	0.127545
1143.700385	0.126696
1143.856270	0.125229
1144.012136	0.127445
1144.167985	0.125544
1144.323814	0.125183
1144.479626	0.124747
1144.635420	0.132086
1144.791195	0.126555
1144.946952	0.127932
1145.102691	0.129878
1145.258411	0.127302
1145.414113	0.123816
1145.569798	0.125483
1145.725463	0.122251
1145.881111	0.119835
1146.036741	0.115813
1146.192352	0.120190
1146.347945	0.124360
1146.503519	0.123801
1146.659076	0.123940
1146.814614	0.126110
1146.970134	0.125199
1147.125636	0.126412
1147.281120	0.127345
1147.436585	0.127525
1147.592032	0.127401
1147.747461	0.122193
1147.902872	0.120354
1148.058265	0.123223
1148.213639	0.121660
1148.368995	0.122569
1148.524333	0.124018
1148.679653	0.123784
1148.834954	0.125122
1148.990237	0.125742
1149.145502	0.122629
1149.300749	0.123764
1149.455977	0.119141
1149.611188	0.123403
1149.766380	0.123167
1149.921553	0.122918
1150.076709	0.120858
1150.231846	0.118246
1150.386966	0.117365
1150.542066	0.118025
1150.697149	0.114789
1150.852214	0.112526
1151.007260	0.111005
1151.162288	0.113520
1151.317298	0.115711
1151.472289	0.114954
1151.627263	0.114685
1151.782218	0.111836
1151.937155	0.112982
1152.092073	0.113652
1152.246974	0.113526
1152.401856	0.113310
1152.556720	0.109914
1152.711566	0.107561
1152.866393	0.106735
1153.021203	0.104881
1153.175994	0.105425
1153.330767	0.103674
1153.485521	0.103693
1153.640258	0.109659
1153.794976	0.107802
1153.949676	0.106597
1154.104358	0.113606
1154.259021	0.114227
1154.413667	0.117308
1154.568294	0.116433
1154.722903	0.118225
1154.877493	0.119929
1155.032066	0.115801
1155.186620	0.114052
1155.341156	0.113763
1155.495674	0.107266
1155.650173	0.105918
1155.804654	0.109509
1155.959118	0.107891
1156.113562	0.112022
1156.267989	0.112626
1156.422397	0.112043
1156.576788	0.114286
1156.731160	0.117854
1156.885513	0.117150
1157.039849	0.119547
1157.194166	0.119720
1157.348465	0.120120
1157.502746	0.115692
1157.657009	0.110845
1157.811253	0.113351
1157.965479	0.112602
1158.119687	0.107857
1158.273877	0.104964
1158.428048	0.107680
1158.582201	0.106971
1158.736337	0.108770
1158.890453	0.107033
1159.044552	0.107704
1159.198632	0.107609
1159.352694	0.108899
1159.506738	0.109268
1159.660764	0.110749
1159.814771	0.107184
1159.968761	0.102489
1160.122732	0.101747
1160.276685	0.100525
1160.430619	0.102314
1160.584535	0.100111
1160.738434	0.098717
1160.892313	0.101891
1161.046175	0.102289
1161.200019	0.102688
1161.353844	0.101912
1161.507651	0.105591
1161.661440	0.109755
1161.815210	0.111414
1161.968962	0.112628
1162.122697	0.114929
1162.276412	0.110773
1162.430110	0.115771
1162.583789	0.112706
1162.737451	0.113785
1162.891094	0.108643
1163.044718	0.106243
1163.198325	0.101712
1163.351913	0.097394
1163.505483	0.095119
1163.659035	0.098428
1163.812569	0.094779
1163.966084	0.097066
1164.119581	0.097555
1164.273060	0.096651
1164.426521	0.096820
1164.579964	0.099856
1164.733388	0.102806
1164.886794	0.101977
1165.040182	0.097697
1165.193551	0.095465
1165.346903	0.096032
1165.500236	0.095639
1165.653551	0.099874
1165.806848	0.096530
1165.960126	0.094481
1166.113386	0.090508
1166.266628	0.087391
1166.419852	0.090074
1166.573058	0.088196
1166.726245	0.089552
1166.879414	0.089611
1167.032565	0.084342
1167.185698	0.083403
1167.338812	0.088123
1167.491909	0.089081
1167.644987	0.094380
1167.798046	0.093818
1167.951088	0.099305
1168.104111	0.097593
1168.257117	0.098923
1168.410103	0.096084
1168.563072	0.097531
1168.716023	0.095009
1168.868955	0.100824
1169.021869	0.098849
1169.174765	0.101742
1169.327642	0.100189
1169.480501	0.100848
1169.633343	0.100821
1169.786165	0.104821
1169.938970	0.106435
1170.091757	0.103767
1170.244525	0.098793
1170.397275	0.098059
1170.550007	0.092712
1170.702720	0.092929
1170.855415	0.091172
1171.008092	0.088510
1171.160751	0.089170
1171.313392	0.088512
1171.466014	0.096790
1171.618619	0.086667
1171.771205	0.086667
1171.923772	0.086667
