sample name	sample
index	246
start time	 02-22-2021  11:43:22 AM
880	0.179338
Peak Time (s)	91.035
Peak Height 	0.1793
calc peak height	90,93
Baseline Time (s)	9.534
Baseline Value 	-0.004022
subtract baseline	10,4
Abs	0.153274
Peak Time (s)	90.037
Peak Height 	0.1533
calc peak height	90,93
Baseline Time (s)	8.537
Baseline Value 	0.002363
subtract baseline	10,3
PK_550	0.075270
Peak Time (s)	92.535
Peak Height 	0.07527
calc peak height	90,93
Baseline Time (s)	10.536
Baseline Value 	4.5032E-5
subtract baseline	10,2
PK_880	0.146540
Peak Time (s)	92.535
Peak Height 	0.1465
calc peak height	90,93
Baseline Time (s)	10.536
Baseline Value 	0.002301
subtract baseline	10,1


Time (s)	A880-A510	A880-A775	A880-A975	A880	I510	I775	I975	I880	
0.035000	-0.000401	0.000201	0.002678	0.001772	6893.096416	46694.106774	4014.362822	24641.479022
0.535500	-0.001999	-0.000136	0.000119	0.003200	6865.254704	46516.332683	4003.746970	24569.964046
1.035500	-0.003164	-0.000337	0.000838	0.002556	6860.488863	46560.974830	4007.365804	24602.206447
1.536000	-0.002556	0.000916	-0.003359	0.007341	6822.427013	46207.253430	3983.735481	24364.042505
2.035500	0.001661	0.000592	0.002829	0.000428	6924.660116	46869.260975	4018.366263	24708.922856
2.536000	0.001131	0.000728	0.000309	0.000753	6916.716472	46850.231144	4010.756985	24692.611395
3.036500	-0.000286	-0.000380	0.000427	-0.001322	6922.828446	46948.137756	4016.617327	24797.113516
3.539500	-0.001098	-0.000615	0.000980	0.000919	6894.538254	46697.754390	4012.104944	24684.271635
4.037000	-0.001553	0.000364	0.001548	0.001060	6889.034646	46782.299553	4013.243118	24677.158739
4.537500	-0.000184	-0.000354	0.000802	0.000505	6906.816748	46765.873830	4012.733729	24705.067273
5.035000	0.000419	0.000336	0.003744	0.000696	6910.639579	46816.371770	4020.106558	24695.474651
5.535500	-0.001505	0.000100	0.001090	0.000558	6894.117343	46806.440864	4013.363116	24702.430708
6.035500	0.000075	-0.000249	-0.000893	0.000261	6911.481696	46801.115313	4008.865295	24717.337884
6.536000	-0.000589	-0.000261	0.000267	0.000397	6904.066822	46786.175759	4011.592610	24710.478267
7.036000	-0.000835	0.000173	0.002789	0.000666	6899.308393	46802.888629	4017.621699	24696.996519
7.536500	-0.000338	0.000672	0.001194	0.000465	6905.766077	46873.749874	4013.890993	24707.099792
8.036500	-0.001918	0.000133	-0.000561	-0.000233	6897.594561	46889.747712	4011.065267	24742.194710
8.536500	-0.001243	-0.000057	0.000000	-0.000385	6905.246399	46885.919737	4012.968438	24749.847465
9.034500	-0.000271	-0.000235	-0.002187	-0.000403	6914.438100	46869.757029	4007.190447	24750.800572
9.534500	0.000757	-0.000032	0.000729	0.000000	6920.229611	46849.537554	4013.889117	24730.479751
10.035500	0.000371	0.000616	-0.000376	0.000471	6912.276332	46867.477533	4009.684240	24706.783854
10.535500	0.000000	0.000000	-0.000063	-0.000318	6916.154204	46884.923728	4012.621925	24746.484028
11.035500	-0.000419	0.000013	0.003232	0.000039	6908.966312	46850.134922	4020.494849	24728.540901
11.535500	0.001544	0.000504	0.003678	0.000107	6926.561946	46892.993042	4021.512957	24725.112344
12.035500	0.000105	0.000086	-0.002330	-0.000206	6916.096297	46882.374735	4006.287499	24740.870498
12.536500	0.000795	0.000561	-0.000121	0.000011	6920.490735	46908.507534	4011.590510	24729.931950
13.037000	0.001015	0.000425	0.002312	-0.000301	6925.429406	46926.199970	4018.936366	24745.614246
13.537500	0.001192	0.000314	0.000216	-0.000035	6924.601716	46888.025722	4012.610736	24732.217115
14.037500	-0.001633	-0.000478	0.001470	0.001979	6879.836571	46604.840368	4010.585605	24631.095340
14.537500	-0.001898	0.000164	0.000618	0.001783	6879.203451	46689.192848	4008.836376	24640.918893
15.035000	0.000776	0.001026	0.002039	0.000091	6919.566698	46947.470881	4017.151969	24725.896576
15.535500	0.000434	0.000067	-0.000746	-0.000311	6920.128077	46891.031932	4010.782530	24746.151966
16.035500	-0.000903	-0.000026	0.002745	-0.000557	6909.996429	46906.540948	4020.789601	24758.552738
16.535500	0.002407	0.000428	0.002549	-0.000371	6939.060555	46933.698669	4019.760647	24749.177927
17.036000	0.002240	0.000327	0.000201	-0.002034	6953.051151	47092.405504	4017.921632	24833.112112
17.535500	-0.000167	0.000828	0.002160	0.001626	6896.603774	46772.088200	4013.369502	24648.786509
18.037000	-0.000516	-0.000481	-0.001687	0.000647	6902.422706	46738.683077	4005.729566	24697.917800
18.537000	0.001073	0.000623	-0.001352	0.001168	6912.317885	46797.573716	4005.234670	24671.737968
19.037000	-0.000366	0.000838	0.002098	0.001334	6897.462246	46802.563230	4013.982501	24663.407649
19.535000	-0.002197	0.000146	0.000518	0.000871	6884.845748	46779.436788	4011.001765	24686.688281
20.035500	-0.001289	0.000512	0.000124	0.001054	6891.524733	46797.889246	4009.461477	24677.483880
20.535500	-0.000427	0.000202	-0.000855	0.001195	6898.182077	46752.347202	4006.482169	24670.402207
21.035000	0.000758	-0.000134	-0.003224	0.000704	6913.699395	46767.951836	4001.505617	24695.055330
21.536000	0.000331	0.000416	-0.000277	0.001428	6903.037347	46750.437819	4007.398940	24658.690105
22.036500	-0.000005	0.000308	0.001139	0.001237	6901.700305	46758.832954	4011.679316	24668.296206
22.537000	-0.002367	-0.000286	0.000904	0.000142	6889.990749	46809.467381	4013.976494	24723.324169
23.037000	-0.000248	-0.000758	-0.003026	0.000102	6909.961794	46765.726521	4003.624046	24725.339060
23.537000	-0.000667	0.000460	-0.001621	0.001308	6894.918155	46767.008507	4004.149910	24664.724850
24.037500	-0.002122	-0.000200	0.000072	0.001105	6883.372487	46720.837033	4009.188518	24674.920561
24.535000	0.000155	0.000528	0.007256	0.001406	6901.614384	46764.031319	4027.660391	24659.822009
25.035000	-0.002296	-0.000685	-0.000839	0.000514	6887.213895	46731.500769	4008.336815	24704.607677
25.535500	-0.001277	0.000118	-0.003201	0.000966	6892.454205	46767.009954	4000.873372	24681.923720
26.036000	0.001476	-0.000160	-0.000076	0.000967	6917.932365	46738.815922	4009.161699	24681.845961
26.536500	-0.000108	-0.000395	-0.002118	0.000547	6907.132962	46757.518412	4004.852026	24702.966351
27.036500	0.001876	0.000211	0.004580	-0.001620	6945.769532	47038.443769	4028.606236	24812.175186
27.537000	0.000646	0.000222	0.001784	-0.000503	6923.884651	46926.246589	4018.063180	24755.832573
28.036500	-0.000876	-0.000280	-0.001254	-0.000667	6911.273588	46892.010308	4010.377938	24764.108841
28.537500	-0.000552	0.000091	0.004170	-0.000012	6908.197319	46863.147845	4023.156494	24731.093183
29.035000	-0.000171	0.000424	0.006511	0.000218	6909.599827	46873.605549	4028.861086	24719.527059
29.537500	0.000361	-0.000213	0.000177	0.000146	6915.202548	46816.491540	4012.023798	24723.142149
30.036000	0.000962	-0.000453	0.000467	-0.000494	6926.730874	46856.803616	4014.507763	24755.339763
30.536000	-0.001899	-0.000161	0.002902	0.002828	6869.580809	46551.213316	4012.138149	24588.560910
31.036000	-0.000636	0.000298	0.002162	0.001574	6892.752879	46723.827350	4013.513753	24651.404996
31.536500	0.000361	0.000229	0.005867	0.000369	6913.132581	46838.507916	4026.707488	24711.898042
32.037000	0.000178	0.000132	0.003091	-0.000442	6918.964755	46910.917164	4021.409210	24752.762726
32.537000	-0.001385	0.000402	0.002875	-0.000368	6903.776893	46930.739242	4020.627602	24748.990225
33.037000	0.000165	0.000160	0.003398	0.000455	6910.508943	46822.821359	4019.820827	24707.561800
33.534500	0.001110	-0.000052	0.003528	-0.000154	6924.947377	46863.077477	4021.810411	24738.225693
34.035000	0.000052	0.000482	0.000165	0.001645	6898.457480	46735.194930	4007.998720	24647.831752
34.535500	0.001321	0.000738	-0.000368	0.002183	6905.216853	46706.733013	4005.154953	24620.868169
35.034500	-0.000926	0.000057	0.001399	0.001470	6891.035738	46709.972025	4011.750082	24656.583920
35.536000	-0.000030	-0.000014	0.001223	0.001632	6897.816109	46686.479498	4010.852332	24648.492140
36.036000	-0.001029	0.000758	0.001914	0.002203	6883.330341	46706.767766	4011.171045	24619.866753
36.536500	0.000172	0.000210	0.000294	0.002069	6895.644459	46664.971629	4007.213066	24626.570883
37.036500	-0.002829	0.000156	0.004970	0.001620	6872.139376	46704.814182	4020.917172	24649.068124
37.537000	-0.000448	0.000198	0.002557	0.001613	6894.135130	46709.787545	4014.463574	24649.444224
38.035000	-0.000137	0.000065	0.000119	0.001530	6897.766108	46704.703109	4008.182873	24653.601273
38.535000	-0.000172	0.000415	-0.001064	0.001664	6896.204603	46726.548041	4004.685224	24646.881623
39.035500	0.000651	-0.000430	0.003294	0.001385	6906.401272	46669.394957	4017.047465	24660.847277
39.538000	0.000425	0.000242	0.005392	0.001666	6901.710681	46708.845461	4021.929875	24646.769273
40.035500	0.001423	0.000916	0.000918	0.002225	6905.777145	46720.494110	4008.458379	24618.769562
40.536000	0.000680	0.000334	0.003453	0.001721	6903.557964	46712.529093	4016.572554	24643.986517
41.036500	0.000215	0.000513	0.002417	0.002181	6895.001112	46684.276943	4012.571437	24620.955009
41.536500	-0.001442	0.000421	0.003986	0.001557	6885.473482	46737.839322	4018.442451	24652.217387
42.037000	-0.001715	-0.000472	0.003458	0.001495	6883.527876	46654.086004	4017.190666	24655.323482
42.537500	0.002265	0.000446	0.002988	0.001694	6918.501007	46726.584406	4015.401157	24645.363246
43.034500	0.000362	0.000013	0.000035	0.001667	6901.113036	46685.627191	4007.594506	24646.715672
43.534500	-0.000052	-0.000040	0.003104	-0.001226	6924.112275	46972.934589	4023.554098	24792.278925
44.035000	0.002286	0.000555	0.000777	0.000525	6929.580852	46855.774372	4012.615470	24704.081170
44.535500	0.002332	-0.000123	0.000780	-0.000411	6938.737375	46881.930866	4015.123912	24751.182592
45.036000	0.001352	0.000315	0.003170	0.000395	6922.091173	46844.577375	4019.371909	24710.587761
45.536500	0.000165	0.000350	0.002096	0.000304	6911.914959	46857.426124	4016.735741	24715.197950
46.036500	0.001952	0.000384	0.005045	-0.000089	6932.187247	46900.664227	4025.725270	24734.978760
46.537000	0.001115	0.000380	0.002139	-0.000092	6924.417372	46900.560534	4017.910959	24735.120980
47.037000	0.000580	-0.000115	0.000257	0.002434	6896.043630	46595.524499	4006.147000	24608.311849
47.537500	-0.000790	0.000479	0.004148	0.002275	6884.859780	46671.313953	4016.950912	24616.226635
48.037500	-0.000913	0.000008	0.002592	-0.000554	6909.879232	46909.637778	4020.368620	24758.383443
48.535000	-0.000047	0.000307	0.000563	-0.000373	6916.231924	46921.640465	4014.443521	24749.274635
49.035500	-0.000946	-0.000120	0.003087	0.001755	6888.225582	46663.429723	4015.504388	24642.326570
49.536000	0.002164	-0.000555	0.000812	-0.003097	6962.305503	47110.757638	4022.420347	24886.923560
50.036000	0.002431	0.000713	0.006556	0.000526	6930.916116	46871.642004	4028.146042	24703.999020
50.536000	0.002462	-0.000133	0.001423	0.000487	6931.571123	46790.107830	4014.442763	24705.988822
51.036500	0.004366	-0.002889	0.005259	0.025026	6726.006913	44116.107669	3960.368047	23506.195943
51.537000	-0.014673	-0.016074	0.015877	0.090015	6050.124537	37325.632825	3830.042184	20637.669878
52.034500	-0.020632	-0.027865	0.001910	-0.075436	7455.136975	51941.365516	4237.893054	28877.899069
52.535000	-0.010561	-0.059188	0.007860	-0.198584	9096.210744	63489.374111	4717.344239	37405.494577
53.035000	-0.009407	-0.033560	0.011300	-0.147780	8425.086501	60076.599362	4524.699951	33592.560855
53.538000	-0.003278	-0.014060	0.007064	-0.078156	7671.393422	53843.564667	4263.234685	29041.333679
54.035500	-0.001746	-0.012757	0.009505	-0.081530	7725.781060	54395.283608	4282.247276	29245.480403
54.535500	0.007206	-0.009098	0.012347	-0.088256	7903.764386	55641.590999	4314.088085	29657.188751
55.035500	0.015263	-0.003440	0.016373	-0.062683	7705.334163	53277.440257	4243.358737	28125.206593
55.536500	0.027460	0.003731	0.024317	-0.036316	7550.567622	51098.996543	4185.605903	26637.360172
56.036500	0.033584	0.008594	0.037856	-0.016957	7410.486755	49516.535071	4167.863859	25601.024969
56.537000	0.041401	0.010788	0.042803	0.002549	7290.280438	47694.583164	4124.513046	24602.527892
57.037500	0.048476	0.015565	0.053589	0.028429	7103.555769	45569.769852	4081.075751	23345.126212
57.535000	0.061431	0.023172	0.064443	0.051257	7008.711255	44100.098369	4047.673980	22296.540668
58.035500	0.074367	0.030919	0.081148	0.067347	6978.865832	43316.002233	4049.368228	21589.869805
58.535500	0.084022	0.037572	0.084898	0.084612	6907.730508	42340.217519	4012.705102	20860.125449
59.035500	0.093196	0.044003	0.097663	0.103146	6821.936091	41256.195528	3997.399927	20108.421237
59.536000	0.099564	0.049325	0.106827	0.111972	6799.714886	40947.931962	3998.291737	19761.579327
60.036000	0.109356	0.055224	0.112935	0.120997	6806.637554	40674.938972	3990.623640	19414.097629
60.536500	0.111692	0.057632	0.119122	0.137493	6680.800403	39469.038122	3963.931658	18797.357134
61.036500	0.118278	0.061483	0.115040	0.131495	6792.426942	40308.063144	3968.847963	19018.928512
61.537500	0.117750	0.063252	0.128452	0.121038	6882.819557	41376.269798	4031.900125	19412.544868
62.037500	0.118044	0.067519	0.120011	0.125170	6847.638071	41388.221636	3998.255984	19255.879874
62.537500	0.116325	0.069241	0.122708	0.131289	6776.739413	41000.436239	3989.265319	19026.573835
63.038000	0.122967	0.072305	0.124194	0.133548	6816.223584	41071.177586	3987.244026	18942.743996
63.536000	0.124089	0.074727	0.129592	0.139802	6770.026385	40735.787664	3985.010712	18712.899756
64.038000	0.126906	0.074982	0.132460	0.144244	6755.517989	40372.733622	3980.914247	18551.668642
64.536000	0.123118	0.075952	0.129952	0.149255	6677.864108	40025.577185	3961.551683	18371.728102
65.036500	0.123586	0.076674	0.128693	0.155499	6627.735330	39556.438707	3942.561624	18150.393039
65.537000	0.123683	0.076824	0.134831	0.158962	6598.833214	39277.894818	3949.296891	18029.021374
66.036500	0.128192	0.076963	0.128257	0.163058	6602.368932	38947.822354	3922.683352	17886.673075
66.537000	0.129468	0.077817	0.132894	0.167173	6578.137149	38678.087072	3923.970530	17745.026828
67.037500	0.129610	0.076634	0.137112	0.170973	6547.159779	38269.994437	3925.005404	17615.445289
67.534500	0.128800	0.077040	0.136768	0.173355	6520.330446	38109.335043	3918.294099	17534.753974
68.035500	0.129927	0.076711	0.133876	0.175710	6510.061394	37892.352588	3905.499776	17455.436142
68.535500	0.127330	0.076454	0.139241	0.177026	6477.534871	37765.821516	3915.358824	17411.296220
69.036000	0.128163	0.075944	0.134509	0.184028	6426.851533	37167.845370	3887.035426	17178.681070
69.536500	0.129712	0.076014	0.142318	0.180278	6470.346534	37470.609874	3914.931028	17302.786580
70.036500	0.132465	0.076160	0.137396	0.181785	6480.646665	37362.497073	3899.325678	17252.794955
70.537000	0.128989	0.075281	0.141123	0.182533	6445.837719	37233.619139	3906.528643	17228.045125
71.037000	0.130412	0.076560	0.141795	0.189828	6398.003370	36761.239415	3890.582581	16988.834315
71.537000	0.131997	0.075736	0.140229	0.184850	6451.509315	37086.639415	3898.764441	17151.611454
72.035000	0.130579	0.076257	0.139789	0.185406	6435.325873	37083.907993	3896.370642	17133.344392
72.534500	0.131640	0.074974	0.141071	0.185095	6446.564369	37007.451883	3900.203976	17143.559472
73.035500	0.129538	0.076319	0.138518	0.191654	6376.222988	36600.401034	3878.459715	16929.573645
73.535500	0.132503	0.076134	0.145138	0.186557	6441.655244	36983.747722	3906.505731	17095.583939
74.035500	0.135082	0.077268	0.142629	0.187528	6454.852192	36996.539946	3898.096064	17063.808297
74.536000	0.134902	0.076614	0.143646	0.186340	6463.145895	37038.456421	3903.417185	17102.684531
75.036500	0.134003	0.076688	0.148358	0.187993	6442.174576	36914.593581	3910.843360	17048.607263
75.536500	0.135954	0.076193	0.148087	0.186558	6470.034964	36988.315064	3913.682014	17095.555512
76.037500	0.136089	0.076075	0.149687	0.185945	6476.209588	37027.162505	3919.102682	17115.643324
76.537500	0.136271	0.076485	0.151312	0.185735	6479.456860	37075.939277	3923.617320	17122.540633
77.035000	0.137167	0.076139	0.145313	0.185546	6488.445690	37063.561570	3909.387592	17128.733332
77.538000	0.137848	0.075082	0.147629	0.184414	6503.533302	37069.512595	3917.808826	17165.975525
78.035500	0.135761	0.074997	0.149797	0.184284	6487.254353	37073.075506	3923.458799	17170.255487
78.536000	0.135738	0.075918	0.144508	0.184547	6484.880821	37124.902251	3909.860626	17161.592991
79.036000	0.138482	0.075215	0.152800	0.184053	6511.828092	37108.408083	3931.462065	17177.857703
79.536500	0.137319	0.075431	0.150865	0.183823	6504.045915	37143.539171	3927.233830	17185.428093
80.036500	0.137716	0.074853	0.147254	0.183323	6511.530011	37137.407932	3919.564665	17201.921483
80.537000	0.136547	0.075425	0.148732	0.182430	6509.220956	37253.045432	3925.404797	17231.425136
81.037500	0.139200	0.075570	0.152887	0.182937	6527.188488	37224.530194	3934.453319	17214.689084
81.535000	0.138360	0.075655	0.149884	0.182729	6521.885380	37247.664254	3927.514225	17221.555834
82.034500	0.137222	0.075079	0.146260	0.181973	6518.691420	37261.967310	3920.441844	17246.579969
82.535500	0.136183	0.075015	0.150987	0.181540	6513.626955	37291.121518	3933.201912	17260.919494
83.035500	0.135089	0.074152	0.147538	0.186960	6459.580630	36797.059332	3911.362080	17082.373639
83.536000	0.137819	0.075658	0.150074	0.181050	6531.436182	37380.981776	3932.150581	17277.162973
84.036500	0.139724	0.075390	0.149533	0.180668	6550.689865	37390.003301	3931.753580	17289.843550
84.536500	0.136148	0.074042	0.147427	0.179481	6530.577364	37377.173174	3929.473530	17329.302956
85.037000	0.137422	0.074469	0.148018	0.184659	6497.941303	37002.050013	3918.162242	17157.909827
85.537000	0.137829	0.074238	0.142522	0.179211	6546.988184	37414.214962	3918.043020	17338.292610
86.037500	0.139632	0.074707	0.147055	0.179151	6562.740191	37456.264501	3929.367442	17340.289277
86.535000	0.140481	0.074125	0.150298	0.178542	6575.117305	37458.465298	3938.960900	17360.614696
87.035000	0.137443	0.073953	0.147606	0.183404	6508.575928	37060.155619	3920.231406	17199.251107
87.535500	0.142656	0.073991	0.149431	0.178077	6597.624436	37484.840658	3937.957130	17376.158797
88.036000	0.143326	0.074346	0.153417	0.178224	6602.090960	37501.382415	3947.588217	17371.219258
88.536000	0.144569	0.075119	0.153089	0.178016	6614.543421	37579.656848	3947.289042	17378.188667
89.036500	0.142514	0.074120	0.148167	0.177634	6600.194614	37530.382391	3935.906764	17390.948873
89.537000	0.143359	0.074474	0.150556	0.177449	6609.019161	37573.427867	3942.344868	17397.148820
90.037000	0.144545	0.074213	0.153274	0.177319	6620.324754	37563.029746	3949.513491	17401.501758
90.537000	0.144338	0.073404	0.148940	0.176905	6622.107658	37531.520584	3939.660157	17415.365917
91.035000	0.142678	0.073198	0.150655	0.179338	6587.038576	37321.651772	3937.863212	17334.079760
91.535000	0.145471	0.074702	0.150231	0.177308	6628.396168	37602.880318	3941.883178	17401.864677
92.034500	0.146445	0.074195	0.148360	0.177098	6638.616998	37579.220102	3937.725502	17408.900149
92.535000	0.146540	0.075270	0.148970	0.177892	6632.582991	37601.620599	3937.265688	17382.329477
93.036000	0.145190	0.074612	0.152876	0.178781	6613.298823	37478.195805	3944.824546	17352.627414
93.536000	0.146137	0.074115	0.152427	0.176912	6637.556050	37587.588375	3948.399726	17415.103106
94.036000	0.147722	0.073878	0.154542	0.176450	6655.290967	37605.547397	3954.919957	17430.587710
94.537000	0.149417	0.074790	0.150681	0.177688	6659.265136	37579.561212	3942.056745	17389.137357
95.036500	0.147151	0.074303	0.153117	0.182533	6597.959623	37156.351226	3936.034180	17228.045759
95.535000	0.149145	0.073434	0.152648	0.176720	6665.324737	37548.596298	3949.446323	17421.564512
96.035000	0.147499	0.073445	0.153111	0.176563	6652.380414	37561.998634	3951.009540	17426.813344
