sample name	sample
index	1382
start time	 05-03-2021  02:56:08 PM
880	0.453938
Peak Time (s)	90.035
Peak Height 	0.4539
calc peak height	90,93
Baseline Time (s)	11.037
Baseline Value 	-0.003742
subtract baseline	10,4
Abs	0.298641
Peak Time (s)	92.54
Peak Height 	0.2986
calc peak height	90,93
Baseline Time (s)	9.539
Baseline Value 	0.004376
subtract baseline	10,3
PK_550	0.167299
Peak Time (s)	91.039
Peak Height 	0.1673
calc peak height	90,93
Baseline Time (s)	10.039
Baseline Value 	5.3954E-4
subtract baseline	10,2
PK_880	0.286609
Peak Time (s)	90.536
Peak Height 	0.2866
calc peak height	90,93
Baseline Time (s)	8.54
Baseline Value 	6.662E-4
subtract baseline	10,1


Time (s)	A880-A510	A880-A775	A880-A975	A880	I510	I775	I975	I880	
0.035500	-0.001939	-0.000705	-0.000331	0.002120	6141.798313	42460.401103	3945.263171	22112.521739
0.537000	-0.001948	0.000008	-0.007073	0.007158	6105.332652	42069.609093	3919.047615	21891.943261
1.040500	-0.001954	-0.000459	-0.001882	0.003712	6130.146466	42338.402821	3938.201308	22042.564276
1.549500	0.001568	-0.000039	-0.007712	0.001437	6172.404527	42583.135896	3930.271372	22142.647400
2.047500	0.000365	0.000490	-0.010377	0.001849	6160.571795	42593.775737	3923.457593	22124.457341
2.544000	-0.004407	-0.000961	-0.009917	0.005630	6098.647738	42119.856469	3916.160195	21958.567852
3.040500	0.001002	-0.000115	0.000640	-0.001954	6193.198864	42886.214923	3956.711567	22292.787872
3.547500	0.001220	-0.000130	-0.000354	-0.000065	6180.879904	42711.831730	3950.154756	22209.012183
4.038000	-0.000758	-0.000018	-0.003701	-0.000244	6167.672235	42738.486970	3942.998751	22216.939059
4.543500	0.000983	0.000405	0.000604	0.000020	6178.511807	42752.959620	3952.134271	22205.234144
5.035500	0.001058	0.000121	-0.005061	-0.000071	6179.730862	42735.346432	3939.553019	22209.271175
5.544500	-0.001273	0.000553	-0.002855	-0.000320	6164.452236	42797.639067	3945.074215	22220.282189
6.042500	-0.000946	-0.000408	-0.002661	-0.000842	6170.677504	42757.550949	3946.692120	22243.449418
6.539500	0.000595	-0.000603	0.001963	-0.000720	6181.097746	42728.478755	3956.914500	22238.009636
7.037000	-0.001837	-0.000624	-0.003988	-0.000855	6164.240867	42738.894620	3943.727393	22243.988551
7.543500	-0.001298	0.000059	0.000216	0.000054	6161.535112	42718.237227	3951.177529	22203.745906
8.037500	0.000264	-0.000504	-0.004685	0.001609	6161.588078	42525.126587	3936.632014	22135.039074
8.540500	0.000000	-0.000237	0.000765	0.000023	6171.269565	42694.033568	3952.493556	22205.096797
9.043500	0.002489	0.000473	0.003258	0.000524	6185.891848	42713.196260	3957.033516	22182.965727
9.539000	0.000955	-0.000397	0.000000	-0.000893	6185.024186	42763.142115	3952.837815	22245.688259
10.039000	-0.000737	0.000000	0.001237	-0.000320	6168.387521	42747.110878	3954.349097	22220.318437
10.539500	0.000002	0.000988	-0.000317	0.000629	6166.850325	42750.684701	3948.665851	22178.329669
11.036500	-0.001102	0.000280	-0.004420	0.000000	6163.368363	42743.370116	3940.832002	22206.130939
11.539500	-0.000573	-0.000081	-0.001640	-0.000371	6169.961378	42744.291418	3947.933904	22222.553277
12.045500	-0.001192	0.000025	-0.000240	0.002413	6145.101070	42500.061941	3944.808469	22099.621481
12.535000	0.000430	0.000588	-0.000827	0.000086	6173.960843	42763.669591	3948.740455	22202.316263
13.040500	0.000857	0.000361	-0.000049	-0.000516	6181.532639	42798.082405	3951.869127	22228.978496
13.546500	0.000416	-0.000273	0.002138	0.000211	6172.945549	42673.600279	3955.193140	22196.803627
14.047500	-0.001466	-0.000671	-0.004066	0.001285	6151.316159	42539.389836	3938.744368	22149.330894
14.547000	-0.000852	-0.000304	0.001348	0.001937	6151.043524	42513.484273	3949.474347	22120.585062
15.045500	-0.001428	-0.000061	-0.003443	-0.000183	6162.320410	42728.956463	3943.440456	22214.214235
15.547000	-0.002827	-0.000913	-0.004130	-0.000964	6157.802205	42722.501088	3943.653683	22248.860047
16.043000	-0.000038	0.000217	0.001942	0.002197	6155.086568	42537.226100	3950.232665	22109.161073
16.543500	0.001216	0.000440	-0.001833	-0.000063	6180.838550	42763.828308	3946.803011	22208.923563
17.037500	0.004444	0.000242	-0.002078	-0.003571	6230.787036	43067.830723	3954.202591	22364.811245
17.545500	0.003415	0.001046	-0.003573	-0.001965	6211.161011	42994.047607	3947.168460	22293.305016
18.044500	-0.001334	0.000140	0.000695	0.001292	6152.238714	42612.714600	3949.456772	22149.053427
18.541000	0.001695	0.000445	0.000779	0.000896	6177.304511	42676.614546	3950.543184	22166.510754
19.043500	-0.000554	-0.000206	-0.001497	0.000451	6164.080289	42657.802796	3946.400984	22186.193229
19.544500	-0.001612	-0.000184	-0.000653	0.000681	6154.663088	42638.791936	3947.786416	22176.001940
20.045000	0.001520	0.000208	-0.003847	0.001956	6168.246213	42558.358472	3937.731957	22119.755317
20.543500	-0.000088	0.000822	-0.005239	0.000963	6163.740903	42704.991282	3936.840284	22163.576475
21.044500	0.000246	0.000074	-0.004504	0.000868	6166.880810	42645.273073	3938.696427	22167.740115
21.548000	-0.002115	-0.000365	0.003250	0.000605	6151.546502	42629.191592	3956.829601	22179.361467
22.044500	-0.002583	0.000161	-0.003167	0.001319	6142.939253	42612.104854	3940.685185	22147.842052
22.554000	0.001822	0.000357	0.001353	0.001495	6173.845524	42613.962527	3950.487515	22140.086060
23.048500	0.000968	0.000423	-0.004595	0.001109	6170.405757	42655.147528	3937.952707	22157.115635
23.538000	-0.000988	-0.000280	0.001223	0.000210	6162.662020	42673.022778	3953.109568	22196.824775
24.045000	0.000146	-0.000585	-0.004077	0.001049	6164.824628	42568.764431	3939.250539	22159.779067
24.555000	-0.000144	0.000223	0.000845	0.000874	6163.977223	42658.356841	3950.744465	22167.481123
25.044500	0.000845	-0.000566	-0.001244	-0.000036	6177.909913	42669.426396	3948.074179	22207.736011
25.545000	0.001162	0.000636	0.000930	0.000943	6173.048862	42689.721971	3950.780838	22164.444210
26.037000	0.000418	0.000512	0.002378	0.000992	6167.230424	42673.946515	3953.958637	22162.260297
26.543000	0.000170	0.000362	-0.001861	0.000915	6165.981132	42667.283553	3944.531155	22165.678000
27.048000	-0.001901	0.000213	0.000463	0.000966	6150.475919	42649.022899	3949.668191	22163.410640
27.543500	0.002345	0.000895	0.002558	-0.001896	6202.706187	42973.706329	3960.965950	22290.211164
28.045000	-0.001725	-0.001204	-0.005403	-0.001229	6167.804550	42720.145236	3941.387008	22260.610352
28.541000	-0.002608	-0.000352	-0.002424	0.002256	6135.953441	42480.140839	3940.250021	22106.544268
29.043500	0.000702	0.000253	-0.000950	-0.000397	6179.512476	42777.273985	3949.555940	22223.705574
29.542500	0.001562	0.000028	0.000553	-0.000439	6186.155887	42760.546796	3953.064262	22225.569011
30.043000	0.000717	0.000107	-0.003456	-0.000459	6180.083144	42769.606974	3944.033781	22226.457711
30.538500	-0.000110	0.000220	0.006473	0.001305	6161.077787	42618.717701	3962.603237	22148.449649
31.037000	0.001061	-0.000015	-0.000518	0.001793	6166.074810	42552.866532	3945.580007	22126.923533
31.538500	0.000084	0.000404	-0.003160	-0.000004	6172.083372	42755.066190	3943.674047	22206.294668
32.040500	-0.000006	-0.000353	-0.003122	-0.000430	6174.552115	42724.859430	3944.722744	22225.176819
32.535000	-0.002215	0.000235	-0.003960	0.002843	6134.553848	42480.177881	3935.496164	22080.737313
33.042000	0.001899	0.000745	-0.002558	0.000246	6183.591885	42763.470572	3944.468789	22195.240218
33.544500	0.000464	-0.000480	0.002892	-0.002028	6189.774068	42859.493527	3962.033892	22296.078514
34.044500	-0.000345	-0.000568	-0.003870	-0.000182	6170.242413	42682.486341	3942.477328	22214.166859
34.545000	-0.000840	-0.000538	-0.000599	0.001279	6155.930019	42552.073753	3946.558386	22149.596623
35.039500	0.001499	0.000905	-0.006075	0.001465	6171.687659	42666.605563	3933.850906	22141.388612
35.540000	0.000003	0.000296	-0.002937	0.001150	6163.036783	42639.821930	3941.580027	22155.301414
36.037500	-0.001758	0.000449	-0.003013	0.001770	6145.656174	42597.194890	3940.016138	22127.938452
36.538000	0.001568	-0.000427	0.002296	0.000765	6177.333217	42609.000206	3954.288849	22172.292037
37.043000	-0.000974	0.000296	-0.003497	0.001394	6154.117223	42617.546788	3939.775111	22144.526022
37.535500	0.001072	-0.000356	-0.002824	0.000702	6174.155068	42621.220185	3942.843001	22175.074976
38.042000	-0.002091	0.000012	-0.004951	0.001752	6143.372022	42559.023552	3935.717877	22128.734385
38.544500	0.001384	0.000599	0.004258	0.001453	6170.934230	42639.847967	3957.193553	22141.934878
39.036500	-0.000208	0.001450	-0.000541	0.002281	6153.230391	42641.891750	3944.428216	22105.426470
39.542500	-0.000662	0.000607	0.002713	0.001593	6154.939775	42627.797911	3953.354193	22135.772409
40.037000	0.000467	0.000215	0.001545	0.001373	6164.801801	42612.111739	3951.201577	22145.476089
40.540000	-0.002738	-0.000344	0.000637	0.000112	6150.599144	42676.114115	3952.001432	22201.159513
41.037500	-0.001041	0.000062	-0.003717	0.000906	6157.187316	42640.750427	3940.376698	22166.070070
41.537500	0.000782	0.000897	0.000065	0.001250	6168.005791	42685.554955	3948.124822	22150.878843
42.038500	0.001731	-0.000362	-0.004204	0.001809	6170.867924	42519.856663	3937.261178	22126.238536
42.547000	0.000538	0.000429	-0.000735	0.001259	6166.156976	42642.065482	3946.298200	22150.506776
43.036000	-0.000924	-0.000080	-0.003573	0.001158	6156.203100	42604.764085	3940.133639	22154.944691
43.536000	0.000829	0.000022	0.002135	0.001394	6167.301128	42592.595156	3952.493401	22144.552494
44.036500	0.001243	0.000142	0.000402	-0.000459	6183.953901	42772.826743	3952.764708	22226.458192
44.536000	0.000451	0.000444	-0.001460	0.000065	6174.271277	42752.427768	3947.354110	22203.233841
45.040000	-0.000674	0.000363	-0.004529	-0.000010	6166.580011	42751.990417	3940.612612	22206.594123
45.544000	0.001647	0.000599	-0.003510	-0.000039	6183.830182	42776.138577	3942.965546	22207.848483
46.044500	-0.001175	0.000479	-0.001243	0.003402	6138.032203	42451.439601	3940.327260	22056.136684
46.541000	-0.002104	-0.000398	-0.000666	-0.000266	6157.986251	42705.753427	3949.903882	22217.920916
47.037500	0.001341	-0.000098	0.000807	-0.000227	6182.966473	42729.601420	3953.158559	22216.173478
47.547000	-0.000954	0.000256	0.000648	0.001694	6152.074332	42586.593557	3948.440075	22131.308626
48.050500	-0.000146	0.000404	0.001081	0.003836	6142.365324	42405.347522	3944.579164	22037.116284
48.535500	-0.000580	0.000195	-0.003324	0.001147	6158.795808	42630.809359	3940.717719	22155.413886
49.036000	0.000527	-0.000025	0.004730	-0.000264	6177.249964	42739.590151	3962.203689	22217.801501
49.539500	-0.000518	0.000995	-0.002876	0.000469	6164.207862	42765.948593	3943.251190	22185.403552
50.037000	0.001784	0.000428	-0.000172	0.001057	6176.775890	42660.322638	3948.025722	22159.406939
50.544000	0.002381	0.000028	0.005715	0.001922	6174.806766	42545.046316	3959.451878	22121.254386
51.044000	0.015633	-0.006910	0.010706	0.056308	5886.570554	37339.951116	3852.595475	19868.886071
51.541500	0.016220	-0.015009	-0.022064	0.155669	5296.364509	29816.812598	3619.894332	16416.219093
52.050500	0.017954	-0.037958	-0.019365	-0.146166	7634.604877	53950.395573	4284.891948	29896.711643
52.541000	0.026906	-0.077262	-0.006083	-0.264499	9217.978220	64115.280688	4751.942264	38325.422829
53.041500	0.025202	-0.056802	0.002350	-0.214226	8514.934536	60061.876862	4587.864364	34462.436810
53.544500	0.035140	-0.037483	0.011308	-0.191586	8355.553542	59627.361607	4537.550099	32863.589566
54.042500	0.033515	-0.033319	0.009439	-0.190462	8321.668237	60024.992179	4526.752504	32786.347237
54.545000	0.038088	-0.016329	0.021338	-0.142987	7819.699215	56160.729677	4403.960625	29700.410913
55.051000	0.044233	-0.011790	0.029231	-0.133345	7780.938482	55540.010039	4398.182256	29113.886348
55.544000	0.054861	-0.002693	0.037400	-0.107180	7612.400570	53515.967092	4340.026637	27586.211134
56.041000	0.069499	0.006493	0.053327	-0.083619	7518.297727	51871.832106	4316.075122	26287.139573
56.546500	0.087125	0.021545	0.070825	0.000699	6872.996070	44669.796474	4123.473059	22175.211605
57.037500	0.096661	0.030246	0.086090	0.046559	6561.053436	41254.281825	4044.704742	20252.170934
57.545000	0.116183	0.041963	0.102359	0.105189	6253.122868	37339.281714	3944.410107	18071.668544
58.044500	0.131277	0.052757	0.121359	0.156079	5994.572836	34312.530472	3875.103168	16403.538187
58.545500	0.146731	0.064017	0.143829	0.201177	5796.021710	31966.943370	3828.924958	15080.108597
59.036500	0.165041	0.074216	0.152396	0.237130	5684.124610	30300.168402	3776.160778	14119.191635
59.540000	0.177039	0.084452	0.181613	0.277157	5515.437188	28491.505890	3756.230658	13138.910930
60.044500	0.188824	0.090906	0.186084	0.304155	5428.342835	27314.641821	3716.261783	12526.957015
60.543000	0.201481	0.099777	0.200913	0.320537	5407.479226	26898.077787	3713.581426	12173.759726
61.045500	0.214909	0.110710	0.213317	0.325001	5457.992106	27256.417159	3727.384340	12079.792869
61.547500	0.223622	0.114463	0.229219	0.350641	5363.472205	26065.228481	3710.492123	11558.435911
62.050500	0.232550	0.120706	0.239565	0.390022	5202.417549	24372.098605	3662.311556	10815.261360
62.538500	0.239454	0.126254	0.243112	0.410734	5133.033952	23639.390766	3635.307851	10450.618667
63.045000	0.242273	0.131267	0.244134	0.409451	5153.416075	23940.504123	3638.873425	10472.703292
63.539500	0.243480	0.133340	0.251449	0.406756	5172.988146	24171.510927	3654.574104	10519.319724
64.037000	0.250265	0.136066	0.252178	0.407984	5201.158425	24244.571542	3653.782581	10498.047094
64.544000	0.252582	0.135928	0.254720	0.406486	5220.709546	24311.119230	3660.215591	10523.998675
65.037500	0.255030	0.138897	0.256760	0.407539	5227.903121	24405.277262	3661.796899	10505.748095
65.537500	0.257990	0.141838	0.266194	0.409713	5231.962569	24443.076398	3673.533195	10468.186083
66.041500	0.255026	0.143435	0.256309	0.414636	5191.528124	24279.630357	3649.798901	10383.849449
66.542500	0.260093	0.145427	0.262426	0.414381	5218.729898	24389.886770	3659.912421	10388.192489
67.039000	0.261528	0.147742	0.271599	0.417231	5211.467547	24363.607962	3670.097017	10339.776638
67.536500	0.264812	0.150161	0.265231	0.421104	5208.451211	24292.232077	3653.675890	10274.476978
68.039500	0.268196	0.151534	0.276648	0.422492	5218.691310	24291.540812	3669.753138	10251.223420
68.536500	0.268426	0.153815	0.271229	0.423905	5212.617282	24334.110979	3658.761320	10227.631363
69.037500	0.268178	0.152727	0.274640	0.424457	5208.518752	24253.761982	3663.340492	10218.427145
69.536500	0.268198	0.152188	0.276797	0.425550	5203.026657	24174.090792	3665.051489	10200.238591
70.035500	0.269817	0.154748	0.278722	0.428117	5198.197870	24173.761530	3664.018267	10157.730273
70.541500	0.277639	0.158059	0.278788	0.432159	5217.543305	24138.178828	3657.653338	10091.288572
71.037500	0.274231	0.158095	0.279325	0.433443	5193.556292	24077.590770	3656.462937	10070.314252
71.540500	0.277234	0.159780	0.283678	0.434475	5203.596682	24109.263850	3661.766775	10053.495752
72.039000	0.273220	0.158429	0.280705	0.437033	5170.279180	23920.285856	3652.955752	10011.977416
72.545000	0.276269	0.159938	0.281680	0.434363	5199.248195	24122.384568	3658.749597	10055.318969
73.043500	0.277427	0.161613	0.288922	0.437055	5191.443290	24073.029745	3666.052556	10011.637205
73.542000	0.278815	0.162552	0.287841	0.437193	5197.799144	24111.922084	3664.088740	10009.404199
74.045500	0.278367	0.162809	0.285038	0.440593	5178.283942	23959.808815	3654.180632	9954.627949
74.545500	0.279790	0.164621	0.285993	0.438296	5197.143098	24158.850320	3659.356520	9991.580554
75.044000	0.281766	0.163592	0.289550	0.436303	5217.454271	24205.828050	3668.280310	10023.809872
75.543000	0.280555	0.163057	0.290082	0.434893	5218.477075	24248.586579	3671.430172	10046.698343
76.041000	0.277334	0.164401	0.284052	0.438580	5183.233532	24134.333274	3655.811465	9986.998525
76.542000	0.282145	0.164616	0.288938	0.435655	5222.742457	24287.572485	3668.340042	10034.323202
77.039000	0.283948	0.164640	0.286270	0.435739	5231.612312	24284.651676	3663.900232	10032.955226
77.539000	0.282462	0.165697	0.286768	0.436586	5219.575474	24294.910233	3663.338168	10019.219991
78.044000	0.284586	0.167282	0.289049	0.439491	5215.566127	24230.373167	3662.337101	9972.336624
78.543000	0.286758	0.168641	0.288886	0.439665	5225.848322	24288.308776	3661.796296	9969.532238
79.045500	0.287498	0.169500	0.290955	0.440350	5226.133755	24296.846496	3664.017820	9958.526999
79.545500	0.284746	0.169448	0.296567	0.439946	5214.049188	24314.066352	3673.761605	9965.014487
80.041000	0.282440	0.168951	0.287016	0.442731	5188.073436	24153.750577	3653.927813	9920.407776
80.544000	0.284243	0.169758	0.283605	0.442064	5200.637412	24225.609296	3649.591234	9931.064831
81.046000	0.285927	0.168573	0.289607	0.440634	5216.577814	24237.561994	3661.397040	9953.959588
81.552500	0.286237	0.171008	0.298325	0.443900	5201.444104	24197.006387	3670.188457	9901.755739
82.040500	0.284824	0.170655	0.298386	0.445014	5188.582145	24125.577510	3668.482417	9884.037227
82.537000	0.282767	0.168869	0.294980	0.445081	5177.836943	24035.726755	3662.883845	9882.973275
83.036500	0.283151	0.167904	0.295954	0.445075	5179.806513	23989.373145	3664.458320	9883.071189
83.563000	0.284118	0.168229	0.293840	0.446613	5176.921454	23930.850678	3658.605638	9858.685544
84.100000	0.286653	0.169689	0.299219	0.447784	5183.818676	23944.818778	3665.354124	9840.179882
84.543500	0.284699	0.167629	0.298218	0.446552	5180.165366	23904.925614	3665.725804	9859.650200
85.038500	0.287413	0.167697	0.284833	0.446745	5192.943924	23898.918174	3644.173735	9856.601921
85.544000	0.287626	0.167076	0.296146	0.446478	5195.382576	23881.935990	3662.512905	9860.825119
86.038500	0.284196	0.168041	0.293704	0.447248	5174.113967	23891.260153	3657.376695	9848.641683
86.536000	0.286683	0.167723	0.296502	0.448045	5182.648240	23837.779239	3660.571709	9836.059678
87.039500	0.287859	0.167426	0.290262	0.448224	5187.695906	23814.965690	3650.373893	9833.236312
87.544000	0.285964	0.165991	0.294778	0.447024	5184.173182	23803.678146	3659.447649	9852.181031
88.042500	0.285719	0.165676	0.295720	0.447581	5180.119861	23762.009066	3660.062233	9843.380882
88.537000	0.287511	0.167427	0.289971	0.449751	5178.207606	23742.019427	3647.512620	9809.199302
89.043500	0.286894	0.166847	0.292161	0.448904	5179.370680	23754.770049	3652.300062	9822.529834
89.543000	0.285396	0.167258	0.298439	0.450137	5165.616306	23715.580363	3660.324519	9803.147081
90.035000	0.282962	0.166583	0.290060	0.453938	5134.537155	23503.358905	3641.107790	9743.735913
90.536000	0.286609	0.166189	0.296367	0.450258	5171.110131	23658.961896	3656.824925	9801.249925
91.039000	0.285811	0.167299	0.297063	0.451068	5163.027600	23673.191381	3656.643182	9788.548711
91.542500	0.285915	0.164481	0.290638	0.449742	5170.210798	23602.350809	3648.575295	9809.346998
92.039000	0.282890	0.164516	0.296579	0.453843	5134.649213	23410.505637	3651.476004	9745.210167
92.540000	0.284989	0.164430	0.298641	0.450547	5161.516788	23561.821916	3659.990262	9796.704892
93.037000	0.282384	0.165032	0.294926	0.450901	5146.742426	23573.569828	3653.515182	9791.168854
93.550000	0.288661	0.164656	0.302578	0.451038	5177.518358	23549.314642	3665.524902	9789.020014
94.041500	0.282722	0.163547	0.291100	0.454555	5130.301516	23331.749743	3641.766319	9734.140496
94.542000	0.283378	0.164142	0.298153	0.451700	5147.711029	23493.758396	3657.372117	9778.646711
95.042000	0.283926	0.162815	0.290654	0.450569	5156.084922	23484.531957	3647.299996	9796.360771
95.535000	0.285550	0.163765	0.290904	0.451620	5158.955256	23479.758326	3646.045129	9779.901765
96.036000	0.284425	0.163458	0.291789	0.456291	5130.141828	23246.615269	3640.139325	9707.226214
96.536000	0.288735	0.162998	0.289730	0.451662	5174.742344	23441.670119	3644.141493	9779.241736
