sample name	sample
index	84
start time	 02-11-2021  04:30:50 PM
880	0.441631
Peak Time (s)	91.537
Peak Height 	0.4416
calc peak height	90,93
Baseline Time (s)	11.537
Baseline Value 	-0.003146
subtract baseline	10,4
Abs	0.317290
Peak Time (s)	92.535
Peak Height 	0.3173
calc peak height	90,93
Baseline Time (s)	10.537
Baseline Value 	0.001751
subtract baseline	10,3
PK_550	0.149889
Peak Time (s)	91.537
Peak Height 	0.1499
calc peak height	90,93
Baseline Time (s)	9.039
Baseline Value 	0.00131
subtract baseline	10,2
PK_880	0.298497
Peak Time (s)	91.037
Peak Height 	0.2985
calc peak height	90,93
Baseline Time (s)	8.536
Baseline Value 	0.001782
subtract baseline	10,1


Time (s)	A880-A510	A880-A775	A880-A975	A880	I510	I775	I975	I880	
0.036000	0.001186	0.000325	0.010110	0.001370	4481.551001	19351.950706	3303.146958	10602.419925
0.536500	-0.004677	-0.001372	-0.003310	0.002533	4456.641533	19244.244640	3290.549852	10581.913808
1.037000	-0.002417	-0.001276	0.004234	0.004856	4456.420035	19160.798851	3295.011902	10541.080651
1.539000	-0.000677	-0.000432	-0.000619	0.000395	4478.381696	19360.230611	3294.675459	10619.682112
2.037500	0.001536	0.000142	0.007774	0.000437	4486.145543	19380.368128	3301.917189	10618.934128
2.537500	0.000296	0.000292	0.000076	-0.000133	4483.744687	19407.653859	3295.726343	10629.028526
3.035000	-0.004003	-0.000268	0.001601	0.002970	4457.474905	19269.263271	3294.369966	10574.205107
3.536000	-0.001876	0.000384	-0.002670	-0.000443	4477.096879	19422.903413	3293.634801	10634.533670
4.035500	0.001006	0.000522	-0.000115	-0.000209	4486.560376	19419.264001	3295.627467	10630.381159
4.536000	-0.001486	-0.000021	0.009123	-0.000406	4478.353039	19406.112008	3303.841258	10633.866332
5.036500	0.001764	-0.002303	0.007459	-0.000959	4491.974900	19340.686910	3302.864910	10643.681430
5.537000	0.001556	-0.001398	-0.001728	-0.000572	4489.837046	19360.267654	3294.553001	10636.815527
6.036500	0.003103	-0.001579	0.007102	-0.001225	4497.765916	19378.133163	3302.785348	10648.420604
6.537000	0.001128	-0.000364	-0.003408	-0.000987	4489.790503	19415.140729	3293.467707	10644.180167
7.037500	0.001470	0.000047	0.004287	0.000061	4487.258715	19391.008884	3299.202646	10625.594639
7.535500	0.003228	-0.001010	0.003588	-0.000974	4497.307949	19390.145756	3299.494764	10643.950893
8.035500	-0.000665	-0.000783	-0.004268	-0.001417	4484.903908	19415.599961	3293.100606	10651.838635
8.535500	0.000000	0.000190	-0.008413	0.000011	4482.171374	19398.342348	3288.364099	10626.481987
9.038500	-0.000637	0.000000	0.006800	0.000184	4479.279942	19384.581012	3301.286752	10623.418426
9.536000	0.000125	-0.001461	0.010841	-0.001677	4488.668981	19399.739343	3306.481041	10656.459112
10.036500	0.001915	0.000240	-0.000521	0.002283	4480.894313	19314.317043	3293.140508	10586.316681
10.536500	-0.001485	-0.000854	0.000000	-0.001066	4480.712243	19399.567112	3296.465416	10645.586256
11.037000	-0.002466	-0.000331	0.008715	-0.001515	4478.812785	19436.461316	3304.458699	10653.572362
11.537500	0.001308	0.000024	-0.002023	0.000000	4486.894871	19392.444167	3293.809107	10626.672790
12.037000	0.000905	-0.000781	0.001154	0.000959	4482.017862	19325.755339	3295.714844	10609.699436
12.535000	-0.001123	-0.001405	-0.003055	-0.002077	4485.625123	19417.029713	3294.705514	10663.574383
13.035000	0.003704	-0.001748	0.000897	-0.002684	4505.222195	19427.043256	3298.642235	10674.394204
13.536000	0.000468	-0.000431	0.000406	-0.000444	4485.473390	19392.016960	3296.278870	10634.546303
14.036000	0.001969	-0.000166	-0.003875	0.003132	4478.057824	19267.045097	3289.562832	10571.360471
14.536500	-0.003434	-0.000042	0.010233	0.002284	4461.899580	19303.646587	3302.453863	10586.299504
15.036500	0.003623	-0.000940	0.008536	0.000877	4492.059586	19322.845425	3302.199392	10611.148990
15.536500	0.000891	-0.000435	0.004493	-0.000615	4487.606106	19398.370949	3299.970501	10637.588058
16.036000	-0.004957	-0.002027	-0.007141	0.000632	4462.352754	19291.075812	3288.913770	10615.479008
16.537500	0.003767	0.000401	-0.000609	0.000586	4493.626328	19384.510809	3294.519262	10616.285679
17.035000	0.000896	-0.001039	-0.002058	-0.001642	4491.314754	19414.410847	3295.189066	10655.839540
17.535000	0.001723	-0.001077	-0.010562	0.000176	4487.753294	19344.147903	3286.415535	10623.562273
18.035500	0.000607	-0.001718	0.008415	-0.000407	4485.838667	19341.935112	3303.219910	10633.889764
18.539000	-0.000248	-0.001231	-0.003954	0.000716	4478.766884	19317.927378	3291.547614	10613.990586
19.035500	0.000960	0.000239	0.009349	0.001705	4479.545463	19336.044439	3302.185414	10596.502372
19.536500	0.002488	-0.001721	0.012304	0.000183	4490.474365	19319.543332	3306.129415	10623.430791
20.036500	0.000839	-0.000898	0.018496	0.002042	4477.914045	19280.503464	3309.984697	10590.556605
20.536500	-0.000569	-0.001930	-0.002705	-0.000014	4480.226657	19319.068005	3293.237042	10626.916774
21.037000	-0.001087	-0.002618	0.000011	-0.000529	4480.216133	19312.564601	3296.011472	10636.051871
21.534500	0.000904	-0.000143	0.001948	0.001742	4479.213833	19320.232399	3295.723485	10595.851638
22.035000	-0.000425	-0.001046	0.002019	0.000413	4479.216650	19336.373647	3296.932511	10619.363798
22.535000	-0.001228	-0.001860	-0.000460	0.000107	4477.443825	19317.167283	3295.058569	10624.774312
23.038500	0.003833	-0.000811	0.002556	0.001332	4491.181400	19310.560003	3296.602678	10603.105731
23.536000	0.001207	-0.001383	0.001982	0.000859	4483.453622	19306.775149	3296.514630	10611.461018
24.036000	-0.000899	-0.000289	-0.002190	0.000750	4476.323785	19352.223883	3293.023970	10613.387862
24.536500	0.001938	-0.000473	0.007546	0.001152	4485.024218	19330.084148	3301.092684	10606.282215
25.037000	-0.004763	-0.001045	0.009352	0.000115	4464.864384	19347.660129	3303.584911	10624.637957
25.537000	0.002877	-0.001521	0.012642	0.000288	4491.495440	19323.114061	3306.335137	10621.565009
26.037000	0.000565	-0.001196	-0.006247	0.000034	4484.107790	19344.966995	3290.177278	10626.061703
26.535000	0.000807	-0.001806	-0.001019	0.000299	4484.030021	19311.961100	3294.413844	10621.381577
27.035000	0.002717	-0.001233	-0.000723	-0.001426	4497.096728	19398.865319	3296.152263	10651.988256
27.535500	0.004043	-0.000105	0.006314	-0.001068	4500.591932	19428.063124	3301.956178	10645.624428
28.035500	-0.002115	-0.002202	-0.002946	-0.001560	4480.227349	19367.248197	3294.355094	10654.374703
28.536000	0.001795	-0.001511	0.004690	-0.000877	4491.794905	19367.533588	3300.370738	10642.240659
29.036000	-0.004045	-0.000575	-0.000770	0.000533	4465.925776	19349.616387	3294.426617	10617.238031
29.536500	0.000918	-0.000767	0.001246	-0.000469	4487.175709	19380.246234	3297.026361	10634.988911
30.037000	-0.000855	-0.000027	0.008372	-0.000079	4479.438296	19393.485989	3302.893605	10628.069072
30.537500	0.002712	-0.000815	0.002848	0.001682	4485.898105	19297.185096	3296.551898	10596.921907
31.034000	-0.001670	-0.001678	0.006850	0.001606	4470.541612	19267.583925	3300.089362	10598.264885
31.535500	-0.000780	-0.001690	0.008983	-0.001417	4484.490656	19381.199817	3304.608510	10651.828499
32.035500	0.002729	-0.000470	-0.000604	-0.000600	4494.157617	19396.456275	3295.543084	10637.308399
32.548500	0.001718	-0.000356	0.002515	-0.000233	4489.203432	19386.897277	3297.920203	10630.805116
33.069000	0.003664	-0.001952	0.003633	-0.001117	4499.397779	19359.903162	3299.658329	10646.489276
33.540000	-0.000427	-0.001900	0.001996	-0.003319	4492.585687	19445.374570	3300.150970	10685.722356
34.036500	-0.002603	-0.001999	0.004873	0.001167	4468.787563	19272.011759	3298.751405	10606.018739
34.537000	0.001634	-0.002321	-0.003641	0.000393	4486.654351	19289.015128	3292.090227	10619.717818
35.037000	-0.000138	-0.001677	0.003884	0.000584	4479.632125	19306.097837	3298.398729	10616.333598
35.534500	0.000990	-0.000850	0.001268	0.001494	4480.408876	19302.939044	3295.351650	10600.232400
36.034500	-0.001368	-0.002522	0.000294	0.001047	4473.601231	19256.866374	3294.899583	10608.145469
36.535000	0.003555	-0.000942	0.007541	0.001481	4489.644995	19299.961691	3300.800566	10600.465104
37.035500	-0.000099	-0.002446	-0.011205	0.000793	4479.025884	19269.276583	3285.358799	10612.636808
37.535500	0.000332	-0.000279	0.011068	0.001625	4477.592297	19319.557980	3303.765448	10597.924583
38.036000	-0.000435	-0.001712	-0.008395	0.001517	4475.245198	19269.629869	3287.109612	10599.830432
38.536500	-0.001909	-0.002590	0.008743	0.000222	4474.610892	19285.344643	3302.955368	10622.745734
39.036500	-0.000005	-0.001408	0.003877	0.001025	4478.531255	19299.585004	3298.010369	10608.519613
39.537000	-0.002075	-0.002345	0.011112	0.000602	4472.667213	19280.217396	3304.705510	10616.002591
40.034500	0.001729	-0.000232	0.002220	0.001587	4482.717584	19322.720308	3296.092084	10598.587231
40.534000	-0.001393	-0.001953	0.006675	0.001020	4473.607654	19279.272401	3300.447821	10608.623210
41.035500	0.002193	-0.000629	0.007671	0.001658	4484.124935	19305.082803	3300.759167	10597.337410
41.535000	0.002330	0.000159	-0.003985	0.001985	4483.446952	19322.507410	3290.442490	10591.576519
42.038500	0.004283	-0.000210	0.005822	0.002544	4488.441800	19287.505449	3298.379346	10581.715367
42.535500	0.003542	-0.001155	0.002470	0.001946	4487.927607	19274.455319	3295.998768	10592.262478
43.036000	0.003909	-0.002025	0.004824	0.001568	4490.604063	19255.927879	3298.360411	10598.929367
43.540500	-0.001697	-0.002482	0.008381	-0.000108	4476.537575	19301.807462	3302.927723	10628.587453
44.036500	-0.002792	-0.002067	0.002526	0.002557	4463.199961	19217.266108	3295.520173	10581.489010
44.537000	0.000940	-0.002580	0.004533	-0.001068	4489.406253	19334.335742	3300.400260	10645.630806
45.037500	-0.002820	-0.001145	0.000698	-0.000965	4475.591255	19384.737349	3296.981278	10643.803800
45.534500	0.004568	-0.000036	0.002616	0.000803	4495.731919	19359.788775	3297.110880	10612.457828
46.035000	0.000685	-0.000970	0.000648	0.002423	4476.006978	19263.438809	3294.021887	10583.842065
46.536000	-0.000579	-0.003109	0.002217	-0.000847	4483.167794	19306.056858	3298.193919	10641.704322
47.035500	0.003681	-0.000805	0.009277	0.001639	4489.530219	19299.209635	3302.180904	10597.680690
47.536000	-0.003481	-0.001314	0.005877	0.002030	4462.627465	19265.281907	3298.873571	10590.773697
48.036500	0.000324	0.000258	0.001566	0.003981	4469.186931	19251.035412	3293.472888	10556.430673
48.536500	-0.000487	-0.001830	0.000156	-0.000614	4482.664174	19345.506775	3296.210342	10637.563481
49.036500	0.003602	-0.002172	-0.003217	-0.000759	4497.883607	19338.088918	3293.437049	10640.143045
49.537000	0.003504	-0.001374	0.010156	-0.003522	4507.537228	19473.148427	3307.510132	10689.356035
50.034500	-0.000792	-0.000004	-0.004402	0.000914	4476.122742	19356.777913	3290.997720	10610.493444
50.535000	0.001746	-0.001046	0.003786	0.006416	4465.600372	19111.205074	3293.289338	10513.791354
51.035000	-0.043282	-0.029002	-0.001214	0.207025	3801.930629	12491.211599	3153.124187	7707.914820
51.535500	-0.004308	-0.017211	0.006939	-0.093797	4837.559650	22565.440838	3393.160221	12482.409319
52.035500	-0.008403	-0.016251	0.014904	-0.133163	4999.011451	24475.667501	3447.453724	13388.840248
52.535500	-0.003360	-0.015763	0.015920	-0.150446	5108.188220	25375.400643	3470.082154	13813.479024
53.036000	-0.011394	-0.017323	0.016622	-0.093556	4805.633094	22549.529060	3403.524149	12477.108238
53.536500	-0.009552	-0.015495	0.022780	-0.072771	4725.547329	21711.669825	3387.563663	12030.888806
54.037000	-0.004573	-0.012359	0.001228	-0.068115	4726.884816	21646.068139	3360.279201	11933.832337
54.537500	-0.002241	-0.012981	0.032932	-0.077365	4775.469777	22021.518218	3403.655938	12127.676026
55.034500	-0.000653	-0.013686	0.019381	-0.056677	4696.036402	21104.088208	3367.114307	11699.767152
55.535000	0.004518	-0.013024	0.036556	-0.035055	4630.362193	20247.966615	3362.575621	11273.786628
56.038000	0.010730	-0.011333	0.027804	-0.027494	4625.086260	20015.476041	3346.320090	11129.750023
56.535500	0.008502	-0.011262	0.014364	-0.008100	4542.725632	19272.168718	3315.396121	10771.593825
57.036000	0.015135	-0.014029	0.025249	-0.003575	4550.575202	19000.123599	3321.205596	10690.304087
57.536500	0.018154	-0.012962	0.026496	0.011011	4507.963772	18507.689892	3309.119396	10433.963175
58.036500	0.023495	-0.010724	0.037398	0.033015	4448.537855	17814.737740	3299.339392	10063.175366
58.536500	0.031428	-0.010647	0.039192	0.071787	4344.398178	16546.219350	3268.510615	9453.856365
59.037000	0.039760	-0.011891	0.048600	0.091071	4309.155129	15917.751602	3260.712003	9170.465718
59.537500	0.050780	-0.007195	0.061473	0.110914	4281.405366	15472.714280	3255.313283	8891.693860
60.035000	0.065894	-0.001194	0.096507	0.139175	4241.087131	14846.215993	3260.557682	8516.032569
60.535000	0.087092	0.007588	0.101018	0.173668	4201.536455	14161.434432	3237.949684	8089.450314
61.035500	0.111825	0.015355	0.133715	0.198142	4202.294134	13737.721671	3243.995608	7806.670724
61.535500	0.130456	0.032909	0.144189	0.234095	4152.518725	13289.558698	3225.628016	7419.124819
62.035500	0.137451	0.039422	0.155935	0.247432	4134.784401	13128.104621	3224.516282	7283.325254
62.536500	0.155293	0.046963	0.169333	0.256725	4158.751058	13087.080278	3227.392962	7191.141274
63.036500	0.167207	0.056100	0.176487	0.270088	4154.657420	12988.747650	3223.052699	7061.992445
63.542500	0.178397	0.062415	0.193454	0.282531	4151.126444	12847.872505	3226.208568	6945.252837
64.037000	0.189049	0.069800	0.210522	0.299670	4133.010589	12627.682697	3226.158459	6789.834113
64.538000	0.196394	0.076932	0.210468	0.311965	4119.369755	12513.121296	3217.621513	6682.062084
65.035000	0.206046	0.081555	0.217078	0.318948	4126.705131	12461.199701	3217.367869	6622.199378
65.538000	0.211981	0.088623	0.229829	0.329532	4113.954786	12384.384721	3218.847306	6533.277102
66.035500	0.219624	0.096458	0.239285	0.342711	4098.949341	12268.795560	3216.309772	6425.537709
66.536000	0.226118	0.100061	0.240244	0.348802	4100.035091	12215.458257	3212.847963	6376.836601
67.036000	0.235386	0.105360	0.254967	0.350334	4121.076372	12296.327606	3221.828869	6364.697112
67.536500	0.241142	0.108793	0.251731	0.355519	4122.644004	12258.634416	3216.064167	6323.919542
68.037000	0.242775	0.115491	0.262753	0.361929	4109.588710	12264.803393	3219.207487	6274.176470
68.537000	0.252685	0.121613	0.264333	0.370673	4112.762758	12208.637182	3214.338899	6207.496292
69.036500	0.256757	0.121556	0.288513	0.368588	4129.659065	12252.070276	3232.587251	6223.275357
69.535000	0.255929	0.125795	0.279386	0.373248	4114.590080	12243.052285	3222.871559	6188.121178
70.035500	0.260255	0.128369	0.279801	0.376458	4117.638137	12229.408321	3220.938469	6164.113801
70.535500	0.268816	0.129966	0.284146	0.382777	4123.789045	12128.884289	3219.581508	6117.383484
71.035500	0.268528	0.129652	0.277808	0.380470	4129.356142	12171.196697	3216.829095	6134.367821
71.535500	0.270955	0.133546	0.283927	0.384295	4125.496946	12172.647104	3218.392139	6106.255638
72.036000	0.270179	0.133416	0.277624	0.386977	4116.012006	12113.033577	3212.316178	6086.699290
72.536500	0.270954	0.136377	0.281262	0.394578	4097.502612	12015.469009	3209.675345	6031.907758
73.036500	0.273426	0.140790	0.286898	0.395132	4102.675775	12096.529778	3213.065476	6027.953267
73.534500	0.279013	0.141364	0.304581	0.397982	4110.090699	12048.630508	3223.190943	6007.678623
74.034000	0.281762	0.141187	0.298218	0.399471	4113.523944	12013.738302	3217.787781	5997.144419
74.535000	0.281539	0.142291	0.300620	0.402355	4105.083202	11976.606993	3217.459756	5976.838759
75.038000	0.283336	0.143151	0.306452	0.404344	4104.562734	11953.130158	3220.088798	5962.911521
75.535500	0.286741	0.143255	0.294157	0.405899	4109.579025	11923.053129	3210.721340	5952.067573
76.036000	0.289414	0.144264	0.293894	0.407163	4113.417321	11917.780496	3209.706519	5943.282135
76.536000	0.283874	0.147048	0.291301	0.416678	4073.070923	11779.597643	3201.786051	5877.956880
77.036500	0.286087	0.144398	0.301520	0.410913	4094.276635	11843.273979	3212.288912	5917.365328
77.536500	0.286915	0.146614	0.305405	0.415093	4085.316264	11803.056076	3212.091005	5888.733083
78.036500	0.283389	0.144749	0.299699	0.419440	4064.549348	11677.094648	3205.444854	5859.255512
78.537000	0.281109	0.146340	0.298451	0.417584	4063.443785	11746.790144	3205.843061	5871.811046
79.035000	0.290304	0.145181	0.300631	0.417763	4087.233905	11719.669960	3207.155852	5870.597984
79.535500	0.286775	0.144989	0.310274	0.419276	4073.867436	11685.235997	3212.550664	5860.363442
80.035500	0.282538	0.146200	0.304351	0.425187	4047.430357	11591.044714	3204.730793	5820.734260
80.535500	0.287395	0.146335	0.294394	0.423720	4063.833123	11623.025303	3199.250101	5830.518525
81.036000	0.289491	0.146031	0.280095	0.424452	4067.401649	11602.327534	3189.806386	5825.631777
81.536000	0.284806	0.145109	0.304752	0.424649	4054.679516	11580.017236	3205.343276	5824.318547
82.036500	0.288617	0.147565	0.303136	0.433334	4042.120579	11456.898596	3198.692994	5766.990855
82.537000	0.287523	0.147899	0.298311	0.434422	4036.542068	11442.109794	3194.946658	5759.888820
83.037000	0.291676	0.146925	0.320972	0.429529	4059.848628	11519.235250	3212.848944	5791.967523
83.534500	0.290208	0.149713	0.301697	0.431667	4050.499857	11532.095261	3198.838898	5777.906063
84.034500	0.291003	0.148925	0.294663	0.436645	4039.753173	11418.708838	3191.276958	5745.438237
84.538000	0.295431	0.147825	0.308634	0.437014	4050.180728	11390.053359	3199.855440	5743.045413
85.035500	0.292208	0.149328	0.290415	0.434378	4048.666112	11471.018217	3190.049513	5760.177354
85.535500	0.292745	0.146315	0.305718	0.431764	4056.818111	11463.179965	3201.355086	5777.271123
86.036000	0.293946	0.146589	0.318274	0.436900	4046.647184	11368.231736	3206.175149	5743.785125
86.536000	0.289923	0.147439	0.310392	0.438266	4032.866919	11358.212847	3200.180092	5734.943496
87.036500	0.294137	0.149270	0.314535	0.435915	4049.676663	11439.724919	3204.376619	5750.176478
87.537000	0.298119	0.148543	0.321608	0.435451	4061.206323	11434.588609	3209.326129	5753.193083
88.037000	0.296047	0.148628	0.306661	0.440302	4043.306135	11341.799887	3196.505658	5721.820762
88.535000	0.292150	0.146347	0.303491	0.438934	4036.834715	11324.145573	3195.367621	5730.630266
89.038000	0.294554	0.148155	0.325427	0.437227	4047.368102	11392.310956	3210.681972	5741.662184
89.535000	0.299597	0.149234	0.321164	0.438789	4056.369384	11382.935541	3206.831579	5731.567518
90.035500	0.292185	0.147077	0.307566	0.437746	4039.960293	11361.272360	3198.705164	5738.306300
90.536000	0.297515	0.149443	0.288333	0.439552	4049.008957	11372.148647	3185.602646	5726.646057
91.036500	0.298497	0.149787	0.308823	0.440874	4048.131661	11353.154870	3197.513782	5718.140217
91.536500	0.295937	0.149889	0.310753	0.441631	4039.618486	11340.487341	3198.259999	5713.286166
92.036500	0.296897	0.146588	0.316587	0.439663	4047.130151	11314.704569	3203.273974	5725.927791
92.534500	0.298416	0.149462	0.317290	0.441522	4046.255671	11334.325743	3202.525657	5713.982443
93.037500	0.293971	0.147274	0.312205	0.442037	4033.572077	11282.200698	3198.926946	5710.683108
93.534500	0.292510	0.148381	0.302949	0.443641	4025.803339	11272.646388	3192.078776	5700.425555
94.035000	0.300061	0.145671	0.304633	0.441460	4050.654209	11262.511940	3194.496535	5714.380799
94.535500	0.297128	0.146605	0.309363	0.443142	4038.802604	11248.168178	3196.418573	5703.615274
95.035500	0.294166	0.148257	0.312152	0.445517	4025.250310	11234.334497	3196.680120	5688.481772
95.536000	0.299707	0.144640	0.309642	0.443839	4043.620323	11197.361209	3196.153963	5699.163039
96.036000	0.297467	0.146243	0.315324	0.445972	4032.456681	11187.285008	3198.406660	5685.592617
