sample name	sample
index	339
start time	 03-01-2021  11:06:08 AM
880	0.345849
Peak Time (s)	92.035
Peak Height 	0.3458
calc peak height	90,93
Baseline Time (s)	9.037
Baseline Value 	-0.00398
subtract baseline	10,4
Abs	0.045522
Peak Time (s)	92.035
Peak Height 	0.04552
calc peak height	90,93
Baseline Time (s)	9.537
Baseline Value 	0.002194
subtract baseline	10,3
PK_550	0.120558
Peak Time (s)	90.537
Peak Height 	0.1206
calc peak height	90,93
Baseline Time (s)	9.537
Baseline Value 	1.0982E-6
subtract baseline	10,2
PK_880	0.129558
Peak Time (s)	91.54
Peak Height 	0.1296
calc peak height	90,93
Baseline Time (s)	9.537
Baseline Value 	5.7438E-4
subtract baseline	10,1


Time (s)	A880-A510	A880-A775	A880-A975	A880	I510	I775	I975	I880	
0.034000	-0.003552	-0.000814	-0.003216	0.006608	6841.254845	47566.987765	3950.821703	25062.703226
0.540000	-0.002402	0.000180	-0.003064	0.005873	6858.797464	47745.492709	3953.216328	25100.408000
1.037000	-0.001604	-0.000282	-0.004003	0.004271	6881.227567	47863.491097	3955.007421	25182.806089
1.537000	-0.003174	-0.000187	-0.002309	0.006290	6847.719941	47664.371185	3954.128968	25078.976308
2.035500	0.000937	-0.000526	-0.002017	0.000973	6936.349711	48181.278835	3969.392142	25353.455687
2.538500	0.000724	-0.000073	-0.000132	0.000301	6940.717171	48298.919505	3976.418768	25388.376949
3.035500	-0.000359	-0.000553	-0.001271	-0.001339	6946.021613	48420.548297	3977.800156	25473.873946
3.536000	-0.003315	-0.000769	-0.004060	0.004877	6859.567099	47750.385615	3953.216775	25151.630320
4.036500	0.000218	-0.001142	-0.006661	-0.000196	6940.631448	48239.117617	3959.914705	25414.269002
4.537000	-0.000271	-0.001116	-0.002862	-0.000434	6938.240326	48266.633861	3970.932292	25426.641103
5.037000	-0.001293	-0.000072	-0.000005	0.000586	6918.875325	48269.226086	3975.981952	25373.569490
5.537000	0.000140	-0.001008	-0.004217	0.000237	6935.775536	48207.863267	3965.391266	25391.753951
6.034500	-0.001405	-0.000668	-0.000234	-0.000279	6926.004471	48297.367181	3977.736740	25418.579376
6.535000	0.000924	-0.000070	-0.005311	0.000271	6942.903792	48302.376983	3962.314356	25389.951583
7.035000	0.000833	0.000033	-0.001912	0.000070	6943.960243	48334.319614	3972.157551	25400.423701
7.536000	0.000330	-0.000289	-0.003854	-0.000215	6941.885434	48330.454504	3967.617660	25415.267768
8.036000	-0.001214	-0.000379	-0.001447	-0.000441	6929.355451	48344.639622	3974.843312	25427.047524
8.536500	-0.000760	-0.000225	0.000228	-0.000609	6935.263269	48378.428500	3979.923474	25435.781584
9.037000	-0.001855	-0.000439	0.001611	0.000000	6919.108089	48292.139355	3982.064386	25404.062102
9.536500	0.000000	0.000000	0.000000	-0.000492	6941.372377	48389.687370	3978.969298	25429.668386
10.039500	0.002074	0.000189	-0.001026	-0.000179	6958.164037	48376.718502	3975.277805	25413.388117
10.534500	0.003994	0.000532	-0.000087	0.000038	6974.465960	48389.991382	3977.269197	25402.091310
11.034500	0.000228	0.000240	0.000164	0.000488	6934.225345	48312.142983	3976.720577	25378.691018
11.535000	-0.001202	-0.000231	-0.000628	0.000145	6923.911776	48298.784098	3975.482769	25396.516618
12.035500	-0.003563	0.000180	-0.003168	0.004298	6862.653398	47908.628347	3957.197305	25181.438533
12.535500	0.000425	0.000570	0.000280	0.000067	6940.103469	48390.864032	3978.200617	25400.592844
13.036000	0.000785	-0.000128	0.004243	-0.002420	6967.270410	48578.907870	3996.130703	25530.379324
13.536500	-0.000720	-0.000301	0.001212	-0.001480	6943.922989	48461.813901	3985.058566	25481.213649
14.036500	-0.002965	0.000395	-0.001466	0.004161	6869.521420	47945.219455	3962.192724	25188.504954
14.537000	-0.000281	0.000515	-0.000452	0.002546	6909.917820	48125.827381	3969.372690	25271.916336
15.037000	-0.000173	0.000363	-0.003343	-0.000212	6937.063861	48398.418817	3969.008447	25415.084274
15.537000	0.000870	0.000256	-0.001546	-0.001028	6954.774469	48472.902921	3976.183903	25457.640212
16.035000	-0.002935	-0.000410	-0.004354	0.003264	6878.198088	47954.766148	3956.786102	25234.816850
16.535500	0.002061	0.000997	-0.003971	-0.000541	6961.507705	48499.608990	3968.189949	25432.252372
17.038000	0.000180	0.000218	0.003866	-0.001083	6948.727418	48474.756072	3991.341454	25460.532767
17.538500	0.002242	0.000226	0.004313	-0.002987	6986.701025	48676.095183	3997.916168	25560.089025
18.036000	-0.000609	0.000415	-0.001307	0.002033	6911.663618	48168.844292	3968.436537	25298.473772
18.536000	0.001451	0.000729	0.000850	0.001895	6932.475397	48216.047078	3974.733695	25305.621381
19.036000	0.002113	0.000484	-0.001199	0.001211	6945.286514	48262.077395	3970.984880	25341.131833
19.539500	-0.000854	-0.000268	-0.002358	0.000470	6924.128877	48260.816321	3969.835878	25379.587783
20.040500	-0.001725	0.000150	0.000273	0.002225	6899.327514	48121.255259	3972.240418	25288.533417
20.537000	-0.001195	0.000258	0.000417	0.000992	6915.963191	48261.273612	3976.026277	25352.479360
21.035000	0.001512	0.000299	-0.004017	0.001141	6940.222543	48249.973945	3963.469365	25344.731884
21.538500	0.000354	0.000319	-0.001840	0.000902	6931.486240	48277.063111	3970.073153	25357.143815
22.036000	-0.001699	-0.000915	-0.002899	0.001418	6907.180098	48094.294342	3965.763238	25330.355661
22.536000	0.002075	0.000258	-0.000345	0.000973	6947.178759	48263.276910	3973.982744	25353.450753
23.036500	0.000450	0.000138	0.001638	0.000681	6934.505047	48281.237012	3980.256165	25368.642973
23.536500	-0.002239	0.000290	-0.003153	0.000957	6906.436846	48268.349755	3966.329967	25354.318067
24.039500	-0.001109	0.000286	-0.004247	0.002514	6902.412577	48105.301458	3959.110099	25273.592551
24.537000	-0.003253	-0.000721	-0.001962	-0.000095	6906.788091	48272.554271	3972.475059	25409.007239
25.037500	0.001043	0.000055	0.000452	0.000593	6940.978048	48281.844597	3977.225543	25373.232136
25.535000	-0.000791	-0.000171	-0.003383	0.000633	6923.183396	48253.917168	3966.586693	25371.129503
26.035000	-0.001758	0.000360	-0.000084	0.002275	6898.552690	48137.946468	3971.123882	25285.972778
26.535500	-0.002313	0.000295	0.000107	0.000928	6906.001657	48271.826587	3975.349259	25355.789464
27.036000	-0.003299	-0.000377	-0.001949	0.000416	6901.541704	48255.163503	3971.109146	25382.426309
27.539000	-0.001498	0.000547	-0.002914	0.001447	6908.806822	48243.982490	3965.645134	25328.880025
28.036000	0.001025	0.000964	-0.001758	-0.000951	6955.522414	48539.268327	3975.390280	25453.624056
28.536500	0.002216	0.000591	0.002509	-0.001098	6968.308531	48515.406528	3987.600902	25461.275275
29.063500	0.001420	0.000104	-0.001928	-0.001466	6964.218153	48502.961639	3976.337622	25480.490839
29.540000	-0.000063	-0.000111	-0.005633	0.001219	6924.524045	48198.932600	3958.862393	25340.673376
30.037500	0.002045	0.001215	0.002017	-0.000799	6963.812411	48549.602068	3985.403719	25445.666078
30.535500	-0.000734	0.000128	-0.000459	-0.001672	6945.615624	48527.147848	3980.961517	25491.252155
31.035500	0.002699	0.001291	-0.000334	-0.000716	6969.282717	48548.928656	3978.665681	25441.346378
31.538500	-0.002855	-0.000295	-0.002958	0.002118	6889.700326	48085.985560	3963.692439	25294.059082
32.036500	-0.001579	0.000122	-0.004213	0.003535	6888.383196	47981.949358	3956.431929	25220.805263
32.537000	0.001588	0.000616	0.001372	-0.000935	6960.739601	48500.896652	3983.991536	25452.767961
33.037000	-0.000304	0.000755	0.001176	-0.001365	6946.794016	48560.878718	3984.641356	25475.245863
33.539500	-0.001438	0.000276	0.001296	0.000341	6919.831774	48331.315289	3980.249400	25386.338114
34.037500	-0.002378	0.000592	-0.000093	0.004771	6869.304764	47902.289007	3964.273438	25157.076930
34.537000	0.003471	0.000667	0.001610	-0.001877	6987.838654	48605.443266	3987.267316	25501.962483
35.035000	-0.000468	0.000306	-0.002836	0.000994	6922.824543	48266.074598	3967.097151	25352.386922
35.536500	-0.002268	-0.000035	0.005082	0.001083	6904.967488	48221.066474	3988.691222	25347.737452
36.035500	-0.000976	0.000551	0.000960	0.002694	6901.968642	48114.142586	3972.839079	25264.277335
36.535500	-0.002936	0.000182	-0.006301	0.000640	6902.856265	48290.236216	3958.621521	25370.787093
37.036000	-0.001228	-0.000063	-0.005615	0.000874	6916.758519	48240.042746	3959.847382	25358.586900
37.536000	-0.000932	-0.000186	0.001043	0.000843	6919.858850	48230.407008	3978.165604	25360.232160
38.037000	0.000134	0.000318	-0.001486	0.002485	6914.412260	48111.664675	3966.709685	25275.088793
38.537000	-0.001033	-0.000269	-0.003206	0.001034	6917.093904	48201.790292	3965.976173	25350.293761
39.037000	-0.001643	0.000199	-0.002462	0.001004	6911.618014	48253.869670	3968.092657	25351.879944
39.537500	-0.001031	0.000416	-0.002073	0.001298	6914.629311	48245.866256	3968.352912	25336.621246
40.035000	-0.001360	-0.000522	-0.003946	0.001697	6907.749036	48106.200787	3962.149896	25315.924118
40.535500	0.001564	0.000820	-0.002847	0.001700	6935.407048	48246.074009	3965.137690	25315.748147
41.036000	-0.001588	-0.000406	-0.000423	0.000696	6915.048789	48222.840743	3974.529712	25367.856098
41.536000	-0.001217	0.000632	0.002497	0.001245	6913.368556	48273.911916	3981.071513	25339.352807
42.036500	-0.000690	0.000006	-0.000596	0.002367	6907.744836	48091.321054	3969.467504	25281.161620
42.539000	-0.001658	-0.000176	0.001471	0.001047	6911.075065	48210.174294	3978.782890	25349.652925
43.039500	-0.000250	0.000649	-0.002416	0.001816	6917.111641	48216.057662	3965.998258	25309.742036
43.534500	-0.000707	0.000382	0.001898	0.001389	6916.817661	48232.695458	3979.016928	25331.859480
44.037500	-0.000518	0.000896	-0.002532	0.003128	6902.189745	48104.837319	3962.101353	25241.797570
44.537000	0.000196	-0.000145	-0.003650	0.000518	6933.638966	48268.730580	3966.172496	25377.102971
45.035000	0.002130	0.000582	0.003648	-0.003234	6988.001208	48739.788951	3996.744615	25573.054074
45.535500	0.001357	0.000355	0.000006	-0.000291	6952.393871	48405.952562	3978.432401	25419.228545
46.060000	-0.001865	0.000426	-0.001660	0.003887	6882.392618	47976.891948	3962.410753	25202.647274
46.536500	0.001230	0.000227	0.001424	-0.001555	6963.248414	48525.277724	3985.855339	25485.139712
47.036000	0.001214	0.000813	-0.001397	-0.000869	6956.541809	48514.690984	3976.157911	25449.339100
47.536000	-0.000465	0.000722	0.005516	-0.000144	6933.655814	48428.988110	3993.325926	25411.583733
48.036500	-0.003373	0.000200	-0.000412	0.003427	6872.571453	48001.177273	3967.069729	25226.363229
48.534000	-0.000162	0.000550	-0.001308	0.001784	6918.241019	48208.990710	3969.113175	25311.364467
49.037500	-0.000155	0.000239	0.002395	0.001565	6920.383666	48199.434312	3979.905073	25322.752994
49.558000	0.000640	0.000684	0.002149	0.000186	6941.015055	48390.329983	3983.038255	25394.367595
50.035000	-0.003917	-0.000477	-0.007367	0.002948	6871.963581	47980.643367	3949.497482	25251.106201
50.544000	0.000246	0.000211	0.000972	-0.001125	6949.749580	48478.418555	3983.410382	25462.713067
51.036000	0.002494	-0.000040	0.001394	-0.002923	6988.498504	48641.262065	3989.576819	25556.711152
51.536500	0.003220	0.000924	0.002682	-0.000130	6968.659430	48448.785652	3985.394561	25410.835597
52.036500	-0.002141	-0.000463	-0.001097	0.005539	6864.346725	47713.501225	3959.450381	25117.564306
52.539500	-0.009584	-0.009269	-0.000863	0.307736	4796.888687	24761.073281	3368.359327	13927.465052
53.037000	-0.115810	-0.008045	-0.205310	0.136570	5117.507890	35448.580223	3324.940812	19304.306555
53.537500	-0.151776	-0.028693	-0.230983	-0.104686	6512.551185	57040.841334	3675.353896	31566.282717
54.035000	-0.089285	-0.181759	-0.165543	-0.320966	9845.994627	65535.000000	4493.016234	50134.754852
54.535000	0.000293	-0.132616	-0.066189	-0.271823	10532.626256	65535.000000	4702.991967	45070.155983
55.035500	0.031706	0.020518	-0.028547	-0.091614	8292.101627	61745.002332	4164.820620	30713.251102
55.535500	0.044806	0.055637	-0.012733	-0.026680	7675.225492	57835.887732	4016.702449	26836.384977
56.036500	0.060738	0.063332	-0.009073	-0.042113	8039.679231	60844.869688	4072.295076	27706.020438
56.536000	0.100994	0.072665	0.025176	-0.042533	8553.244861	62162.383627	4179.702733	27730.101005
57.039500	0.122389	0.093374	0.050151	0.003391	8237.813843	58815.537244	4113.778246	25228.232318
57.536500	0.129618	0.107658	0.058898	0.088378	7347.874882	50404.082072	3899.003368	21241.526092
58.037000	0.127569	0.119500	0.054435	0.131937	6895.393168	47053.382042	3781.843508	19481.340105
58.537500	0.137273	0.130502	0.059005	0.183545	6519.534674	43105.768453	3678.984228	17612.011135
59.035000	0.145142	0.141750	0.066488	0.221175	6273.783012	40731.835688	3618.683722	16382.408082
59.535000	0.155001	0.146343	0.071938	0.237389	6223.448250	39730.974391	3598.147505	15884.548780
60.035500	0.157534	0.147238	0.075842	0.264314	6036.964102	37584.018726	3555.897598	15097.807618
60.535500	0.156440	0.146658	0.076954	0.290008	5843.877699	35543.678214	3513.188790	14391.187439
61.036500	0.154893	0.147363	0.066881	0.308785	5705.127797	34210.275331	3466.053013	13900.604707
61.536500	0.154191	0.147558	0.063620	0.332487	5546.875045	32556.764068	3424.743546	13310.866807
62.036500	0.150019	0.148585	0.068103	0.351454	5404.827277	31353.777600	3403.589373	12861.595668
62.537000	0.152447	0.147860	0.070428	0.351490	5419.159681	31303.774141	3406.884828	12860.753772
63.037000	0.152528	0.151762	0.061599	0.329436	5555.642872	33057.602560	3426.275571	13384.991431
63.535000	0.145937	0.155769	0.060970	0.325682	5537.761409	33602.646069	3430.944015	13476.912356
64.035000	0.148475	0.154457	0.064917	0.308428	5664.988272	34753.290493	3463.519318	13909.733907
64.534500	0.145180	0.153871	0.054064	0.313263	5612.028143	34357.341536	3439.262242	13786.718395
65.041500	0.148304	0.155469	0.058569	0.314710	5622.870729	34368.307417	3443.922491	13750.156447
65.536000	0.147475	0.153165	0.058171	0.316856	5603.658154	34046.703093	3440.042869	13696.156456
66.036500	0.147070	0.154169	0.067501	0.318434	5590.932068	34005.531843	3451.935002	13656.647719
66.539500	0.148742	0.153472	0.066815	0.318053	5604.113205	33982.860367	3451.462794	13666.179247
67.037000	0.149920	0.153125	0.066633	0.319657	5601.372123	33843.183473	3448.705578	13626.104569
67.536500	0.151974	0.152356	0.059831	0.320727	5607.700210	33712.092730	3436.689179	13599.448233
68.037000	0.150470	0.151760	0.058637	0.327678	5553.742277	33180.049473	3424.486217	13427.941486
68.535000	0.151289	0.149198	0.059356	0.321645	5597.388567	33423.567836	3434.585089	13576.630418
69.035000	0.150192	0.148512	0.065826	0.322986	5581.787700	33281.165671	3442.366263	13543.420084
69.535500	0.148608	0.148056	0.066572	0.323018	5571.483221	33246.938839	3443.454638	13542.612206
70.036000	0.146002	0.147060	0.059593	0.328517	5520.406196	32795.394451	3424.659250	13407.414763
70.536000	0.147658	0.145279	0.062126	0.322167	5570.858649	33112.368316	3437.985359	13563.705345
71.036000	0.147572	0.146052	0.061611	0.323532	5561.639032	33071.089034	3435.140698	13529.903171
71.537000	0.147409	0.144989	0.063794	0.322398	5567.799525	33076.034822	3440.166085	13557.962862
72.036500	0.142698	0.142526	0.064512	0.327400	5506.786757	32560.496975	3433.683345	13434.733480
72.537000	0.144643	0.143304	0.062724	0.321706	5554.661224	33006.926329	3439.592075	13575.126988
73.034500	0.148019	0.143438	0.057019	0.322818	5569.008105	32939.028265	3429.315971	13547.559780
73.535000	0.145668	0.142486	0.068850	0.321262	5563.958215	32980.958034	3449.648118	13586.140981
74.035500	0.140589	0.141787	0.050474	0.327891	5490.690817	32476.459091	3412.170936	13422.734378
74.535500	0.142397	0.140252	0.055617	0.321256	5543.325789	32826.630051	3429.554657	13586.289731
75.036000	0.144335	0.139520	0.059841	0.323666	5540.356242	32610.430763	3432.274915	13526.589340
75.536500	0.146609	0.140597	0.060978	0.324253	5550.995167	32644.100365	3433.101588	13512.115745
76.039000	0.140184	0.138120	0.056612	0.329899	5475.826828	32091.542117	3418.213623	13373.708762
76.537000	0.143990	0.138412	0.052516	0.325738	5525.206178	32393.189541	3418.308436	13475.538033
77.037000	0.142219	0.136810	0.056593	0.326674	5508.323607	32220.865458	3422.942091	13452.531286
77.537500	0.143185	0.136457	0.050809	0.328139	5505.224313	32098.066486	3412.296941	13416.661247
78.035000	0.140008	0.134264	0.045823	0.335208	5442.354084	31480.401545	3394.981507	13245.195927
78.535500	0.142107	0.135626	0.054305	0.331558	5477.447623	31813.029026	3412.408813	13333.373825
79.035500	0.141178	0.133613	0.051492	0.334181	5455.714376	31505.282058	3404.540467	13269.951019
79.535500	0.139981	0.133761	0.046956	0.332570	5458.238357	31621.666927	3400.347176	13308.855078
80.036000	0.136857	0.130334	0.049608	0.337833	5407.570632	31051.222460	3396.627280	13182.245021
80.537000	0.141001	0.132627	0.052283	0.333480	5458.911251	31486.458680	3406.689865	13286.856422
81.036500	0.136433	0.132044	0.053970	0.337702	5405.817719	31171.176301	3403.042629	13185.388327
81.536500	0.139990	0.130799	0.053036	0.334252	5448.055918	31315.451483	3406.663717	13268.239762
82.037500	0.132506	0.129510	0.044282	0.339744	5370.369724	30874.045919	3386.433975	13136.655697
82.534500	0.139451	0.130455	0.050369	0.334033	5446.106211	31307.183571	3403.139473	13273.499601
83.035000	0.135809	0.130154	0.050471	0.338787	5395.616208	30977.653963	3396.497609	13159.456931
83.535000	0.137591	0.130077	0.047235	0.334933	5429.403535	31223.506718	3397.376131	13251.828401
84.035500	0.138926	0.129044	0.043707	0.334531	5439.902832	31182.306593	3392.947665	13261.505701
84.535500	0.137140	0.128619	0.043504	0.334768	5427.682441	31139.114779	3392.326093	13255.801993
85.036000	0.130694	0.127893	0.052110	0.338381	5367.721678	30857.636420	3399.408096	13169.145299
85.539500	0.137704	0.128263	0.049682	0.335776	5425.000452	31050.302166	3399.661362	13231.537427
86.036500	0.132786	0.125659	0.038242	0.340515	5367.480763	30577.195031	3376.994391	13118.318935
86.537000	0.133145	0.125256	0.054651	0.334853	5403.197095	30915.210137	3408.128506	13253.755788
87.037000	0.130534	0.124991	0.041859	0.340410	5354.855668	30541.221653	3382.133682	13120.803472
87.535000	0.130707	0.123843	0.047186	0.335834	5382.849360	30760.837952	3396.027433	13230.163433
88.035000	0.127853	0.122500	0.042307	0.342961	5324.371098	30221.323115	3379.225450	13060.346917
88.535500	0.130355	0.122986	0.040398	0.336634	5376.031883	30654.390819	3385.352744	13210.946845
89.035500	0.125523	0.120865	0.037143	0.341588	5318.836659	30204.758195	3374.014636	13092.833455
89.536000	0.130887	0.121376	0.043216	0.337989	5371.174785	30465.157191	3387.397774	13178.525402
90.039000	0.126608	0.119346	0.034708	0.344567	5307.912599	29922.734288	3366.653443	13022.463766
90.536500	0.129467	0.120558	0.044630	0.339353	5354.799787	30326.554199	3387.466818	13145.952414
91.036500	0.128818	0.120029	0.043724	0.339908	5347.751276	30258.055361	3385.425317	13132.741633
91.540000	0.129558	0.118995	0.041043	0.340017	5351.446040	30185.950693	3381.547949	13130.154430
92.035000	0.126242	0.117038	0.045522	0.345849	5298.448212	29699.648975	3379.675573	12992.310135
92.535000	0.125931	0.116979	0.044441	0.339953	5330.670478	30063.296705	3386.364328	13131.677711
93.035000	0.127201	0.117023	0.045606	0.340907	5332.502741	30006.246747	3386.657788	13108.992408
93.535500	0.128196	0.115745	0.041075	0.341173	5336.743567	29909.794113	3379.992031	13102.672978
94.036000	0.126167	0.116341	0.042536	0.342507	5317.248820	29863.815340	3380.167835	13071.083297
94.536000	0.129139	0.116544	0.033238	0.342778	5332.895192	29859.581325	3367.084562	13064.669985
95.036500	0.120770	0.114971	0.039894	0.348308	5253.398673	29421.067311	3368.608170	12934.750672
95.552500	0.126702	0.114023	0.037828	0.342915	5317.981350	29694.647523	3373.137009	13061.426030
96.050500	0.124274	0.115089	0.038192	0.344455	5295.158005	29665.321470	3371.532100	13025.089775
96.534500	0.126567	0.114020	0.035772	0.344419	5308.530451	29601.587089	3368.292762	13025.938560
97.034500	0.120904	0.112527	0.029887	0.349756	5246.018483	29183.851795	3353.282922	12901.025562
97.534500	0.125949	0.113801	0.041680	0.346062	5295.549764	29487.006188	3374.101789	12987.323816
98.035500	0.125127	0.113241	0.039626	0.346615	5287.691597	29418.826285	3370.544856	12974.360332
98.535500	0.124669	0.111375	0.036142	0.346017	5288.488358	29341.282430	3366.632029	12988.380611
