sample name	sample
index	1249
start time	 04-29-2021  12:42:49 PM


Wavelength (nm)	Absorbance
494.344910	-0.363929
494.563924	-0.363929
494.782919	-0.363929
495.001897	-0.425331
495.220856	0.026424
495.439797	0.206878
495.658719	0.202302
495.877624	0.212525
496.096510	0.279636
496.315378	0.159848
496.534227	0.098674
496.753059	-0.008874
496.971872	-0.036149
497.190667	0.055377
497.409444	0.056651
497.628203	0.058835
497.846943	0.059889
498.065665	0.060501
498.284369	0.061177
498.503055	0.061997
498.721723	0.062537
498.940372	0.061684
499.159003	0.060665
499.377616	0.060366
499.596210	0.061671
499.814787	0.061678
500.033345	0.062203
500.251885	0.063451
500.470406	0.061544
500.688910	0.061004
500.907395	0.062218
501.125862	0.063490
501.344311	0.064644
501.562742	0.063649
501.781154	0.063260
501.999548	0.063103
502.217924	0.060589
502.436282	0.061066
502.654621	0.061046
502.872942	0.060282
503.091245	0.058967
503.309530	0.057663
503.527797	0.057908
503.746045	0.059009
503.964275	0.058311
504.182487	0.060165
504.400681	0.061013
504.618856	0.060496
504.837013	0.060281
505.055152	0.061176
505.273273	0.061519
505.491376	0.060683
505.709460	0.060102
505.927526	0.059478
506.145574	0.059126
506.363604	0.059865
506.581615	0.059882
506.799608	0.059621
507.017583	0.059046
507.235540	0.059133
507.453478	0.059460
507.671399	0.059838
507.889301	0.060481
508.107185	0.060139
508.325050	0.059885
508.542898	0.059621
508.760727	0.060368
508.978538	0.060799
509.196330	0.060349
509.414105	0.060112
509.631861	0.059706
509.849599	0.059839
510.067319	0.059677
510.285021	0.058585
510.502704	0.058675
510.720369	0.058651
510.938016	0.058717
511.155645	0.058667
511.373255	0.059539
511.590848	0.059965
511.808422	0.060095
512.025977	0.060907
512.243515	0.060155
512.461034	0.060707
512.678536	0.060709
512.896018	0.060964
513.113483	0.061500
513.330930	0.060617
513.548358	0.060202
513.765768	0.059384
513.983160	0.059117
514.200533	0.060088
514.417889	0.060521
514.635226	0.060011
514.852545	0.060144
515.069845	0.059883
515.287128	0.059859
515.504392	0.060129
515.721638	0.060750
515.938866	0.060678
516.156075	0.060528
516.373267	0.059811
516.590440	0.060155
516.807594	0.060276
517.024731	0.060584
517.241850	0.060734
517.458950	0.060508
517.676032	0.060193
517.893095	0.060212
518.110141	0.060684
518.327168	0.060285
518.544177	0.060302
518.761168	0.060054
518.978141	0.059251
519.195095	0.059604
519.412031	0.059632
519.628949	0.059831
519.845849	0.059291
520.062731	0.058836
520.279594	0.059518
520.496439	0.058608
520.713266	0.058385
520.930074	0.058596
521.146865	0.058620
521.363637	0.057943
521.580391	0.058214
521.797127	0.058163
522.013844	0.058290
522.230543	0.058208
522.447224	0.058736
522.663887	0.059015
522.880532	0.059187
523.097158	0.059249
523.313766	0.059617
523.530356	0.059584
523.746928	0.059966
523.963481	0.059952
524.180017	0.059866
524.396534	0.060188
524.613032	0.060135
524.829513	0.060345
525.045975	0.059807
525.262420	0.060015
525.478845	0.059972
525.695253	0.059660
525.911643	0.059838
526.128014	0.059456
526.344367	0.059412
526.560702	0.059849
526.777018	0.058871
526.993316	0.059642
527.209597	0.059710
527.425858	0.059955
527.642102	0.060528
527.858328	0.060989
528.074535	0.061315
528.290724	0.061067
528.506894	0.060125
528.723047	0.061146
528.939181	0.060921
529.155297	0.060354
529.371395	0.059843
529.587475	0.059608
529.803536	0.058408
530.019579	0.058070
530.235604	0.058155
530.451611	0.057667
530.667600	0.057206
530.883570	0.057251
531.099522	0.057506
531.315456	0.057578
531.531372	0.057663
531.747269	0.057912
531.963148	0.057859
532.179009	0.057910
532.394852	0.058337
532.610676	0.058533
532.826482	0.058243
533.042271	0.058583
533.258040	0.058861
533.473792	0.058598
533.689525	0.059175
533.905240	0.059469
534.120937	0.059731
534.336616	0.060141
534.552277	0.060259
534.767919	0.060652
534.983543	0.060700
535.199149	0.060219
535.414736	0.060492
535.630306	0.060119
535.845857	0.060372
536.061390	0.060714
536.276904	0.060678
536.492401	0.060568
536.707879	0.060126
536.923339	0.060078
537.138781	0.060416
537.354204	0.060177
537.569610	0.060159
537.784997	0.059889
538.000366	0.059368
538.215716	0.059253
538.431049	0.058725
538.646363	0.058805
538.861659	0.058693
539.076937	0.058620
539.292196	0.058815
539.507438	0.059014
539.722661	0.059122
539.937866	0.059494
540.153052	0.059587
540.368221	0.060128
540.583371	0.060272
540.798503	0.060123
541.013617	0.059892
541.228712	0.059797
541.443789	0.059584
541.658848	0.059567
541.873889	0.059020
542.088912	0.058818
542.303916	0.059167
542.518902	0.058860
542.733870	0.059221
542.948820	0.059106
543.163752	0.059192
543.378665	0.059559
543.593560	0.059623
543.808437	0.059933
544.023295	0.060562
544.238136	0.060437
544.452958	0.060470
544.667762	0.060132
544.882548	0.060470
545.097315	0.060345
545.312064	0.060314
545.526795	0.060172
545.741508	0.060083
545.956203	0.059396
546.170879	0.058987
546.385537	0.059321
546.600177	0.059209
546.814799	0.059438
547.029402	0.059352
547.243988	0.058827
547.458555	0.058691
547.673103	0.058907
547.887634	0.059324
548.102146	0.059365
548.316640	0.059028
548.531116	0.059228
548.745574	0.059026
548.960013	0.058746
549.174435	0.059384
549.388838	0.060066
549.603222	0.059724
549.817589	0.059608
550.031937	0.059825
550.246267	0.060047
550.460579	0.060003
550.674873	0.060197
550.889148	0.060435
551.103405	0.060223
551.317644	0.060324
551.531865	0.060456
551.746068	0.060301
551.960252	0.060273
552.174418	0.060423
552.388566	0.060298
552.602696	0.060077
552.816807	0.060272
553.030900	0.060433
553.244975	0.059871
553.459032	0.059910
553.673070	0.060268
553.887091	0.059969
554.101093	0.059586
554.315077	0.059755
554.529042	0.059820
554.742990	0.059545
554.956919	0.059693
555.170830	0.060082
555.384722	0.060034
555.598597	0.060183
555.812453	0.060518
556.026291	0.060527
556.240111	0.060496
556.453913	0.060336
556.667696	0.060464
556.881461	0.060022
557.095208	0.059521
557.308937	0.059468
557.522647	0.059083
557.736339	0.059294
557.950013	0.059405
558.163669	0.059337
558.377307	0.059562
558.590926	0.059574
558.804527	0.059826
559.018110	0.060069
559.231675	0.060327
559.445221	0.060611
559.658749	0.060314
559.872259	0.060354
560.085751	0.060677
560.299225	0.060677
560.512680	0.060657
560.726117	0.060660
560.939536	0.060477
561.152937	0.060319
561.366319	0.059933
561.579683	0.060020
561.793029	0.060179
562.006357	0.059897
562.219667	0.060075
562.432958	0.060138
562.646231	0.060064
562.859486	0.060216
563.072723	0.060110
563.285941	0.060609
563.499141	0.060673
563.712323	0.060694
563.925487	0.060758
564.138632	0.060460
564.351760	0.060536
564.564869	0.060391
564.777960	0.060414
564.991032	0.060416
565.204087	0.060049
565.417123	0.059915
565.630141	0.059812
565.843140	0.059841
566.056122	0.059882
566.269085	0.059859
566.482030	0.060319
566.694957	0.060592
566.907866	0.060778
567.120756	0.060932
567.333628	0.060941
567.546482	0.060827
567.759318	0.060863
567.972135	0.060451
568.184935	0.060381
568.397716	0.060008
568.610478	0.059845
568.823223	0.059727
569.035949	0.059610
569.248657	0.059747
569.461347	0.059648
569.674019	0.059771
569.886672	0.060288
570.099308	0.060393
570.311925	0.060311
570.524523	0.060205
570.737104	0.060324
570.949666	0.060328
571.162210	0.060375
571.374736	0.060732
571.587244	0.060357
571.799733	0.060411
572.012205	0.060566
572.224658	0.060813
572.437092	0.060701
572.649509	0.060735
572.861907	0.060863
573.074287	0.060947
573.286649	0.060687
573.498993	0.060984
573.711318	0.060781
573.923625	0.060733
574.135914	0.061091
574.348185	0.061434
574.560438	0.061383
574.772672	0.061252
574.984888	0.061359
575.197086	0.061380
575.409266	0.061355
575.621427	0.061394
575.833570	0.061270
576.045695	0.060622
576.257802	0.060457
576.469890	0.060265
576.681961	0.060686
576.894013	0.060529
577.106046	0.060486
577.318062	0.060749
577.530059	0.060793
577.742039	0.060492
577.954000	0.060538
578.165942	0.060415
578.377867	0.060651
578.589773	0.060561
578.801661	0.060493
579.013531	0.060716
579.225382	0.060399
579.437216	0.060097
579.649031	0.060507
579.860828	0.060683
580.072606	0.060639
580.284367	0.060492
580.496109	0.060287
580.707833	0.060247
580.919539	0.060441
581.131227	0.060690
581.342896	0.061146
581.554547	0.060937
581.766180	0.060966
581.977795	0.061043
582.189391	0.061371
582.400969	0.061248
582.612529	0.061378
582.824071	0.060972
583.035595	0.060684
583.247100	0.060662
583.458587	0.060657
583.670056	0.060546
583.881506	0.060500
584.092939	0.060268
584.304353	0.059955
584.515749	0.059693
584.727127	0.059981
584.938486	0.059861
585.149828	0.059802
585.361151	0.059942
585.572456	0.060041
585.783742	0.059989
585.995011	0.059771
586.206261	0.060110
586.417493	0.060238
586.628706	0.060188
586.839902	0.060516
587.051079	0.060416
587.262238	0.060336
587.473379	0.060221
587.684502	0.060435
587.895606	0.060928
588.106692	0.060656
588.317760	0.060751
588.528810	0.060892
588.739841	0.060912
588.950855	0.061067
589.161850	0.061170
589.372827	0.061198
589.583785	0.061081
589.794726	0.060784
590.005648	0.060938
590.216552	0.060522
590.427437	0.059964
590.638305	0.059766
590.849154	0.059565
591.059985	0.059514
591.270798	0.059656
591.481592	0.059740
591.692369	0.059828
591.903127	0.060075
592.113867	0.060447
592.324588	0.060938
592.535292	0.060767
592.745977	0.060785
592.956644	0.060621
593.167293	0.060707
593.377923	0.060550
593.588536	0.060371
593.799130	0.060316
594.009706	0.060400
594.220263	0.060187
594.430803	0.060174
594.641324	0.060176
594.851827	0.060372
595.062312	0.060497
595.272778	0.060665
595.483227	0.060674
595.693657	0.060773
595.904069	0.060526
596.114462	0.060583
596.324838	0.060939
596.535195	0.061242
596.745534	0.060765
596.955855	0.060789
597.166157	0.060740
597.376441	0.060969
597.586707	0.060974
597.796955	0.061039
598.007185	0.061057
598.217396	0.060987
598.427589	0.060990
598.637764	0.061476
598.847921	0.060994
599.058060	0.060868
599.268180	0.060649
599.478282	0.060567
599.688366	0.060696
599.898431	0.060759
600.108479	0.060870
600.318508	0.060575
600.528519	0.060589
600.738511	0.060766
600.948486	0.060972
601.158442	0.061284
601.368380	0.061227
601.578300	0.061224
601.788202	0.061066
601.998085	0.060894
602.207950	0.060884
602.417797	0.060809
602.627626	0.060855
602.837436	0.060647
603.047228	0.060182
603.257002	0.060066
603.466758	0.059950
603.676496	0.060096
603.886215	0.060069
604.095916	0.060348
604.305599	0.060143
604.515264	0.060109
604.724910	0.060019
604.934538	0.060117
605.144148	0.060139
605.353740	0.060367
605.563314	0.060272
605.772869	0.060331
605.982406	0.060169
606.191925	0.059975
606.401425	0.059868
606.610908	0.059879
606.820372	0.059962
607.029818	0.059909
607.239246	0.059867
607.448655	0.060130
607.658047	0.060019
607.867420	0.059885
608.076775	0.060340
608.286111	0.060402
608.495430	0.060596
608.704730	0.060802
608.914012	0.060921
609.123275	0.060753
609.332521	0.060472
609.541748	0.060492
609.750957	0.060331
609.960148	0.060278
610.169321	0.060226
610.378475	0.060230
610.587611	0.060030
610.796729	0.060009
611.005829	0.059994
611.214910	0.059984
611.423974	0.060123
611.633019	0.060272
611.842045	0.060206
612.051054	0.060216
612.260044	0.060265
612.469017	0.060570
612.677970	0.060894
612.886906	0.060781
613.095824	0.060704
613.304723	0.060561
613.513604	0.060652
613.722467	0.060704
613.931311	0.060667
614.140138	0.060634
614.348946	0.060204
614.557736	0.059979
614.766507	0.059960
614.975261	0.060012
615.183996	0.059855
615.392713	0.059976
615.601412	0.059795
615.810092	0.059698
616.018754	0.059410
616.227399	0.059378
616.436024	0.059264
616.644632	0.059224
616.853222	0.059260
617.061793	0.059218
617.270346	0.059091
617.478880	0.059235
617.687397	0.059457
617.895895	0.059649
618.104375	0.059914
618.312837	0.060102
618.521281	0.060075
618.729706	0.059911
618.938113	0.060235
619.146502	0.060181
619.354873	0.060067
619.563226	0.059845
619.771560	0.059663
619.979876	0.059395
620.188174	0.059152
620.396453	0.059060
620.604715	0.058886
620.812958	0.058741
621.021183	0.058775
621.229390	0.058855
621.437578	0.059151
621.645748	0.059308
621.853900	0.059461
622.062034	0.059450
622.270150	0.059417
622.478247	0.059908
622.686326	0.059902
622.894387	0.059985
623.102430	0.060044
623.310454	0.059832
623.518461	0.059972
623.726449	0.060105
623.934418	0.060098
624.142370	0.060475
624.350303	0.060261
624.558218	0.060169
624.766115	0.060032
624.973994	0.059955
625.181855	0.060307
625.389697	0.060056
625.597521	0.060023
625.805327	0.060019
626.013114	0.059975
626.220883	0.059997
626.428634	0.060166
626.636367	0.060219
626.844082	0.060196
627.051778	0.060099
627.259457	0.060309
627.467117	0.060191
627.674758	0.060481
627.882382	0.060372
628.089987	0.060491
628.297574	0.060680
628.505143	0.060599
628.712694	0.060939
628.920226	0.060718
629.127740	0.060762
629.335236	0.060570
629.542714	0.060410
629.750174	0.060386
629.957615	0.060357
630.165038	0.060300
630.372443	0.060341
630.579829	0.059873
630.787198	0.059744
630.994548	0.059719
631.201880	0.060019
631.409194	0.060093
631.616489	0.060286
631.823766	0.060171
632.031025	0.059937
632.238266	0.060083
632.445489	0.060213
632.652693	0.060355
632.859879	0.060255
633.067047	0.060136
633.274197	0.060127
633.481329	0.060080
633.688442	0.059950
633.895537	0.060048
634.102614	0.059783
634.309672	0.059902
634.516713	0.060065
634.723735	0.060152
634.930739	0.060253
635.137724	0.060292
635.344692	0.060336
635.551641	0.060762
635.758572	0.060866
635.965485	0.061082
636.172379	0.061036
636.379256	0.060868
636.586114	0.060821
636.792954	0.060980
636.999775	0.060838
637.206579	0.060843
637.413364	0.060626
637.620131	0.060566
637.826880	0.060459
638.033610	0.060292
638.240323	0.060187
638.447017	0.060202
638.653692	0.060063
638.860350	0.060307
639.066990	0.060133
639.273611	0.060212
639.480214	0.060362
639.686798	0.060483
639.893365	0.060673
640.099913	0.060954
640.306443	0.061050
640.512955	0.061159
640.719449	0.060872
640.925924	0.061231
641.132381	0.061192
641.338820	0.061140
641.545241	0.061050
641.751644	0.061356
641.958028	0.061188
642.164394	0.061216
642.370742	0.061249
642.577071	0.061601
642.783383	0.061363
642.989676	0.061484
643.195951	0.061457
643.402207	0.061511
643.608446	0.061406
643.814666	0.061789
644.020868	0.061726
644.227052	0.061645
644.433218	0.061621
644.639365	0.061728
644.845494	0.061822
645.051605	0.061813
645.257698	0.061989
645.463772	0.061883
645.669828	0.061601
645.875866	0.061616
646.081886	0.061590
646.287888	0.061623
646.493871	0.061677
646.699836	0.061493
646.905783	0.061384
647.111712	0.061290
647.317622	0.061341
647.523514	0.061510
647.729388	0.061702
647.935244	0.061812
648.141082	0.061608
648.346901	0.061639
648.552702	0.061868
648.758485	0.062013
648.964250	0.061984
649.169996	0.062146
649.375724	0.062058
649.581434	0.061794
649.787126	0.061602
649.992800	0.061492
650.198455	0.061477
650.404092	0.061116
650.609711	0.061073
650.815311	0.061238
651.020894	0.061101
651.226458	0.061098
651.432004	0.061043
651.637532	0.060910
651.843041	0.061101
652.048532	0.060912
652.254006	0.060897
652.459460	0.060847
652.664897	0.060740
652.870315	0.060584
653.075716	0.060561
653.281097	0.060735
653.486461	0.060949
653.691807	0.060826
653.897134	0.060889
654.102443	0.061056
654.307734	0.061148
654.513006	0.061245
654.718261	0.061433
654.923497	0.061275
655.128715	0.061307
655.333915	0.061185
655.539096	0.061196
655.744259	0.061229
655.949404	0.061346
656.154531	0.061456
656.359640	0.061294
656.564730	0.061163
656.769802	0.061394
656.974856	0.061334
657.179892	0.061591
657.384909	0.061716
657.589908	0.061899
657.794889	0.061937
657.999852	0.061740
658.204797	0.062061
658.409723	0.062068
658.614631	0.062079
658.819521	0.062277
659.024393	0.062327
659.229246	0.062271
659.434081	0.062329
659.638898	0.062245
659.843697	0.062459
660.048478	0.062212
660.253240	0.062335
660.457984	0.062508
660.662710	0.062419
660.867417	0.062398
661.072107	0.062460
661.276778	0.062474
661.481431	0.062602
661.686066	0.062740
661.890682	0.062916
662.095281	0.062945
662.299861	0.062729
662.504422	0.062795
662.708966	0.062806
662.913491	0.062899
663.117999	0.062689
663.322488	0.062586
663.526958	0.062438
663.731411	0.062400
663.935845	0.062361
664.140261	0.062282
664.344659	0.062243
664.549038	0.062168
664.753400	0.062098
664.957743	0.062212
665.162068	0.062208
665.366375	0.062302
665.570663	0.062100
665.774933	0.062241
665.979185	0.062439
666.183419	0.062514
666.387635	0.062694
666.591832	0.062678
666.796011	0.062665
667.000172	0.062734
667.204315	0.062807
667.408439	0.062989
667.612545	0.063183
667.816634	0.063348
668.020703	0.063598
668.224755	0.063661
668.428788	0.063914
668.632803	0.064180
668.836800	0.064340
669.040779	0.064280
669.244739	0.064442
669.448681	0.064516
669.652605	0.064495
669.856511	0.064443
670.060399	0.064423
670.264268	0.064219
670.468119	0.064131
670.671952	0.064195
670.875767	0.064186
671.079563	0.064357
671.283341	0.064150
671.487101	0.064314
671.690843	0.064356
671.894567	0.064565
672.098272	0.064975
672.301959	0.064807
672.505628	0.064823
672.709278	0.064946
672.912911	0.064642
673.116525	0.064655
673.320121	0.064540
673.523699	0.064477
673.727258	0.064326
673.930799	0.064117
674.134322	0.064201
674.337827	0.063888
674.541314	0.064014
674.744782	0.064365
674.948232	0.064346
675.151664	0.064291
675.355078	0.064224
675.558474	0.064249
675.761851	0.064405
675.965210	0.064410
676.168551	0.064450
676.371873	0.064303
676.575178	0.064101
676.778464	0.064127
676.981732	0.064072
677.184981	0.064189
677.388213	0.064037
677.591426	0.063792
677.794621	0.064121
677.997798	0.064174
678.200956	0.064083
678.404097	0.064080
678.607219	0.064101
678.810323	0.064042
679.013408	0.063992
679.216476	0.064107
679.419525	0.064300
679.622556	0.064124
679.825569	0.064260
680.028563	0.064203
680.231540	0.064395
680.434498	0.064454
680.637438	0.064582
680.840359	0.064523
681.043263	0.064378
681.246148	0.064242
681.449015	0.064262
681.651864	0.064313
681.854694	0.064516
682.057506	0.064370
682.260301	0.064331
682.463076	0.064377
682.665834	0.064487
682.868573	0.064675
683.071295	0.064735
683.273998	0.064662
683.476682	0.064729
683.679349	0.064630
683.881997	0.064570
684.084627	0.064584
684.287239	0.064537
684.489833	0.064458
684.692408	0.064349
684.894965	0.064204
685.097504	0.064261
685.300025	0.064303
685.502527	0.064321
685.705012	0.064625
685.907478	0.064613
686.109925	0.064662
686.312355	0.064696
686.514766	0.064980
686.717159	0.065268
686.919534	0.065411
687.121891	0.065411
687.324230	0.065522
687.526550	0.065405
687.728852	0.065568
687.931136	0.065584
688.133401	0.065697
688.335649	0.065697
688.537878	0.065560
688.740089	0.065387
688.942281	0.065402
689.144456	0.065390
689.346612	0.065252
689.548750	0.065134
689.750870	0.065111
689.952971	0.064981
690.155055	0.064840
690.357120	0.064820
690.559167	0.065051
690.761195	0.065021
690.963206	0.065104
691.165198	0.065240
691.367172	0.065424
691.569128	0.065530
691.771065	0.065696
691.972984	0.065916
692.174885	0.065925
692.376768	0.065675
692.578633	0.065803
692.780479	0.065792
692.982308	0.065634
693.184118	0.065518
693.385909	0.065483
693.587683	0.065427
693.789438	0.065222
693.991175	0.065331
694.192894	0.065671
694.394595	0.065620
694.596277	0.065604
694.797941	0.065789
694.999587	0.065685
695.201215	0.065657
695.402824	0.065621
695.604416	0.065718
695.805989	0.065799
696.007543	0.065682
696.209080	0.065711
696.410598	0.065927
696.612099	0.066077
696.813580	0.066336
697.015044	0.066398
697.216490	0.066582
697.417917	0.066525
697.619326	0.066684
697.820717	0.066787
698.022089	0.066783
698.223444	0.066849
698.424780	0.066689
698.626098	0.066446
698.827397	0.066365
699.028679	0.065998
699.229942	0.065894
699.431187	0.065594
699.632414	0.065495
699.833622	0.065388
700.034813	0.064961
700.235985	0.064942
700.437139	0.065092
700.638274	0.065095
700.839392	0.065260
701.040491	0.065334
701.241572	0.065480
701.442635	0.065261
701.643679	0.065215
701.844706	0.065440
702.045714	0.065431
702.246704	0.065248
702.447675	0.065538
702.648629	0.065612
702.849564	0.065771
703.050481	0.065896
703.251380	0.066135
703.452260	0.066119
703.653122	0.065921
703.853966	0.066146
704.054792	0.066320
704.255600	0.065937
704.456389	0.065857
704.657160	0.065800
704.857913	0.065575
705.058648	0.065559
705.259365	0.065557
705.460063	0.065699
705.660743	0.065609
705.861405	0.065443
706.062048	0.065509
706.262674	0.065486
706.463281	0.065314
706.663870	0.065321
706.864441	0.065157
707.064993	0.065347
707.265527	0.065257
707.466043	0.065244
707.666541	0.065358
707.867021	0.065546
708.067482	0.065732
708.267925	0.065987
708.468350	0.066006
708.668757	0.065997
708.869145	0.065909
709.069516	0.066149
709.269868	0.066096
709.470201	0.066144
709.670517	0.066059
709.870814	0.066138
710.071093	0.066144
710.271354	0.066216
710.471597	0.066414
710.671821	0.066400
710.872028	0.066172
711.072216	0.066207
711.272385	0.066072
711.472537	0.066192
711.672670	0.066139
711.872785	0.066161
712.072882	0.066182
712.272961	0.066206
712.473021	0.066203
712.673063	0.066193
712.873087	0.066124
713.073093	0.066334
713.273081	0.066171
713.473050	0.066197
713.673001	0.065956
713.872934	0.065954
714.072849	0.065991
714.272745	0.065980
714.472623	0.066011
714.672483	0.065997
714.872325	0.065932
715.072148	0.066072
715.271954	0.066021
715.471741	0.066080
715.671509	0.065940
715.871260	0.065804
716.070992	0.065814
716.270707	0.065703
716.470403	0.065693
716.670080	0.065763
716.869740	0.065680
717.069381	0.065581
717.269004	0.065505
717.468609	0.065435
717.668195	0.065344
717.867764	0.065325
718.067314	0.065428
718.266846	0.065308
718.466360	0.065151
718.665855	0.064997
718.865332	0.064734
719.064791	0.064579
719.264232	0.064550
719.463655	0.064655
719.663059	0.064455
719.862445	0.064429
720.061813	0.064534
720.261163	0.064483
720.460494	0.064698
720.659807	0.064839
720.859102	0.065047
721.058379	0.065022
721.257638	0.064911
721.456878	0.065154
721.656100	0.064982
721.855304	0.064911
722.054490	0.065051
722.253657	0.064958
722.452806	0.064988
722.651937	0.064943
722.851050	0.065088
723.050145	0.064973
723.249221	0.065010
723.448279	0.065190
723.647319	0.065034
723.846340	0.064897
724.045344	0.064930
724.244329	0.064932
724.443296	0.065030
724.642245	0.065039
724.841175	0.065080
725.040088	0.064965
725.238982	0.064924
725.437857	0.064924
725.636715	0.064787
725.835554	0.064580
726.034376	0.064489
726.233179	0.064231
726.431963	0.064022
726.630730	0.063960
726.829478	0.063695
727.028208	0.063581
727.226920	0.063582
727.425614	0.063586
727.624289	0.063597
727.822946	0.063615
728.021585	0.063736
728.220206	0.063660
728.418808	0.063508
728.617392	0.063605
728.815958	0.063709
729.014506	0.063637
729.213036	0.063463
729.411547	0.063310
729.610040	0.063075
729.808515	0.062868
730.006972	0.062929
730.205410	0.062892
730.403831	0.062714
730.602233	0.062554
730.800616	0.062586
730.998982	0.062809
731.197329	0.063018
731.395658	0.063273
731.593969	0.063338
731.792262	0.063333
731.990536	0.063450
732.188793	0.063620
732.387031	0.063733
732.585250	0.063858
732.783452	0.063951
732.981635	0.063913
733.179800	0.063980
733.377947	0.064202
733.576076	0.064234
733.774186	0.064412
733.972278	0.064582
734.170352	0.064732
734.368408	0.064692
734.566446	0.064671
734.764465	0.064913
734.962466	0.064825
735.160449	0.064691
735.358413	0.064728
735.556360	0.064811
735.754288	0.064682
735.952198	0.064697
736.150090	0.064965
736.347963	0.064918
736.545818	0.064692
736.743655	0.064723
736.941474	0.064773
737.139275	0.064864
737.337057	0.064792
737.534821	0.064899
737.732567	0.064858
737.930295	0.064641
738.128005	0.064494
738.325696	0.064423
738.523369	0.064439
738.721024	0.064637
738.918660	0.064601
739.116279	0.064625
739.313879	0.064496
739.511461	0.064371
739.709024	0.064379
739.906570	0.064682
740.104097	0.064960
740.301606	0.064887
740.499097	0.064680
740.696569	0.064674
740.894024	0.064437
741.091460	0.064595
741.288878	0.064558
741.486277	0.064387
741.683659	0.064308
741.881022	0.064213
742.078367	0.064324
742.275694	0.064435
742.473002	0.064456
742.670293	0.064400
742.867565	0.064270
743.064819	0.064219
743.262054	0.064197
743.459272	0.063989
743.656471	0.063940
743.853652	0.063686
744.050815	0.063461
744.247959	0.063245
744.445085	0.063278
744.642194	0.063090
744.839283	0.063154
745.036355	0.063196
745.233408	0.063252
745.430444	0.063165
745.627461	0.063088
745.824459	0.063029
746.021440	0.063005
746.218402	0.062917
746.415346	0.062958
746.612272	0.062778
746.809180	0.062967
747.006069	0.063085
747.202940	0.062961
747.399793	0.063164
747.596628	0.063128
747.793444	0.063493
747.990243	0.063501
748.187023	0.063493
748.383784	0.063543
748.580528	0.063324
748.777253	0.063276
748.973960	0.063404
749.170649	0.063235
749.367320	0.063285
749.563973	0.063091
749.760607	0.063262
749.957223	0.063408
750.153821	0.063593
750.350400	0.063539
750.546962	0.063325
750.743505	0.063336
750.940030	0.063443
751.136536	0.063409
751.333025	0.063440
751.529495	0.063152
751.725947	0.063243
751.922381	0.062919
752.118796	0.062937
752.315194	0.062959
752.511573	0.063028
752.707934	0.062983
752.904276	0.063087
753.100601	0.062789
753.296907	0.062896
753.493195	0.062842
753.689465	0.063007
753.885716	0.063124
754.081949	0.063161
754.278164	0.063085
754.474361	0.062920
754.670540	0.062755
754.866700	0.062910
755.062843	0.063014
755.258967	0.062808
755.455072	0.062684
755.651160	0.062690
755.847229	0.062661
756.043280	0.062563
756.239313	0.062660
756.435328	0.062704
756.631324	0.062656
756.827302	0.062532
757.023262	0.062461
757.219204	0.062532
757.415127	0.062220
757.611033	0.062216
757.806920	0.062235
758.002788	0.062251
758.198639	0.062130
758.394471	0.062233
758.590286	0.062188
758.786081	0.062200
758.981859	0.062133
759.177619	0.062529
759.373360	0.062574
759.569083	0.062328
759.764788	0.062373
759.960474	0.062541
760.156143	0.062375
760.351793	0.062657
760.547425	0.062888
760.743038	0.062984
760.938634	0.062992
761.134211	0.062944
761.329770	0.063394
761.525311	0.063425
761.720833	0.063466
761.916338	0.063606
762.111824	0.063572
762.307292	0.063617
762.502741	0.063592
762.698173	0.063442
762.893586	0.063328
763.088981	0.063064
763.284358	0.063116
763.479716	0.062996
763.675057	0.063098
763.870379	0.063137
764.065683	0.063002
764.260968	0.063120
764.456236	0.063120
764.651485	0.063200
764.846716	0.063354
765.041929	0.063325
765.237123	0.063280
765.432299	0.063149
765.627457	0.062977
765.822597	0.063032
766.017719	0.062830
766.212822	0.062808
766.407907	0.062949
766.602974	0.062787
766.798023	0.062793
766.993054	0.062836
767.188066	0.062811
767.383060	0.062860
767.578036	0.062773
767.772993	0.063019
767.967933	0.062892
768.162854	0.062807
768.357757	0.062974
768.552642	0.062948
768.747508	0.063058
768.942356	0.062923
769.137186	0.062855
769.331998	0.062994
769.526792	0.062924
769.721567	0.063036
769.916324	0.063187
770.111063	0.063162
770.305784	0.063173
770.500486	0.063187
770.695171	0.063129
770.889837	0.063063
771.084484	0.063060
771.279114	0.062980
771.473725	0.062916
771.668318	0.062861
771.862893	0.062742
772.057450	0.062668
772.251988	0.062595
772.446509	0.062719
772.641011	0.062808
772.835494	0.062670
773.029960	0.062687
773.224407	0.062840
773.418836	0.062783
773.613247	0.062873
773.807640	0.062986
774.002014	0.062821
774.196370	0.062963
774.390708	0.063148
774.585028	0.063064
774.779330	0.062950
774.973613	0.062936
775.167878	0.063029
775.362125	0.063048
775.556354	0.062873
775.750564	0.062823
775.944756	0.062763
776.138930	0.062527
776.333086	0.062460
776.527223	0.062494
776.721343	0.062385
776.915444	0.062084
777.109526	0.062200
777.303591	0.062222
777.497637	0.062356
777.691666	0.062295
777.885676	0.062454
778.079667	0.062739
778.273641	0.062830
778.467596	0.062765
778.661533	0.063004
778.855452	0.062672
779.049352	0.062627
779.243235	0.062854
779.437099	0.062796
779.630945	0.062675
779.824773	0.062533
780.018582	0.062594
780.212373	0.062715
780.406146	0.062756
780.599901	0.062806
780.793638	0.063008
780.987356	0.062748
781.181056	0.062801
781.374738	0.062703
781.568402	0.062624
781.762047	0.062450
781.955674	0.062427
782.149283	0.062303
782.342874	0.062338
782.536447	0.062202
782.730001	0.062069
782.923537	0.062117
783.117055	0.062440
783.310555	0.062291
783.504036	0.062489
783.697499	0.062427
783.890944	0.062337
784.084371	0.062436
784.277780	0.062504
784.471170	0.062655
784.664542	0.062615
784.857896	0.062506
785.051231	0.062653
785.244549	0.062510
785.437848	0.062741
785.631129	0.062900
785.824392	0.062842
786.017636	0.062806
786.210863	0.062974
786.404071	0.063050
786.597260	0.062949
786.790432	0.063313
786.983585	0.063518
787.176721	0.063641
787.369838	0.063757
787.562936	0.063862
787.756017	0.064166
787.949079	0.064199
788.142123	0.064214
788.335149	0.064497
788.528156	0.064574
788.721146	0.064531
788.914117	0.064417
789.107070	0.064383
789.300005	0.064593
789.492921	0.064473
789.685819	0.064551
789.878699	0.064558
790.071561	0.064410
790.264405	0.064170
790.457230	0.064234
790.650037	0.064253
790.842826	0.064424
791.035597	0.064577
791.228349	0.064710
791.421084	0.064788
791.613800	0.064922
791.806497	0.065013
791.999177	0.065112
792.191838	0.065217
792.384481	0.065107
792.577106	0.065043
792.769713	0.064674
792.962301	0.064532
793.154871	0.064441
793.347423	0.064480
793.539957	0.064358
793.732473	0.064375
793.924970	0.064251
794.117449	0.064471
794.309910	0.064564
794.502353	0.064596
794.694777	0.064699
794.887183	0.064685
795.079571	0.064571
795.271941	0.064395
795.464293	0.064411
795.656626	0.064282
795.848941	0.064441
796.041238	0.064274
796.233516	0.064552
796.425777	0.064649
796.618019	0.064565
796.810243	0.064735
797.002449	0.065058
797.194636	0.065226
797.386805	0.065609
797.578956	0.065392
797.771089	0.065759
797.963204	0.065645
798.155300	0.065626
798.347378	0.065903
798.539438	0.066090
798.731480	0.066263
798.923503	0.066281
799.115509	0.066434
799.307496	0.066653
799.499465	0.066391
799.691415	0.066471
799.883348	0.066696
800.075262	0.067006
800.267158	0.066990
800.459035	0.067262
800.650895	0.067397
800.842736	0.067195
801.034559	0.067084
801.226364	0.067394
801.418150	0.067488
801.609919	0.067407
801.801669	0.067219
801.993401	0.067272
802.185114	0.067148
802.376810	0.067159
802.568487	0.067077
802.760146	0.067088
802.951787	0.066828
803.143409	0.066716
803.335014	0.066522
803.526600	0.066483
803.718168	0.066345
803.909717	0.066202
804.101249	0.065947
804.292762	0.065942
804.484257	0.065907
804.675734	0.065861
804.867192	0.065861
805.058632	0.065898
805.250054	0.065732
805.441458	0.065769
805.632844	0.065892
805.824211	0.066067
806.015561	0.066223
806.206891	0.066176
806.398204	0.066439
806.589499	0.066505
806.780775	0.066544
806.972033	0.066893
807.163273	0.066872
807.354495	0.066956
807.545698	0.067056
807.736883	0.067262
807.928050	0.067436
808.119199	0.067423
808.310329	0.067449
808.501441	0.067614
808.692535	0.067356
808.883611	0.067545
809.074669	0.067621
809.265708	0.067621
809.456729	0.067729
809.647732	0.067868
809.838717	0.068080
810.029683	0.068383
810.220632	0.068556
810.411562	0.069020
810.602474	0.069201
810.793367	0.069021
810.984242	0.069145
811.175100	0.069212
811.365938	0.069460
811.556759	0.069458
811.747562	0.069431
811.938346	0.069371
812.129112	0.069383
812.319860	0.069303
812.510589	0.069614
812.701300	0.069828
812.891994	0.069779
813.082668	0.069593
813.273325	0.069546
813.463964	0.069571
813.654584	0.069754
813.845186	0.069760
814.035769	0.069849
814.226335	0.069794
814.416882	0.069789
814.607411	0.069746
814.797922	0.070001
814.988415	0.070226
815.178889	0.070188
815.369345	0.070155
815.559783	0.070041
815.750203	0.070142
815.940605	0.070460
816.130988	0.070388
816.321353	0.070516
816.511700	0.070494
816.702028	0.070562
816.892339	0.070488
817.082631	0.070440
817.272905	0.070541
817.463161	0.070658
817.653398	0.070372
817.843617	0.070359
818.033819	0.070280
818.224001	0.070235
818.414166	0.069952
818.604312	0.070107
818.794440	0.070103
818.984550	0.070006
819.174642	0.069773
819.364716	0.069853
819.554771	0.069800
819.744808	0.069963
819.934827	0.069913
820.124827	0.070162
820.314810	0.070394
820.504774	0.070626
820.694720	0.070639
820.884647	0.070899
821.074557	0.070878
821.264448	0.071032
821.454321	0.071009
821.644176	0.071144
821.834012	0.071336
822.023831	0.071125
822.213631	0.071183
822.403413	0.071356
822.593176	0.071302
822.782922	0.071509
822.972649	0.071527
823.162358	0.071618
823.352049	0.071824
823.541721	0.071865
823.731376	0.071834
823.921012	0.071859
824.110629	0.071910
824.300229	0.071960
824.489811	0.071793
824.679374	0.071790
824.868919	0.071782
825.058445	0.071710
825.247954	0.071481
825.437444	0.071842
825.626916	0.071996
825.816370	0.071903
826.005806	0.071924
826.195223	0.072052
826.384622	0.071965
826.574003	0.072101
826.763366	0.072222
826.952711	0.072376
827.142037	0.072081
827.331345	0.072036
827.520635	0.072295
827.709906	0.072523
827.899160	0.072716
828.088395	0.072964
828.277612	0.072660
828.466810	0.072717
828.655991	0.072653
828.845153	0.073017
829.034297	0.073165
829.223423	0.073201
829.412531	0.073206
829.601620	0.073235
829.790691	0.073318
829.979744	0.073736
830.168779	0.073782
830.357795	0.074101
830.546793	0.074238
830.735773	0.073900
830.924735	0.073875
831.113679	0.073889
831.302604	0.074089
831.491511	0.073937
831.680400	0.073922
831.869271	0.073925
832.058123	0.073695
832.246957	0.073291
832.435773	0.073429
832.624571	0.073582
832.813351	0.073491
833.002112	0.073228
833.190855	0.073524
833.379580	0.073441
833.568287	0.073502
833.756975	0.073385
833.945645	0.073709
834.134297	0.073896
834.322931	0.073861
834.511547	0.074013
834.700144	0.074129
834.888723	0.074225
835.077284	0.074327
835.265826	0.074354
835.454351	0.074742
835.642857	0.074641
835.831345	0.074797
836.019815	0.074878
836.208266	0.075009
836.396699	0.075092
836.585114	0.074842
836.773511	0.074846
836.961890	0.074890
837.150250	0.074714
837.338592	0.075095
837.526916	0.075078
837.715222	0.075033
837.903510	0.074967
838.091779	0.075297
838.280030	0.075776
838.468263	0.076009
838.656477	0.076373
838.844674	0.076696
839.032852	0.076687
839.221012	0.076878
839.409153	0.077126
839.597277	0.077268
839.785382	0.077258
839.973469	0.077282
840.161538	0.077535
840.349589	0.077378
840.537621	0.077802
840.725635	0.077929
840.913631	0.078201
841.101609	0.078348
841.289568	0.078797
841.477509	0.078903
841.665432	0.079151
841.853337	0.079395
842.041224	0.079627
842.229092	0.079498
842.416942	0.079809
842.604774	0.079955
842.792588	0.080079
842.980383	0.080052
843.168160	0.080133
843.355919	0.080101
843.543660	0.080219
843.731382	0.080341
843.919087	0.080571
844.106773	0.080518
844.294441	0.080461
844.482090	0.080769
844.669722	0.080979
844.857335	0.080970
845.044930	0.080967
845.232507	0.081054
845.420065	0.081168
845.607605	0.081047
845.795127	0.081217
845.982631	0.081234
846.170117	0.081145
846.357584	0.081190
846.545033	0.081388
846.732464	0.081731
846.919877	0.081620
847.107272	0.081599
847.294648	0.081901
847.482006	0.082223
847.669346	0.082290
847.856667	0.082284
848.043971	0.082304
848.231256	0.082496
848.418523	0.082473
848.605771	0.082581
848.793002	0.082640
848.980214	0.082585
849.167408	0.082516
849.354584	0.082569
849.541742	0.082896
849.728881	0.083039
849.916002	0.083059
850.103105	0.083187
850.290190	0.083295
850.477256	0.083385
850.664304	0.083227
850.851334	0.083162
851.038346	0.083282
851.225340	0.083359
851.412315	0.083270
851.599272	0.083298
851.786211	0.083344
851.973132	0.083326
852.160034	0.083540
852.346918	0.084083
852.533784	0.084166
852.720632	0.084291
852.907462	0.084198
853.094273	0.084524
853.281066	0.084650
853.467841	0.084684
853.654598	0.084938
853.841336	0.085025
854.028056	0.084898
854.214758	0.084901
854.401442	0.084965
854.588107	0.085304
854.774755	0.085193
854.961384	0.085174
855.147995	0.085477
855.334587	0.085382
855.521162	0.085544
855.707718	0.085730
855.894256	0.085861
856.080775	0.086077
856.267277	0.086154
856.453760	0.086427
856.640225	0.086655
856.826672	0.086729
857.013101	0.086949
857.199511	0.086919
857.385903	0.086911
857.572277	0.087202
857.758633	0.087081
857.944970	0.087096
858.131290	0.087039
858.317591	0.087234
858.503873	0.087040
858.690138	0.087379
858.876384	0.087370
859.062612	0.087624
859.248822	0.087440
859.435014	0.087746
859.621188	0.087556
859.807343	0.087793
859.993480	0.087920
860.179599	0.088108
860.365699	0.088157
860.551781	0.088419
860.737846	0.088563
860.923891	0.088932
861.109919	0.089160
861.295929	0.089529
861.481920	0.089611
861.667893	0.089731
861.853848	0.090148
862.039784	0.090236
862.225702	0.090432
862.411603	0.090499
862.597484	0.090546
862.783348	0.090970
862.969193	0.091084
863.155021	0.091204
863.340830	0.091266
863.526620	0.090963
863.712393	0.091066
863.898147	0.090879
864.083883	0.091084
864.269601	0.091255
864.455301	0.090946
864.640982	0.091175
864.826645	0.090939
865.012290	0.091157
865.197917	0.091576
865.383526	0.091444
865.569116	0.091670
865.754688	0.091647
865.940242	0.091778
866.125777	0.091733
866.311295	0.091722
866.496794	0.092110
866.682275	0.092062
866.867737	0.092173
867.053182	0.092487
867.238608	0.092761
867.424016	0.092591
867.609406	0.092685
867.794778	0.092883
867.980131	0.092895
868.165466	0.093125
868.350783	0.093253
868.536082	0.093369
868.721362	0.093340
868.906625	0.093250
869.091869	0.093488
869.277094	0.093313
869.462302	0.093432
869.647491	0.093430
869.832662	0.093352
870.017815	0.093149
870.202950	0.093070
870.388066	0.092993
870.573165	0.092904
870.758245	0.093096
870.943306	0.093430
871.128350	0.093289
871.313375	0.093455
871.498382	0.093382
871.683371	0.093607
871.868342	0.093424
872.053294	0.093161
872.238229	0.093261
872.423144	0.093098
872.608042	0.093108
872.792922	0.093087
872.977783	0.092914
873.162626	0.092645
873.347451	0.092787
873.532258	0.093039
873.717046	0.093330
873.901816	0.093448
874.086568	0.093486
874.271302	0.093218
874.456017	0.093712
874.640715	0.093938
874.825394	0.094368
875.010055	0.094139
875.194697	0.093776
875.379322	0.093864
875.563928	0.093756
875.748516	0.094000
875.933085	0.094204
876.117637	0.093795
876.302170	0.093939
876.486685	0.094172
876.671182	0.094429
876.855661	0.094714
877.040121	0.095099
877.224563	0.095432
877.408987	0.095591
877.593393	0.095675
877.777780	0.095467
877.962150	0.095476
878.146501	0.095447
878.330833	0.095409
878.515148	0.095615
878.699444	0.095667
878.883722	0.095533
879.067982	0.095341
879.252224	0.095407
879.436447	0.095815
879.620653	0.095663
879.804840	0.095632
879.989008	0.095629
880.173159	0.095466
880.357291	0.095438
880.541405	0.095665
880.725501	0.095719
880.909579	0.095924
881.093638	0.095993
881.277680	0.096226
881.461703	0.096117
881.645707	0.096171
881.829694	0.096500
882.013662	0.096161
882.197612	0.096130
882.381544	0.096157
882.565458	0.095963
882.749353	0.095999
882.933230	0.096050
883.117089	0.096136
883.300930	0.096360
883.484753	0.096327
883.668557	0.096482
883.852343	0.096212
884.036111	0.096269
884.219861	0.096396
884.403592	0.096542
884.587305	0.096645
884.771000	0.096425
884.954677	0.096484
885.138335	0.096343
885.321976	0.096649
885.505598	0.097064
885.689201	0.097142
885.872787	0.096855
886.056354	0.096931
886.239904	0.096781
886.423434	0.097009
886.606947	0.096723
886.790442	0.096928
886.973918	0.096715
887.157376	0.096492
887.340816	0.096487
887.524237	0.096878
887.707641	0.096780
887.891026	0.096550
888.074393	0.096529
888.257741	0.096589
888.441072	0.096411
888.624384	0.096301
888.807678	0.096550
888.990954	0.096462
889.174211	0.096271
889.357451	0.096144
889.540672	0.096264
889.723875	0.096111
889.907059	0.096089
890.090226	0.096326
890.273374	0.095927
890.456504	0.096073
890.639616	0.096134
890.822709	0.096264
891.005785	0.096222
891.188842	0.096572
891.371881	0.097135
891.554901	0.097174
891.737904	0.097329
891.920888	0.097843
892.103854	0.097764
892.286802	0.097686
892.469731	0.097399
892.652643	0.097884
892.835536	0.097635
893.018410	0.097297
893.201267	0.097127
893.384106	0.096860
893.566926	0.096966
893.749728	0.096837
893.932511	0.096828
894.115277	0.097064
894.298024	0.096513
894.480753	0.096932
894.663464	0.096838
894.846157	0.096560
895.028831	0.096404
895.211487	0.096231
895.394125	0.095920
895.576745	0.095386
895.759346	0.094919
895.941930	0.095047
896.124495	0.094547
896.307041	0.094624
896.489570	0.094904
896.672080	0.094901
896.854573	0.095213
897.037046	0.095367
897.219502	0.096048
897.401940	0.096453
897.584359	0.096684
897.766760	0.096647
897.949143	0.096712
898.131507	0.096775
898.313854	0.096855
898.496182	0.096553
898.678492	0.096584
898.860783	0.096666
899.043057	0.096541
899.225312	0.096384
899.407549	0.096382
899.589768	0.096224
899.771968	0.096070
899.954151	0.095949
900.136315	0.095607
900.318461	0.095276
900.500588	0.094895
900.682698	0.094975
900.864789	0.094547
901.046862	0.094302
901.228917	0.094260
901.410953	0.094160
901.592971	0.093650
901.774972	0.094020
901.956953	0.094052
902.138917	0.094303
902.320862	0.094057
902.502790	0.094278
902.684699	0.094397
902.866589	0.094248
903.048462	0.094288
903.230316	0.094881
903.412152	0.094556
903.593970	0.094679
903.775770	0.094293
903.957551	0.094010
904.139314	0.093976
904.321059	0.094138
904.502786	0.094015
904.684494	0.094037
904.866185	0.093481
905.047857	0.093429
905.229510	0.093469
905.411146	0.093421
905.592763	0.093530
905.774363	0.093549
905.955943	0.093460
906.137506	0.093803
906.319051	0.093591
906.500577	0.093774
906.682085	0.093775
906.863575	0.093666
907.045046	0.093304
907.226500	0.093420
907.407935	0.092872
907.589352	0.092691
907.770750	0.092278
907.952131	0.092459
908.133493	0.092398
908.314837	0.092416
908.496163	0.092093
908.677470	0.092199
908.858760	0.092286
909.040031	0.092609
909.221284	0.092680
909.402518	0.092786
909.583735	0.092242
909.764933	0.091927
909.946113	0.092041
910.127275	0.092079
910.308418	0.092288
910.489544	0.091981
910.670651	0.091727
910.851740	0.091526
911.032810	0.091128
911.213863	0.091080
911.394897	0.090851
911.575913	0.090535
911.756911	0.090245
911.937890	0.089819
912.118851	0.089399
912.299794	0.089231
912.480719	0.089335
912.661626	0.089552
912.842514	0.089705
913.023384	0.089832
913.204236	0.089491
913.385070	0.089626
913.565886	0.089255
913.746683	0.089165
913.927462	0.088890
914.108223	0.088503
914.288965	0.088104
914.469690	0.088029
914.650396	0.088167
914.831084	0.087835
915.011754	0.087730
915.192405	0.087902
915.373038	0.088023
915.553653	0.088108
915.734250	0.087724
915.914829	0.087462
916.095389	0.086920
916.275931	0.086708
916.456455	0.087316
916.636961	0.086905
916.817448	0.086844
916.997917	0.086435
917.178368	0.086323
917.358801	0.086524
917.539216	0.086563
917.719612	0.086453
917.899990	0.086246
918.080350	0.085478
918.260692	0.085201
918.441015	0.085268
918.621320	0.085155
918.801607	0.085136
918.981876	0.084742
919.162127	0.084554
919.342359	0.084573
919.522573	0.084343
919.702769	0.084428
919.882947	0.084517
920.063106	0.083915
920.243247	0.083608
920.423370	0.083351
920.603475	0.083396
920.783562	0.083081
920.963630	0.082589
921.143680	0.082563
921.323712	0.082219
921.503725	0.082103
921.683721	0.081802
921.863698	0.081423
922.043657	0.081079
922.223598	0.080595
922.403520	0.080512
922.583424	0.080822
922.763311	0.080688
922.943178	0.080742
923.123028	0.080593
923.302859	0.080504
923.482673	0.080688
923.662467	0.080467
923.842244	0.080314
924.022003	0.080210
924.201743	0.080027
924.381465	0.079359
924.561169	0.078665
924.740854	0.078866
924.920522	0.078948
925.100171	0.078348
925.279802	0.077977
925.459414	0.077707
925.639009	0.077588
925.818585	0.076987
925.998143	0.077181
926.177683	0.077336
926.357205	0.076569
926.536708	0.076016
926.716193	0.076075
926.895660	0.075852
927.075109	0.075235
927.254539	0.074733
927.433951	0.075039
927.613345	0.074682
927.792721	0.073739
927.972079	0.073404
928.151418	0.073282
928.330739	0.073062
928.510042	0.073068
928.689327	0.073180
928.868593	0.072566
929.047841	0.071537
929.227071	0.070922
929.406283	0.070955
929.585476	0.070440
929.764652	0.070117
929.943809	0.069908
930.122948	0.069767
930.302068	0.069342
930.481171	0.069418
930.660255	0.069320
930.839321	0.068557
931.018369	0.068592
931.197398	0.067757
931.376409	0.067502
931.555402	0.067481
931.734377	0.066097
931.913334	0.066196
932.092272	0.065594
932.271192	0.065743
932.450094	0.065697
932.628978	0.065950
932.807844	0.065940
932.986691	0.065209
933.165520	0.064298
933.344331	0.064348
933.523123	0.063350
933.701898	0.063309
933.880654	0.062379
934.059392	0.061669
934.238111	0.060276
934.416813	0.060491
934.595496	0.060251
934.774161	0.060475
934.952808	0.060430
935.131437	0.060316
935.310047	0.059758
935.488639	0.060115
935.667213	0.060531
935.845769	0.060297
936.024306	0.059409
936.202825	0.059056
936.381326	0.058094
936.559809	0.057937
936.738274	0.057996
936.916720	0.057910
937.095148	0.057146
937.273558	0.057238
937.451950	0.056433
937.630323	0.057169
937.808678	0.057417
937.987015	0.058420
938.165334	0.058923
938.343635	0.057751
938.521917	0.056872
938.700181	0.057264
938.878427	0.056932
939.056655	0.057151
939.234864	0.056293
939.413055	0.056279
939.591228	0.055492
939.769383	0.055070
939.947519	0.056008
940.125638	0.055844
940.303738	0.054847
940.481820	0.054076
940.659883	0.054672
940.837929	0.054439
941.015956	0.054580
941.193965	0.054159
941.371955	0.054242
941.549928	0.053132
941.727882	0.053409
941.905818	0.052760
942.083736	0.053444
942.261636	0.052578
942.439517	0.052801
942.617380	0.051105
942.795225	0.049719
942.973052	0.048426
943.150860	0.047948
943.328651	0.046641
943.506423	0.047579
943.684176	0.045276
943.861912	0.045191
944.039629	0.044325
944.217328	0.043941
944.395009	0.044229
944.572672	0.044303
944.750317	0.044149
944.927943	0.046332
945.105551	0.044916
945.283141	0.045814
945.460712	0.046353
945.638265	0.046819
945.815801	0.047231
945.993317	0.046292
946.170816	0.045529
946.348297	0.046280
946.525759	0.044213
946.703203	0.044574
946.880629	0.044685
947.058036	0.044499
947.235425	0.042967
947.412797	0.042165
947.590149	0.043996
947.767484	0.043695
947.944800	0.042835
948.122099	0.042272
948.299379	0.042289
948.476640	0.042324
948.653884	0.041505
948.831109	0.042580
949.008316	0.042992
949.185505	0.042809
949.362676	0.042555
949.539828	0.042444
949.716962	0.042810
949.894078	0.042928
950.071176	0.042192
950.248256	0.042005
950.425317	0.041555
950.602360	0.041655
950.779385	0.040702
950.956391	0.040104
951.133380	0.040383
951.310350	0.040233
951.487302	0.038861
951.664235	0.038507
951.841151	0.038354
952.018048	0.039289
952.194927	0.040374
952.371788	0.041833
952.548631	0.043932
952.725455	0.044701
952.902261	0.044771
953.079049	0.046414
953.255819	0.046248
953.432570	0.046665
953.609303	0.045305
953.786018	0.045164
953.962715	0.045319
954.139394	0.044164
954.316054	0.042473
954.492696	0.043750
954.669320	0.044311
954.845926	0.044776
955.022513	0.044213
955.199083	0.043127
955.375634	0.041371
955.552166	0.039133
955.728681	0.038104
955.905177	0.038985
956.081655	0.038839
956.258115	0.038565
956.434557	0.039543
956.610980	0.039594
956.787385	0.040340
956.963772	0.042461
957.140141	0.044157
957.316492	0.045799
957.492824	0.044802
957.669138	0.045351
957.845434	0.044651
958.021712	0.043188
958.197971	0.040675
958.374212	0.039813
958.550435	0.039232
958.726640	0.039155
958.902826	0.040177
959.078995	0.041048
959.255145	0.039916
959.431277	0.040886
959.607390	0.043969
959.783486	0.045096
959.959563	0.047570
960.135622	0.047629
960.311662	0.045607
960.487685	0.045050
960.663689	0.046259
960.839675	0.046387
961.015643	0.045546
961.191593	0.044433
961.367524	0.047161
961.543437	0.047182
961.719332	0.046334
961.895209	0.050024
962.071067	0.049754
962.246907	0.048714
962.422730	0.048869
962.598533	0.049857
962.774319	0.051044
962.950086	0.052352
963.125835	0.051313
963.301566	0.052927
963.477279	0.051211
963.652973	0.051711
963.828650	0.052834
964.004308	0.054944
964.179947	0.055596
964.355569	0.052760
964.531172	0.052510
964.706757	0.053128
964.882324	0.053416
965.057873	0.051949
965.233403	0.051602
965.408916	0.050653
965.584410	0.050958
965.759885	0.051512
965.935343	0.053541
966.110782	0.052346
966.286203	0.055102
966.461606	0.053783
966.636991	0.057363
966.812357	0.058123
966.987705	0.059327
967.163035	0.057299
967.338347	0.056343
967.513641	0.055239
967.688916	0.055980
967.864173	0.054380
968.039412	0.053849
968.214632	0.052103
968.389835	0.051520
968.565019	0.050984
968.740185	0.052789
968.915333	0.052666
969.090462	0.055413
969.265573	0.055149
969.440667	0.053850
969.615741	0.055920
969.790798	0.055859
969.965836	0.056552
970.140856	0.059678
970.315858	0.059490
970.490842	0.060009
970.665808	0.059994
970.840755	0.058604
971.015684	0.058324
971.190595	0.059525
971.365487	0.058202
971.540362	0.057321
971.715218	0.054683
971.890056	0.055580
972.064875	0.052670
972.239677	0.052319
972.414460	0.054538
972.589225	0.055677
972.763972	0.055200
972.938700	0.056419
973.113411	0.058304
973.288103	0.057603
973.462777	0.054003
973.637432	0.055913
973.812070	0.055164
973.986689	0.054193
974.161290	0.054175
974.335873	0.052502
974.510437	0.054375
974.684984	0.054044
974.859512	0.056181
975.034022	0.057739
975.208513	0.057892
975.382987	0.056195
975.557442	0.055198
975.731879	0.055021
975.906298	0.056070
976.080698	0.056968
976.255080	0.055496
976.429445	0.055381
976.603790	0.057707
976.778118	0.058435
976.952427	0.061046
977.126719	0.063611
977.300992	0.064973
977.475246	0.063370
977.649483	0.061012
977.823701	0.060716
977.997901	0.057811
978.172083	0.056458
978.346247	0.054963
978.520392	0.055265
978.694519	0.053511
978.868628	0.052697
979.042719	0.052969
979.216791	0.051554
979.390845	0.053783
979.564882	0.055696
979.738899	0.056509
979.912899	0.056014
980.086880	0.052108
980.260843	0.052025
980.434788	0.051643
980.608715	0.052102
980.782623	0.054442
980.956514	0.051809
981.130386	0.052638
981.304240	0.052316
981.478075	0.053188
981.651892	0.056428
981.825692	0.059325
981.999472	0.060724
982.173235	0.059405
982.346980	0.058756
982.520706	0.059284
982.694414	0.058976
982.868104	0.057940
983.041775	0.058771
983.215428	0.060251
983.389064	0.059442
983.562680	0.059879
983.736279	0.059488
983.909860	0.058650
984.083422	0.059919
984.256966	0.058837
984.430491	0.060325
984.603999	0.059498
984.777488	0.058851
984.950959	0.057977
985.124412	0.057405
985.297847	0.057276
985.471263	0.057003
985.644661	0.056893
985.818041	0.059544
985.991403	0.057935
986.164747	0.058258
986.338072	0.055501
986.511379	0.054812
986.684668	0.054027
986.857938	0.055167
987.031191	0.055209
987.204425	0.054711
987.377641	0.053114
987.550839	0.054928
987.724018	0.055656
987.897179	0.056504
988.070322	0.057020
988.243447	0.057457
988.416554	0.057055
988.589642	0.057388
988.762712	0.057684
988.935764	0.057892
989.108798	0.057900
989.281813	0.056203
989.454811	0.057474
989.627790	0.057211
989.800751	0.057420
989.973693	0.058209
990.146617	0.057498
990.319524	0.056590
990.492412	0.055600
990.665281	0.054168
990.838133	0.056507
991.010966	0.056125
991.183781	0.056635
991.356578	0.055709
991.529356	0.056238
991.702117	0.057704
991.874859	0.059393
992.047583	0.059789
992.220288	0.060066
992.392976	0.058491
992.565645	0.057936
992.738296	0.057795
992.910929	0.057781
993.083543	0.056955
993.256139	0.056043
993.428718	0.054343
993.601277	0.054566
993.773819	0.053373
993.946342	0.054404
994.118848	0.053721
994.291335	0.053684
994.463803	0.055275
994.636254	0.056027
994.808686	0.055523
994.981100	0.058046
995.153496	0.057675
995.325874	0.058178
995.498233	0.055833
995.670574	0.057049
995.842897	0.054467
996.015202	0.053907
996.187488	0.052487
996.359757	0.054677
996.532007	0.051655
996.704239	0.051969
996.876452	0.052429
997.048648	0.053422
997.220825	0.054528
997.392984	0.056127
997.565124	0.057329
997.737247	0.057220
997.909351	0.056827
998.081437	0.056059
998.253505	0.054256
998.425554	0.055529
998.597586	0.056403
998.769599	0.055100
998.941594	0.056367
999.113571	0.054487
999.285529	0.055928
999.457469	0.053797
999.629391	0.056044
999.801295	0.058174
999.973181	0.055916
1000.145048	0.056168
1000.316897	0.056429
1000.488728	0.055893
1000.660541	0.055528
1000.832335	0.054486
1001.004111	0.054988
1001.175869	0.055399
1001.347609	0.055541
1001.519331	0.056630
1001.691034	0.056194
1001.862719	0.057441
1002.034386	0.057128
1002.206035	0.057401
1002.377665	0.058014
1002.549277	0.057947
1002.720871	0.058677
1002.892447	0.057806
1003.064004	0.058099
1003.235544	0.058031
1003.407065	0.056748
1003.578568	0.056225
1003.750052	0.055522
1003.921519	0.055384
1004.092967	0.056743
1004.264397	0.053004
1004.435809	0.052361
1004.607202	0.051044
1004.778577	0.050090
1004.949934	0.048329
1005.121273	0.049638
1005.292594	0.049891
1005.463896	0.048584
1005.635180	0.048494
1005.806446	0.051047
1005.977694	0.050979
1006.148923	0.050704
1006.320135	0.050273
1006.491328	0.051984
1006.662503	0.050852
1006.833659	0.049361
1007.004798	0.050730
1007.175918	0.049544
1007.347020	0.049548
1007.518103	0.049691
1007.689169	0.049997
1007.860216	0.051446
1008.031245	0.051060
1008.202256	0.050914
1008.373248	0.051150
1008.544223	0.049355
1008.715179	0.051116
1008.886117	0.051706
1009.057036	0.050906
1009.227938	0.052296
1009.398821	0.053171
1009.569686	0.053736
1009.740533	0.053847
1009.911361	0.055089
1010.082172	0.058952
1010.252964	0.058877
1010.423738	0.056991
1010.594493	0.058651
1010.765231	0.057408
1010.935950	0.057494
1011.106651	0.056364
1011.277334	0.057352
1011.447998	0.056993
1011.618645	0.053387
1011.789273	0.051718
1011.959882	0.052390
1012.130474	0.052338
1012.301048	0.053519
1012.471603	0.052085
1012.642140	0.052852
1012.812658	0.053315
1012.983159	0.054535
1013.153641	0.057348
1013.324105	0.058629
1013.494551	0.058118
1013.664979	0.055968
1013.835388	0.055898
1014.005779	0.055249
1014.176152	0.054250
1014.346507	0.052612
1014.516843	0.052885
1014.687162	0.050839
1014.857462	0.050152
1015.027744	0.050396
1015.198007	0.052409
1015.368252	0.050952
1015.538480	0.050773
1015.708689	0.052315
1015.878879	0.051804
1016.049052	0.048807
1016.219206	0.048451
1016.389342	0.047732
1016.559460	0.047631
1016.729559	0.048531
1016.899641	0.049125
1017.069704	0.050857
1017.239749	0.050007
1017.409775	0.052645
1017.579784	0.055371
1017.749774	0.055172
1017.919746	0.055694
1018.089700	0.055140
1018.259635	0.053856
1018.429553	0.052245
1018.599452	0.051185
1018.769333	0.050738
1018.939195	0.048985
1019.109040	0.048407
1019.278866	0.048182
1019.448674	0.048754
1019.618464	0.049703
1019.788235	0.048982
1019.957989	0.050528
1020.127724	0.050707
1020.297441	0.051260
1020.467139	0.050108
1020.636820	0.049168
1020.806482	0.050686
1020.976126	0.050646
1021.145752	0.049564
1021.315359	0.049481
1021.484948	0.047813
1021.654519	0.048723
1021.824072	0.048702
1021.993607	0.049220
1022.163123	0.050553
1022.332621	0.050836
1022.502101	0.049371
1022.671563	0.049453
1022.841007	0.050592
1023.010432	0.053193
1023.179839	0.051804
1023.349228	0.052700
1023.518598	0.053914
1023.687951	0.054090
1023.857285	0.053875
1024.026601	0.054526
1024.195899	0.055337
1024.365178	0.055612
1024.534439	0.053535
1024.703682	0.053429
1024.872907	0.051020
1025.042114	0.048949
1025.211302	0.049871
1025.380472	0.048680
1025.549624	0.048651
1025.718758	0.048202
1025.887873	0.047477
1026.056970	0.048554
1026.226049	0.048766
1026.395110	0.049005
1026.564153	0.049835
1026.733177	0.049296
1026.902183	0.049825
1027.071171	0.050653
1027.240141	0.051641
1027.409092	0.049452
1027.578026	0.049472
1027.746940	0.049617
1027.915837	0.051037
1028.084716	0.052508
1028.253576	0.052700
1028.422418	0.052397
1028.591242	0.052506
1028.760048	0.050914
1028.928835	0.052614
1029.097604	0.054064
1029.266355	0.056374
1029.435088	0.056631
1029.603803	0.056051
1029.772499	0.055045
1029.941177	0.055823
1030.109837	0.055138
1030.278478	0.056658
1030.447102	0.057162
1030.615707	0.055567
1030.784294	0.053973
1030.952863	0.050874
1031.121413	0.050922
1031.289945	0.050489
1031.458460	0.051415
1031.626955	0.051205
1031.795433	0.051499
1031.963892	0.050854
1032.132334	0.049921
1032.300756	0.049513
1032.469161	0.051837
1032.637548	0.051142
1032.805916	0.050406
1032.974266	0.048765
1033.142598	0.049937
1033.310911	0.048206
1033.479207	0.049609
1033.647484	0.050948
1033.815743	0.051534
1033.983983	0.051906
1034.152206	0.051208
1034.320410	0.052660
1034.488596	0.054624
1034.656764	0.055498
1034.824914	0.055971
1034.993045	0.054594
1035.161158	0.053444
1035.329253	0.053191
1035.497330	0.051690
1035.665388	0.052095
1035.833428	0.051541
1036.001450	0.051595
1036.169454	0.047124
1036.337440	0.047478
1036.505407	0.046941
1036.673356	0.048665
1036.841287	0.047741
1037.009200	0.047546
1037.177094	0.048992
1037.344970	0.048379
1037.512828	0.045548
1037.680668	0.048029
1037.848489	0.047432
1038.016293	0.047607
1038.184078	0.046010
1038.351845	0.046866
1038.519593	0.046866
1038.687324	0.045802
1038.855036	0.045330
1039.022730	0.045033
1039.190406	0.044953
1039.358063	0.045556
1039.525702	0.046334
1039.693323	0.046770
1039.860926	0.043937
1040.028511	0.044966
1040.196077	0.045213
1040.363625	0.045282
1040.531155	0.047658
1040.698667	0.047640
1040.866161	0.047788
1041.033636	0.049092
1041.201093	0.048542
1041.368532	0.051684
1041.535952	0.053369
1041.703355	0.054412
1041.870739	0.054345
1042.038105	0.052429
1042.205452	0.052373
1042.372782	0.051671
1042.540093	0.049848
1042.707386	0.050995
1042.874661	0.050629
1043.041918	0.047969
1043.209156	0.046372
1043.376376	0.047397
1043.543578	0.045923
1043.710762	0.046368
1043.877927	0.046437
1044.045074	0.046054
1044.212203	0.044690
1044.379314	0.045757
1044.546407	0.045662
1044.713481	0.046161
1044.880537	0.045694
1045.047575	0.049125
1045.214595	0.049029
1045.381596	0.049539
1045.548579	0.051393
1045.715544	0.053224
1045.882491	0.050133
1046.049420	0.051746
1046.216330	0.052410
1046.383222	0.052595
1046.550096	0.051546
1046.716951	0.050563
1046.883789	0.052714
1047.050608	0.052286
1047.217409	0.050095
1047.384192	0.052725
1047.550956	0.052344
1047.717703	0.051995
1047.884431	0.051500
1048.051140	0.051943
1048.217832	0.053361
1048.384505	0.050682
1048.551161	0.049768
1048.717798	0.049260
1048.884416	0.048103
1049.051017	0.050135
1049.217599	0.051323
1049.384163	0.051517
1049.550709	0.052455
1049.717237	0.052936
1049.883746	0.052627
1050.050237	0.053281
1050.216710	0.054989
1050.383165	0.054932
1050.549601	0.052969
1050.716019	0.051191
1050.882420	0.051678
1051.048801	0.052220
1051.215165	0.050657
1051.381510	0.051578
1051.547837	0.051849
1051.714146	0.051235
1051.880437	0.051810
1052.046709	0.052730
1052.212964	0.051851
1052.379200	0.049646
1052.545417	0.047498
1052.711617	0.049625
1052.877798	0.050675
1053.043961	0.049739
1053.210106	0.050956
1053.376233	0.049994
1053.542341	0.048108
1053.708432	0.048894
1053.874504	0.051004
1054.040557	0.050322
1054.206593	0.047237
1054.372610	0.045160
1054.538609	0.046343
1054.704590	0.045745
1054.870553	0.047017
1055.036497	0.047134
1055.202424	0.048318
1055.368331	0.047668
1055.534221	0.048321
1055.700093	0.051201
1055.865946	0.051746
1056.031781	0.051891
1056.197598	0.050100
1056.363397	0.048617
1056.529177	0.049322
1056.694939	0.047875
1056.860683	0.047584
1057.026409	0.048980
1057.192116	0.047280
1057.357806	0.048943
1057.523477	0.047979
1057.689130	0.049415
1057.854764	0.050138
1058.020381	0.050416
1058.185979	0.051463
1058.351559	0.052492
1058.517120	0.050808
1058.682664	0.051371
1058.848189	0.047111
1059.013696	0.046180
1059.179185	0.046299
1059.344656	0.045542
1059.510108	0.045089
1059.675542	0.042989
1059.840958	0.042360
1060.006356	0.042463
1060.171735	0.040968
1060.337096	0.043728
1060.502439	0.045026
1060.667764	0.047348
1060.833071	0.049992
1060.998359	0.049668
1061.163629	0.050916
1061.328881	0.052147
1061.494115	0.053711
1061.659330	0.054063
1061.824527	0.053544
1061.989706	0.054560
1062.154867	0.050969
1062.320010	0.048165
1062.485134	0.048512
1062.650240	0.048207
1062.815328	0.048096
1062.980398	0.049289
1063.145449	0.048953
1063.310482	0.049504
1063.475497	0.049954
1063.640494	0.050102
1063.805473	0.050399
1063.970433	0.050193
1064.135375	0.051007
1064.300299	0.050613
1064.465204	0.046923
1064.630092	0.047217
1064.794961	0.048581
1064.959812	0.045097
1065.124645	0.045996
1065.289459	0.046172
1065.454256	0.046905
1065.619034	0.046540
1065.783793	0.046048
1065.948535	0.046378
1066.113258	0.047827
1066.277964	0.045452
1066.442651	0.046010
1066.607319	0.046784
1066.771970	0.047904
1066.936602	0.046513
1067.101216	0.045097
1067.265812	0.044093
1067.430389	0.044308
1067.594949	0.044275
1067.759490	0.044838
1067.924013	0.046240
1068.088518	0.046118
1068.253004	0.044415
1068.417472	0.044990
1068.581922	0.046566
1068.746354	0.045664
1068.910768	0.046399
1069.075163	0.043649
1069.239540	0.045600
1069.403899	0.045262
1069.568240	0.043914
1069.732562	0.044937
1069.896866	0.044862
1070.061152	0.045877
1070.225420	0.045344
1070.389670	0.045519
1070.553901	0.048124
1070.718114	0.045686
1070.882309	0.043877
1071.046486	0.043649
1071.210644	0.044419
1071.374784	0.045649
1071.538906	0.042178
1071.703010	0.045716
1071.867096	0.044848
1072.031163	0.043804
1072.195212	0.043303
1072.359243	0.045544
1072.523256	0.045789
1072.687250	0.045342
1072.851226	0.042950
1073.015184	0.044328
1073.179124	0.041528
1073.343045	0.043032
1073.506949	0.042849
1073.670834	0.045849
1073.834701	0.043455
1073.998549	0.044424
1074.162380	0.045274
1074.326192	0.045698
1074.489986	0.044692
1074.653761	0.045515
1074.817519	0.043485
1074.981258	0.042414
1075.144979	0.039025
1075.308682	0.039378
1075.472367	0.038798
1075.636033	0.035668
1075.799681	0.035890
1075.963311	0.037836
1076.126923	0.038667
1076.290516	0.040206
1076.454092	0.041582
1076.617649	0.043773
1076.781187	0.043571
1076.944708	0.044171
1077.108210	0.046136
1077.271695	0.047592
1077.435160	0.045361
1077.598608	0.044018
1077.762038	0.045007
1077.925449	0.045239
1078.088842	0.042551
1078.252217	0.043864
1078.415573	0.041955
1078.578912	0.042000
1078.742232	0.040905
1078.905534	0.041220
1079.068817	0.041115
1079.232083	0.038072
1079.395330	0.038202
1079.558559	0.038889
1079.721770	0.039741
1079.884962	0.042539
1080.048136	0.041352
1080.211293	0.041130
1080.374430	0.041462
1080.537550	0.041445
1080.700651	0.042956
1080.863735	0.042751
1081.026800	0.043466
1081.189846	0.042345
1081.352875	0.043825
1081.515885	0.044359
1081.678877	0.047174
1081.841851	0.048527
1082.004807	0.049495
1082.167744	0.049911
1082.330663	0.048206
1082.493564	0.047948
1082.656447	0.048946
1082.819312	0.043883
1082.982158	0.042131
1083.144986	0.037718
1083.307796	0.035936
1083.470587	0.034938
1083.633361	0.035566
1083.796116	0.037561
1083.958853	0.036391
1084.121571	0.033945
1084.284272	0.035713
1084.446954	0.036982
1084.609618	0.039362
1084.772264	0.040542
1084.934892	0.039983
1085.097501	0.040471
1085.260092	0.039228
1085.422665	0.039803
1085.585220	0.040565
1085.747756	0.043336
1085.910274	0.042352
1086.072774	0.042201
1086.235256	0.043898
1086.397720	0.044697
1086.560165	0.041258
1086.722592	0.040454
1086.885001	0.042123
1087.047392	0.043644
1087.209764	0.041280
1087.372119	0.042418
1087.534455	0.042980
1087.696772	0.041943
1087.859072	0.043062
1088.021353	0.043202
1088.183616	0.044850
1088.345861	0.043733
1088.508088	0.041196
1088.670296	0.041520
1088.832486	0.042743
1088.994658	0.041312
1089.156812	0.039799
1089.318948	0.038788
1089.481065	0.039961
1089.643164	0.039145
1089.805245	0.039444
1089.967308	0.041420
1090.129352	0.040880
1090.291378	0.040446
1090.453386	0.041056
1090.615376	0.041593
1090.777347	0.038443
1090.939301	0.038315
1091.101236	0.037889
1091.263153	0.036497
1091.425051	0.036458
1091.586932	0.034995
1091.748794	0.033256
1091.910638	0.033525
1092.072463	0.033376
1092.234271	0.036291
1092.396060	0.038844
1092.557831	0.038681
1092.719584	0.042242
1092.881319	0.041469
1093.043035	0.044179
1093.204733	0.044997
1093.366413	0.043818
1093.528075	0.043723
1093.689718	0.044347
1093.851343	0.042203
1094.012950	0.041325
1094.174539	0.040262
1094.336110	0.040857
1094.497662	0.041616
1094.659196	0.041302
1094.820712	0.044504
1094.982210	0.044100
1095.143689	0.044170
1095.305151	0.043329
1095.466594	0.042379
1095.628018	0.042785
1095.789425	0.040952
1095.950813	0.038257
1096.112183	0.036391
1096.273535	0.034516
1096.434869	0.036663
1096.596184	0.035591
1096.757482	0.036020
1096.918761	0.038454
1097.080021	0.037701
1097.241264	0.039821
1097.402488	0.040988
1097.563694	0.042178
1097.724882	0.039786
1097.886052	0.041279
1098.047203	0.046773
1098.208336	0.045922
1098.369451	0.047241
1098.530548	0.046604
1098.691627	0.049109
1098.852687	0.046896
1099.013729	0.045643
1099.174753	0.048255
1099.335758	0.043762
1099.496746	0.041961
1099.657715	0.044180
1099.818666	0.044743
1099.979599	0.046708
1100.140513	0.045762
1100.301409	0.047202
1100.462287	0.048511
1100.623147	0.047551
1100.783989	0.049617
1100.944812	0.045963
1101.105617	0.045946
1101.266404	0.047227
1101.427173	0.043802
1101.587923	0.043818
1101.748656	0.041509
1101.909370	0.041992
1102.070066	0.039433
1102.230743	0.036328
1102.391403	0.040453
1102.552044	0.037024
1102.712667	0.035418
1102.873271	0.035675
1103.033858	0.034730
1103.194426	0.038965
1103.354976	0.039956
1103.515508	0.042263
1103.676021	0.048534
1103.836517	0.043894
1103.996994	0.043964
1104.157453	0.043927
1104.317893	0.041782
1104.478316	0.040962
1104.638720	0.039208
1104.799106	0.038214
1104.959474	0.038115
1105.119823	0.034274
1105.280155	0.032437
1105.440468	0.032286
1105.600763	0.034355
1105.761039	0.037523
1105.921298	0.035614
1106.081538	0.036850
1106.241760	0.033432
1106.401964	0.031045
1106.562149	0.032539
1106.722316	0.034732
1106.882465	0.036821
1107.042596	0.033516
1107.202709	0.034558
1107.362803	0.037604
1107.522879	0.033403
1107.682937	0.035931
1107.842977	0.040047
1108.002999	0.041195
1108.163002	0.041361
1108.322987	0.039851
1108.482954	0.040889
1108.642902	0.037498
1108.802833	0.033036
1108.962745	0.031552
1109.122639	0.032397
1109.282515	0.029755
1109.442372	0.024189
1109.602211	0.023537
1109.762032	0.025006
1109.921835	0.021552
1110.081620	0.021629
1110.241386	0.022100
1110.401134	0.024018
1110.560864	0.023660
1110.720576	0.026136
1110.880269	0.028873
1111.039945	0.027364
1111.199602	0.027116
1111.359240	0.028019
1111.518861	0.025081
1111.678463	0.027332
1111.838047	0.032137
1111.997613	0.033301
1112.157161	0.033375
1112.316690	0.035150
1112.476202	0.035703
1112.635695	0.037231
1112.795169	0.035425
1112.954626	0.038030
1113.114064	0.034389
1113.273484	0.031438
1113.432886	0.029426
1113.592270	0.025955
1113.751635	0.024099
1113.910983	0.028367
1114.070312	0.024552
1114.229622	0.022453
1114.388915	0.026566
1114.548189	0.031001
1114.707445	0.032577
1114.866683	0.032952
1115.025903	0.031016
1115.185104	0.035147
1115.344287	0.029462
1115.503452	0.032909
1115.662599	0.037451
1115.821727	0.031915
1115.980838	0.031282
1116.139930	0.033411
1116.299004	0.032980
1116.458059	0.039085
1116.617097	0.036695
1116.776116	0.042408
1116.935117	0.045985
1117.094099	0.048756
1117.253064	0.055467
1117.412010	0.056208
1117.570938	0.052688
1117.729848	0.052271
1117.888740	0.051060
1118.047613	0.050518
1118.206468	0.050703
1118.365305	0.046160
1118.524124	0.044349
1118.682924	0.034543
1118.841707	0.031400
1119.000471	0.033681
1119.159216	0.031471
1119.317944	0.032402
1119.476653	0.030727
1119.635344	0.029323
1119.794017	0.028707
1119.952672	0.029856
1120.111308	0.037259
1120.269927	0.037984
1120.428527	0.033918
1120.587108	0.039634
1120.745672	0.035222
1120.904217	0.035194
1121.062744	0.033178
1121.221253	0.034017
1121.379744	0.035910
1121.538216	0.035028
1121.696671	0.034008
1121.855107	0.032257
1122.013524	0.030424
1122.171924	0.032722
1122.330305	0.031971
1122.488668	0.033479
1122.647013	0.026544
1122.805340	0.022645
1122.963648	0.026749
1123.121938	0.026353
1123.280210	0.027915
1123.438464	0.028994
1123.596700	0.030088
1123.754917	0.031564
1123.913116	0.032743
1124.071297	0.039177
1124.229459	0.033668
1124.387604	0.029321
1124.545730	0.033427
1124.703838	0.033906
1124.861928	0.032268
1125.019999	0.028030
1125.178052	0.023077
1125.336088	0.020874
1125.494104	0.024484
1125.652103	0.029842
1125.810083	0.035817
1125.968045	0.032459
1126.125989	0.035059
1126.283915	0.038264
1126.441823	0.035327
1126.599712	0.046947
1126.757583	0.045496
1126.915436	0.039417
1127.073270	0.038432
1127.231087	0.033482
1127.388885	0.036068
1127.546665	0.034623
1127.704426	0.027970
1127.862170	0.032037
1128.019895	0.024995
1128.177602	0.026453
1128.335291	0.030106
1128.492961	0.028373
1128.650614	0.022888
1128.808248	0.020124
1128.965864	0.021165
1129.123461	0.024774
1129.281041	0.023244
1129.438602	0.025935
1129.596145	0.026578
1129.753670	0.025236
1129.911176	0.024762
1130.068665	0.027977
1130.226135	0.034594
1130.383587	0.030760
1130.541020	0.029052
1130.698436	0.030069
1130.855833	0.029110
1131.013212	0.034227
1131.170573	0.036554
1131.327915	0.037018
1131.485239	0.034951
1131.642545	0.027632
1131.799833	0.025443
1131.957103	0.029066
1132.114354	0.033497
1132.271588	0.036844
1132.428803	0.029025
1132.585999	0.023615
1132.743178	0.021052
1132.900338	0.023309
1133.057480	0.028555
1133.214604	0.037534
1133.371710	0.034214
1133.528797	0.036086
1133.685866	0.033670
1133.842917	0.034275
1133.999950	0.037171
1134.156964	0.043989
1134.313960	0.044840
1134.470938	0.040531
1134.627898	0.040226
1134.784840	0.039310
1134.941763	0.036561
1135.098668	0.036628
1135.255555	0.042231
1135.412424	0.040422
1135.569274	0.040544
1135.726107	0.035042
1135.882921	0.038024
1136.039716	0.036232
1136.196494	0.038923
1136.353253	0.033675
1136.509995	0.038010
1136.666717	0.036651
1136.823422	0.040691
1136.980109	0.033243
1137.136777	0.043147
1137.293427	0.045434
1137.450059	0.043469
1137.606672	0.046418
1137.763267	0.054489
1137.919844	0.040324
1138.076403	0.039010
1138.232944	0.036558
1138.389466	0.042333
1138.545971	0.040996
1138.702457	0.036767
1138.858924	0.032627
1139.015374	0.033470
1139.171805	0.028158
1139.328218	0.034454
1139.484613	0.036757
1139.640990	0.041507
1139.797348	0.042544
1139.953688	0.041504
1140.110010	0.041892
1140.266314	0.048602
1140.422600	0.041219
1140.578867	0.042702
1140.735116	0.046745
1140.891347	0.041461
1141.047559	0.043286
1141.203754	0.042773
1141.359930	0.039145
1141.516088	0.035431
1141.672228	0.040920
1141.828349	0.046006
1141.984452	0.047146
1142.140537	0.042208
1142.296604	0.044220
1142.452653	0.031013
1142.608683	0.030488
1142.764695	0.041196
1142.920689	0.045239
1143.076665	0.031378
1143.232622	0.031576
1143.388562	0.026908
1143.544483	0.034876
1143.700385	0.035263
1143.856270	0.038091
1144.012136	0.037672
1144.167985	0.023935
1144.323814	0.022940
1144.479626	0.025842
1144.635420	0.024137
1144.791195	0.028479
1144.946952	0.027775
1145.102691	0.027238
1145.258411	0.033711
1145.414113	0.036095
1145.569798	0.037953
1145.725463	0.038648
1145.881111	0.040611
1146.036741	0.047353
1146.192352	0.045389
1146.347945	0.037805
1146.503519	0.033012
1146.659076	0.025733
1146.814614	0.023763
1146.970134	0.024313
1147.125636	0.013553
1147.281120	0.011354
1147.436585	0.004732
1147.592032	0.007466
1147.747461	0.013231
1147.902872	0.014590
1148.058265	0.018370
1148.213639	0.018728
1148.368995	0.028567
1148.524333	0.039788
1148.679653	0.045048
1148.834954	0.048904
1148.990237	0.054674
1149.145502	0.052917
1149.300749	0.052974
1149.455977	0.049514
1149.611188	0.049683
1149.766380	0.048026
1149.921553	0.043769
1150.076709	0.043194
1150.231846	0.043407
1150.386966	0.036286
1150.542066	0.031178
1150.697149	0.038533
1150.852214	0.042639
1151.007260	0.041658
1151.162288	0.030696
1151.317298	0.032975
1151.472289	0.030255
1151.627263	0.023370
1151.782218	0.020569
1151.937155	0.028571
1152.092073	0.020480
1152.246974	0.026708
1152.401856	0.022413
1152.556720	0.030197
1152.711566	0.026439
1152.866393	0.026313
1153.021203	0.024329
1153.175994	0.032852
1153.330767	0.022790
1153.485521	0.034077
1153.640258	0.030377
1153.794976	0.040569
1153.949676	0.028169
1154.104358	0.034848
1154.259021	0.029210
1154.413667	0.029220
1154.568294	0.011070
1154.722903	0.015504
1154.877493	0.013463
1155.032066	0.010375
1155.186620	0.011609
1155.341156	0.028225
1155.495674	0.031774
1155.650173	0.035359
1155.804654	0.047938
1155.959118	0.055566
1156.113562	0.052282
1156.267989	0.046446
1156.422397	0.041412
1156.576788	0.035824
1156.731160	0.023929
1156.885513	0.020551
1157.039849	0.030485
1157.194166	0.027793
1157.348465	0.035976
1157.502746	0.044670
1157.657009	0.035544
1157.811253	0.044325
1157.965479	0.034151
1158.119687	0.038501
1158.273877	0.047102
1158.428048	0.043193
1158.582201	0.032704
1158.736337	0.017189
1158.890453	0.006058
1159.044552	0.010187
1159.198632	0.022840
1159.352694	0.030149
1159.506738	0.028987
1159.660764	0.017723
1159.814771	0.016913
1159.968761	0.030310
1160.122732	0.047647
1160.276685	0.051261
1160.430619	0.065224
1160.584535	0.055246
1160.738434	0.045762
1160.892313	0.045865
1161.046175	0.044549
1161.200019	0.039531
1161.353844	0.022335
1161.507651	0.011754
1161.661440	0.016062
1161.815210	0.010799
1161.968962	0.005152
1162.122697	0.011217
1162.276412	0.009270
1162.430110	0.006810
1162.583789	0.011869
1162.737451	0.014391
1162.891094	0.028648
1163.044718	0.026442
1163.198325	0.027305
1163.351913	0.027558
1163.505483	0.030210
1163.659035	0.035370
1163.812569	0.046726
1163.966084	0.044475
1164.119581	0.044604
1164.273060	0.039323
1164.426521	0.042984
1164.579964	0.041961
1164.733388	0.045211
1164.886794	0.040115
1165.040182	0.044972
1165.193551	0.048114
1165.346903	0.054543
1165.500236	0.064226
1165.653551	0.046580
1165.806848	0.042358
1165.960126	0.034905
1166.113386	0.032771
1166.266628	0.026940
1166.419852	0.023569
1166.573058	0.009811
1166.726245	-0.000523
1166.879414	-0.005225
1167.032565	0.009591
1167.185698	0.014954
1167.338812	0.032317
1167.491909	0.032576
1167.644987	0.043512
1167.798046	0.027160
1167.951088	0.036132
1168.104111	0.031907
1168.257117	0.059021
1168.410103	0.053020
1168.563072	0.042106
1168.716023	0.026325
1168.868955	0.012503
1169.021869	0.007339
1169.174765	0.009441
1169.327642	0.009879
1169.480501	0.005704
1169.633343	-0.021211
1169.786165	-0.017994
1169.938970	-0.022524
1170.091757	-0.030416
1170.244525	-0.019116
1170.397275	-0.011009
1170.550007	-0.009492
1170.702720	-0.011829
1170.855415	-0.001548
1171.008092	-0.001437
1171.160751	-0.007137
1171.313392	-0.003977
1171.466014	0.007331
1171.618619	-0.021165
1171.771205	-0.021165
1171.923772	-0.021165
