sample name	sample
index	860
start time	 04-08-2021  12:24:39 PM
880	0.501167
Peak Time (s)	101.535
Peak Height 	0.5012
calc peak height	100,103
Baseline Time (s)	11.537
Baseline Value 	-0.004397
subtract baseline	10,4
Abs	0.365816
Peak Time (s)	101.035
Peak Height 	0.3658
calc peak height	100,103
Baseline Time (s)	9.035
Baseline Value 	0.002292
subtract baseline	10,3
PK_550	0.185672
Peak Time (s)	102.538
Peak Height 	0.1857
calc peak height	100,103
Baseline Time (s)	10.536
Baseline Value 	5.4172E-4
subtract baseline	10,2
PK_880	0.331397
Peak Time (s)	100.537
Peak Height 	0.3314
calc peak height	100,103
Baseline Time (s)	8.537
Baseline Value 	0.001376
subtract baseline	10,1


Time (s)	A880-A510	A880-A775	A880-A975	A880	I510	I775	I975	I880	
0.038000	-0.002312	-0.000099	-0.003242	0.008800	6782.099340	41865.563902	3865.522259	22415.212774
0.535500	-0.001343	-0.000470	-0.001072	0.005416	6823.238053	42138.079916	3880.915121	22569.535963
1.036000	-0.002468	0.000240	-0.003298	0.004729	6819.079047	42265.065789	3876.631664	22601.034924
1.537000	-0.000593	0.000158	0.001310	0.002641	6856.857243	42448.139596	3895.387082	22697.010776
2.037000	-0.003825	-0.000721	-0.002968	0.007498	6780.116975	41926.908867	3869.869958	22474.437745
2.537000	-0.001165	-0.000762	-0.004199	0.001536	6861.962273	42465.048225	3883.016578	22747.972654
3.037500	0.000933	-0.000086	-0.000904	-0.001078	6907.387070	42767.356794	3899.643341	22869.131076
3.537500	-0.000735	-0.000241	0.003273	0.000972	6871.500327	42564.480117	3905.680245	22774.056289
4.040500	-0.001264	-0.000297	-0.003818	0.001677	6859.664039	42494.766145	3883.688793	22741.470425
4.535500	-0.000123	-0.000190	-0.000384	0.000414	6882.763033	42620.443409	3896.893270	22799.918320
5.035500	0.001614	-0.000200	-0.000418	0.000108	6902.486640	42647.645259	3897.659764	22814.065811
5.536000	-0.000258	0.000554	0.002660	0.000781	6877.935136	42655.117279	3904.481960	22782.925200
6.036000	-0.001281	-0.000480	0.001635	-0.000348	6878.951320	42663.829939	3904.777830	22835.220883
6.536500	0.001434	0.000398	-0.003776	0.000337	6898.529419	42681.579981	3887.559551	22803.461577
7.037000	0.002143	0.000108	-0.000001	0.000101	6907.677542	42676.549873	3898.859564	22814.376602
7.539500	0.002393	-0.000413	-0.003711	-0.000182	6912.852830	42654.704465	3889.198043	22827.510617
8.037000	-0.000845	-0.000686	-0.002080	-0.000590	6885.475508	42667.159022	3894.937940	22846.447186
8.537000	0.000000	0.000230	0.001032	0.000039	6887.565930	42693.569557	3901.964790	22817.290091
9.035000	-0.000466	-0.000273	0.000000	-0.000180	6885.178712	42667.404458	3899.659798	22827.429131
9.535500	-0.000055	0.000139	-0.000822	-0.000370	6890.976250	42722.798527	3897.869686	22836.239682
10.035500	0.002553	0.001113	0.003807	0.000202	6910.688592	42759.857472	3909.399762	22809.737054
10.536000	-0.002718	0.000000	-0.003543	-0.000727	6868.774364	42742.895760	3891.202501	22852.809808
11.036000	0.001960	-0.000053	0.002715	0.000084	6906.076411	42663.365342	3906.622561	22815.200060
11.536500	0.001476	-0.000142	-0.002331	0.000000	6902.205408	42662.895051	3892.569084	22819.079290
12.037000	-0.000561	0.000207	-0.001676	-0.000257	6885.000940	42718.640025	3895.136966	22830.985503
12.537000	-0.000154	-0.000403	0.002303	-0.000412	6890.425741	42676.719558	3906.859233	22838.168123
13.037500	0.000968	0.000456	0.004457	0.000664	6890.869676	42656.873072	3909.935609	22788.326930
13.537500	-0.001662	-0.000392	0.001790	0.002286	6850.029391	42430.379556	3897.747451	22713.384415
14.035000	-0.001190	0.000147	0.000112	0.002468	6852.797400	42463.047070	3892.498835	22704.997241
14.535500	-0.000398	0.000464	-0.000159	0.002624	6858.888128	42477.804048	3891.296643	22697.817240
15.041000	-0.000818	-0.000097	0.001854	0.000668	6873.629239	42605.625621	3902.513187	22788.136791
15.535000	-0.000364	-0.000368	0.000350	0.002310	6862.218900	42430.295730	3893.611550	22712.251158
16.036000	-0.000107	-0.000077	0.001239	0.000676	6880.390934	42606.738068	3900.744936	22787.771101
16.536500	-0.000441	-0.000048	0.002408	0.000636	6877.556667	42613.029177	3904.177448	22789.606080
17.036500	0.002595	0.000919	-0.000886	-0.001872	6931.252587	42933.591826	3901.945855	22906.060401
17.540500	0.000887	-0.000586	-0.004320	0.001672	6880.373295	42468.734806	3882.299969	22741.710651
18.037500	-0.002492	-0.001148	0.000801	0.001340	6851.137326	42447.762304	3897.625956	22757.066538
18.535000	0.000487	0.000060	0.000255	0.002116	6872.255190	42487.238131	3893.891790	22721.210643
19.038000	0.000097	0.000451	0.001530	0.002027	6869.356890	42531.224427	3897.742786	22725.321430
19.535500	-0.001118	-0.000137	-0.001306	0.002388	6854.252281	42444.347326	3888.734837	22708.687386
20.036000	-0.001273	-0.000118	-0.004396	0.001838	6858.034301	42496.421357	3881.625878	22734.033051
20.536000	0.000386	0.000300	0.000927	0.002233	6870.158591	42498.452689	3895.456505	22715.803528
21.036500	-0.003995	-0.001010	-0.000576	0.000943	6840.569599	42496.685196	3894.855676	22775.395449
21.536500	-0.000973	-0.000412	-0.003236	0.002108	6858.322303	42444.859348	3884.112614	22721.604607
22.037000	-0.002315	-0.000562	-0.002236	0.001276	6853.433583	42507.202648	3889.245450	22759.994591
22.537500	0.000363	-0.000517	-0.000412	0.001217	6879.712259	42516.756775	3894.545449	22762.738633
23.037500	-0.001208	0.000260	0.002441	0.001931	6857.766853	42522.505084	3900.596330	22729.760819
23.535000	0.001259	-0.000137	-0.000169	0.001710	6883.592750	42506.389233	3893.840252	22739.951024
24.035500	-0.001072	-0.000252	0.003021	0.001482	6863.367894	42516.720704	3903.515751	22750.482280
24.535500	0.000568	-0.000226	-0.001341	0.001336	6880.544495	42532.560063	3891.596197	22757.259266
25.036000	-0.000652	-0.000420	-0.000779	0.001311	6869.050409	42517.038760	3893.248512	22758.407835
25.536000	-0.001981	-0.000007	-0.003507	0.001930	6850.381870	42498.169954	3883.852514	22729.809761
26.036500	-0.000650	0.000306	0.000662	0.002248	6860.076945	42497.651872	3894.666186	22715.128430
26.536500	-0.001434	-0.000797	-0.001143	0.001070	6863.858075	42504.619030	3892.901017	22769.552195
27.039000	-0.000519	-0.000310	0.000680	-0.001815	6900.460696	42814.712841	3906.236233	22903.410302
27.537000	0.001755	0.000708	0.003201	0.000114	6903.801202	42730.621380	3907.921977	22813.783593
28.035000	-0.001830	0.000101	-0.000517	0.000434	6866.146872	42645.261391	3896.459603	22798.948462
28.535000	-0.001521	-0.001166	-0.000011	-0.000153	6874.770129	42582.871362	3899.552659	22826.193386
29.035500	0.000301	-0.000137	0.000995	0.000120	6889.682045	42652.288151	3901.629621	22813.503032
29.535500	-0.000021	0.000350	0.002428	0.000444	6883.461027	42667.340334	3904.781290	22798.515058
30.035500	-0.001042	-0.000210	-0.003327	0.000617	6871.971882	42599.982673	3888.034909	22790.516830
30.536500	-0.001893	-0.000127	0.002827	0.002457	6846.176223	42438.933426	3900.196850	22705.479588
31.036500	-0.000318	-0.000077	0.003247	0.002545	6860.411638	42435.466775	3901.138409	22701.449355
31.539500	-0.001398	-0.001023	-0.001235	0.001839	6856.830118	42413.485080	3890.477542	22733.993977
32.037500	-0.000616	-0.000734	0.001701	0.000611	6876.118980	42552.424769	3902.240073	22790.765924
32.537500	-0.000252	-0.000507	0.001318	0.000029	6885.232666	42626.696707	3902.804926	22817.742689
33.035500	-0.004317	-0.000372	0.001381	0.000252	6844.090939	42618.571472	3902.351498	22807.396150
33.535500	0.000086	0.000403	-0.003520	0.002116	6868.398761	42518.627321	3883.295476	22721.207214
34.035500	-0.000794	0.000175	0.001493	0.002362	6857.606473	42475.268422	3896.692213	22709.881133
34.536000	-0.001462	-0.000546	0.001457	0.001591	6858.588664	42479.860484	3898.772187	22745.461133
35.036000	-0.001419	-0.000043	0.000820	0.002135	6853.791053	42476.085353	3895.430805	22720.327656
35.536000	-0.000897	-0.000162	0.000622	0.001953	6860.535999	42481.897162	3895.388889	22728.751132
36.037000	-0.001416	0.000073	0.000386	0.002446	6850.846458	42458.224714	3893.329211	22705.979555
36.537000	-0.001087	-0.000171	-0.000316	0.001892	6859.295254	42486.588340	3892.912293	22731.537172
37.036500	-0.001841	-0.000213	-0.000608	0.001887	6852.127323	42483.261326	3892.106946	22731.786480
37.535000	-0.000699	0.000366	0.000707	0.002389	6858.245967	42490.213964	3894.394812	22708.606076
38.035500	-0.002836	-0.000162	-0.000105	0.001973	6841.802439	42479.970476	3893.279083	22727.814093
38.535500	-0.000867	0.000018	-0.002383	0.002079	6859.613395	42486.781774	3886.581619	22722.919281
39.035500	-0.000106	0.000458	-0.001182	0.002464	6863.216161	42491.805345	3888.868434	22705.165666
39.536000	-0.000573	-0.000583	-0.000231	0.002531	6858.098828	42390.486465	3891.354412	22702.079482
40.036500	0.000238	0.001082	-0.000708	0.002951	6861.846706	42504.420194	3888.834540	22682.738752
40.536500	-0.000963	0.000332	0.006221	0.002127	6858.239692	42511.128512	3910.797451	22720.716084
41.037000	-0.001110	-0.000074	-0.000773	0.002359	6854.604860	42452.731584	3890.312325	22709.995109
41.536500	-0.001653	0.000415	0.000434	0.003309	6840.350077	42410.666462	3891.037662	22666.268704
42.037500	-0.000307	-0.000658	-0.001898	0.001581	6869.759668	42470.476737	3889.337940	22745.902778
42.535000	-0.000872	0.000309	0.003373	0.002588	6854.696908	42466.845455	3901.375305	22699.462921
43.035000	-0.001562	-0.000187	-0.003886	0.002227	6851.539906	42454.454015	3881.963147	22716.093086
43.535000	-0.000180	0.000841	-0.000234	0.003697	6850.699616	42414.072413	3888.070456	22648.411309
44.036000	0.001020	-0.000328	0.000398	0.000207	6895.782951	42626.695572	3899.689250	22809.462121
44.536000	-0.001440	-0.000247	-0.000351	0.000409	6870.139026	42615.680857	3896.998911	22800.120403
45.036500	0.000060	0.000275	0.004067	0.001014	6878.743112	42608.009854	3907.822343	22772.105202
45.539500	-0.000662	-0.000430	0.001736	0.002774	6854.925768	42382.352697	3896.215495	22690.906306
46.037000	-0.000773	-0.000239	0.003432	0.001277	6868.210070	42536.722813	3905.267321	22759.978553
46.537500	-0.000383	0.000250	-0.000475	0.000609	6878.386235	42643.013243	3896.085668	22790.879358
47.035000	0.001572	0.000797	0.001643	0.001253	6891.014986	42634.023853	3900.255601	22761.084711
47.535500	-0.001873	0.000193	0.002590	0.003397	6837.401480	42382.288060	3896.866898	22662.197746
48.035500	0.000080	0.000638	0.001536	0.001996	6869.496518	42551.225346	3897.849856	22726.777270
48.536000	0.000514	-0.000030	-0.002012	0.000821	6884.975643	42597.760672	3891.154647	22781.040438
49.036500	0.000566	0.000378	0.001555	0.000871	6884.995950	42630.617445	3901.086113	22778.726098
49.536000	-0.002056	0.000590	0.003846	0.002324	6845.897559	42516.766169	3903.465194	22711.611705
50.039500	0.001434	0.000302	0.006120	-0.001057	6912.038036	42801.190716	3919.637548	22868.128217
50.537000	0.001910	0.000635	0.002895	0.000367	6902.844259	42700.576047	3906.328343	22802.050738
51.037000	0.000397	-0.002186	-0.002765	-0.042382	7321.641366	46550.582935	4016.596360	24883.022616
51.537500	-0.041345	-0.012860	0.017716	0.115237	5619.731316	32470.131250	3651.843639	18126.696240
52.037500	-0.048664	-0.021374	-0.002974	-0.052860	6928.618128	45680.314567	4048.826510	25425.088518
52.535500	-0.005179	-0.010906	-0.002706	-0.121967	8180.607551	54318.830154	4287.732186	29347.375037
53.035000	-0.023295	-0.009909	0.001464	-0.016892	6826.627670	43323.652416	3952.237433	23617.652427
53.535500	-0.025902	-0.015390	-0.013228	-0.112650	7814.228662	52705.024572	4215.472981	28781.494419
54.036000	-0.005934	-0.013416	-0.008597	-0.144357	8460.646604	56735.714899	4350.390496	30758.025276
54.538500	0.007443	-0.013076	-0.012584	-0.159582	8852.904306	58706.605096	4394.450724	31759.595659
55.037000	0.012249	-0.003915	-0.009427	-0.115463	8320.269928	54376.764298	4239.197514	28951.074472
55.537000	0.008471	-0.003409	0.002565	-0.078585	7817.847781	50226.719183	4151.778590	26812.741993
56.037000	0.009735	-0.003551	0.009813	-0.071334	7747.759323	49424.916163	4151.769794	26413.257659
56.535000	0.019145	0.000418	0.010915	-0.055652	7675.369369	48182.175564	4102.836090	25571.752338
57.035000	0.022883	0.004632	0.024201	-0.022817	7352.838999	45282.787413	4039.747194	23905.185115
57.535500	0.028067	0.008039	0.029804	0.004564	7120.915478	42996.983468	3972.730735	22608.603810
58.035500	0.033277	0.010934	0.039376	0.013724	7080.880501	42420.135262	3973.967269	22192.779137
58.536000	0.040320	0.013708	0.046069	0.027773	7010.749107	41402.708770	3952.057858	21571.824257
59.036500	0.049898	0.017154	0.049983	0.043929	6945.913211	40287.086357	3916.411429	20882.111289
59.536500	0.049754	0.020448	0.062861	0.073300	6666.844244	38097.841815	3869.946215	19692.171614
60.037000	0.065474	0.027211	0.070465	0.087798	6678.025179	37473.353857	3851.040315	19133.775806
60.537000	0.075181	0.032455	0.081723	0.090702	6740.851682	37661.083648	3873.989179	19024.151561
61.034500	0.089506	0.039927	0.101948	0.137181	6452.365613	34659.706337	3803.333143	17365.831093
61.535000	0.102590	0.046706	0.114781	0.158324	6383.346254	33620.603315	3781.844713	16668.222440
62.035000	0.115681	0.052940	0.121535	0.171834	6379.792156	33107.296680	3764.676611	16239.945502
62.535500	0.123981	0.060259	0.136468	0.188684	6308.021785	32447.581302	3759.850541	15724.075938
63.035500	0.135031	0.066093	0.156404	0.217550	6162.943253	30912.246755	3737.662543	14885.609485
63.536000	0.148264	0.072678	0.173172	0.236493	6117.686692	30121.315829	3732.325121	14364.867731
64.036500	0.157130	0.078601	0.175012	0.245893	6113.491420	29902.903457	3713.984814	14114.799561
64.537000	0.164264	0.084334	0.185460	0.245652	6171.975068	30279.370090	3740.010364	14121.137069
65.037000	0.173689	0.089899	0.199816	0.257948	6149.089024	29855.505368	3745.100217	13801.895035
65.537000	0.179590	0.096535	0.210177	0.268968	6108.653147	29582.964122	3743.469385	13523.345562
66.037500	0.193908	0.104527	0.205434	0.262148	6278.743126	30514.950188	3748.616801	13694.890962
66.535000	0.197043	0.106311	0.212675	0.275757	6193.424710	29768.343847	3732.910407	13355.231765
67.038000	0.200627	0.109010	0.217334	0.281535	6175.822010	29577.302332	3730.175879	13214.226085
67.535500	0.202107	0.110641	0.217380	0.293003	6096.754752	28975.826411	3702.643246	12939.822205
68.039000	0.205258	0.110879	0.224010	0.292824	6122.914304	29001.088354	3718.967908	12944.056745
68.539000	0.210175	0.114404	0.232972	0.301168	6095.996826	28711.069107	3720.461168	12748.823512
69.036500	0.214324	0.116225	0.234235	0.307871	6076.074696	28420.518869	3707.379908	12594.692661
69.539500	0.215538	0.119530	0.237255	0.317980	6007.594087	28021.032235	3690.577409	12366.690136
70.037000	0.222385	0.121271	0.241948	0.317765	6061.848323	28135.281933	3702.180437	12371.485859
70.537500	0.224169	0.123368	0.247355	0.321637	6045.709694	28031.546812	3705.836383	12285.492866
71.035000	0.227204	0.125204	0.250856	0.324684	6045.625650	27961.135497	3706.921143	12218.388822
71.535000	0.227981	0.124401	0.250477	0.330370	6007.998989	27586.756813	3692.532808	12094.373460
72.035500	0.237168	0.129080	0.251320	0.331358	6071.068335	27798.967010	3692.192078	12072.984692
72.536000	0.235426	0.129816	0.263594	0.333406	6041.767542	27723.333764	3716.558032	12028.825668
73.039000	0.239266	0.130365	0.263886	0.336722	6045.803076	27564.570899	3709.293459	11957.752454
73.536000	0.243509	0.133936	0.267603	0.346336	6004.663079	27221.309693	3695.271088	11754.743049
74.036500	0.245794	0.134845	0.266369	0.344571	6035.641684	27372.628590	3696.526557	11791.680555
74.537000	0.247941	0.137095	0.274229	0.348947	6018.554216	27252.236135	3704.797825	11700.374390
75.037500	0.251987	0.137867	0.270685	0.352808	6019.968187	27078.300383	3687.294640	11620.571026
75.534500	0.253296	0.138955	0.276830	0.360361	5972.554453	26718.442414	3684.000303	11466.513963
76.037500	0.255245	0.140475	0.283541	0.359291	5995.394795	26861.997016	3702.338735	11488.177128
76.535000	0.259241	0.141748	0.280885	0.362933	5998.081330	26730.664847	3687.471804	11414.673489
77.035500	0.261818	0.143631	0.282973	0.368120	5978.312761	26548.666921	3680.232330	11311.020459
77.536000	0.260352	0.143634	0.290828	0.375584	5911.558879	26142.858030	3681.143231	11164.045970
78.036000	0.265662	0.146615	0.293437	0.374958	5955.777961	26338.221745	3688.707804	11176.275400
78.537000	0.269735	0.146573	0.294968	0.378052	5963.132904	26168.250656	3685.046367	11115.995809
79.036000	0.270741	0.149817	0.295431	0.383360	5930.946015	26057.085063	3673.779266	11013.566969
79.537000	0.267560	0.148396	0.294944	0.389924	5859.216059	25631.965328	3657.606224	10888.638963
80.037500	0.275225	0.150832	0.300664	0.389669	5917.388730	25774.334497	3671.292376	10893.451832
80.534500	0.278531	0.152888	0.305497	0.392570	5920.389553	25729.535499	3675.757954	10838.799572
81.035500	0.276121	0.151832	0.305507	0.395077	5884.122958	25541.586713	3669.992357	10791.883058
81.535000	0.275630	0.154681	0.307560	0.404607	5811.451080	25193.150872	3652.915403	10615.918485
82.035500	0.280416	0.155351	0.306043	0.402524	5861.079005	25336.068555	3654.196486	10654.047423
82.536000	0.285023	0.156753	0.308303	0.405679	5871.676525	25244.982763	3652.169410	10596.371822
83.036500	0.286212	0.157223	0.311688	0.408977	5856.303431	25098.773863	3652.366851	10536.517418
83.536500	0.285468	0.157739	0.314209	0.417802	5787.483139	24674.715049	3638.203465	10378.583324
84.037000	0.289711	0.159136	0.316747	0.415224	5836.383475	24876.585042	3649.681022	10424.380689
84.537000	0.291625	0.161873	0.316643	0.419806	5817.164674	24782.675706	3639.162462	10343.159896
85.037000	0.294168	0.161304	0.322581	0.422321	5817.366063	24626.543170	3646.834845	10298.942184
85.535000	0.292324	0.163013	0.319978	0.431316	5740.480928	24262.090503	3621.079999	10142.856665
86.035500	0.296820	0.163774	0.322441	0.428655	5791.034619	24432.531626	3632.374831	10188.703964
86.535500	0.297373	0.164672	0.326248	0.431282	5776.296324	24346.274176	3634.993511	10143.446305
87.038500	0.301656	0.165916	0.327627	0.434830	5781.512869	24231.844100	3630.185239	10082.763180
87.536000	0.299573	0.166779	0.327145	0.442044	5716.208730	23919.572857	3613.310237	9960.892931
88.036500	0.305029	0.169083	0.328924	0.441528	5757.997657	24057.624752	3618.311061	9969.535064
88.536000	0.303608	0.168303	0.333089	0.443185	5736.387240	23938.263903	3623.806712	9941.800095
89.037000	0.307132	0.170949	0.337464	0.447000	5734.351760	23881.186003	3625.035878	9878.328044
89.537500	0.303020	0.169927	0.333974	0.452210	5669.878770	23579.731975	3606.087063	9792.555030
90.037500	0.308643	0.170600	0.339106	0.450672	5719.284900	23686.187861	3620.580972	9817.762446
90.534500	0.306163	0.169758	0.335782	0.451304	5697.715294	23615.195584	3611.959283	9807.403610
91.035500	0.309066	0.172000	0.335046	0.455020	5692.105557	23544.357759	3602.345616	9746.715131
91.538500	0.310244	0.172870	0.338957	0.461269	5657.349577	23288.048032	3597.336977	9645.827473
92.036000	0.312638	0.173064	0.339892	0.459013	5689.201526	23404.402780	3604.180209	9682.084886
92.535500	0.313629	0.174725	0.347694	0.462739	5670.427896	23306.268072	3612.991747	9622.303368
93.036500	0.314667	0.173724	0.338141	0.462728	5677.621470	23259.442669	3592.490854	9622.494111
93.537000	0.315311	0.175888	0.344267	0.470350	5630.128929	23002.936780	3589.316720	9501.799621
94.037500	0.316039	0.176183	0.347772	0.467915	5651.564094	23130.847342	3601.984076	9540.126702
94.537500	0.319468	0.176979	0.348498	0.470386	5658.083194	23052.293213	3598.245331	9501.232932
95.035000	0.319162	0.179121	0.347639	0.472838	5639.344248	23037.718993	3591.189028	9462.847797
95.535000	0.315977	0.178511	0.346339	0.479347	5574.428064	22707.461482	3574.767522	9362.029772
96.038500	0.320800	0.178946	0.351558	0.476323	5626.863080	22867.230500	3592.111135	9408.674180
96.534500	0.322404	0.179732	0.358677	0.478426	5623.507060	22806.273208	3602.830597	9376.207554
97.038500	0.320370	0.178989	0.353741	0.478655	5608.299040	22761.356419	3591.795727	9372.670223
97.536000	0.319829	0.179567	0.349577	0.487426	5546.566588	22386.830242	3564.733048	9238.965172
98.036500	0.325791	0.180665	0.355967	0.482881	5616.319119	22644.036697	3587.557198	9307.912620
98.535500	0.325099	0.181574	0.354736	0.484402	5601.484182	22615.957126	3581.759135	9284.755679
99.037500	0.325313	0.181667	0.357506	0.485999	5592.258289	22547.185971	3584.227625	9260.538519
99.535000	0.323944	0.182160	0.355842	0.493979	5530.618429	22208.328135	3564.138518	9140.808083
100.035000	0.326463	0.182188	0.360305	0.489560	5576.235919	22408.879869	3582.623319	9206.837076
100.536500	0.331397	0.183132	0.361175	0.490961	5599.743719	22388.175527	3581.507522	9185.834871
101.035500	0.327939	0.183959	0.365816	0.493618	5559.170339	22305.465296	3585.683238	9146.178949
101.535500	0.327829	0.184393	0.364336	0.501167	5509.166811	21987.249343	3566.831802	9034.842514
102.036500	0.331257	0.185616	0.365596	0.496571	5561.579939	22247.147158	3579.014245	9102.395903
102.538500	0.331175	0.185672	0.360204	0.497420	5555.450327	22211.502035	3566.037266	9089.865398
103.037000	0.332681	0.186869	0.363802	0.500411	5545.697098	22131.174755	3567.292511	9045.911551
103.537000	0.330813	0.187911	0.368273	0.508579	5480.647412	21815.276294	3559.680376	8927.382689
104.037500	0.331747	0.186452	0.364576	0.501613	5531.725327	22058.937975	3566.407380	9028.327920
104.536500	0.336840	0.188048	0.371014	0.503430	5553.180552	22049.140425	3576.001130	9001.845118
105.045500	0.336173	0.186967	0.368973	0.504146	5544.102342	21969.274739	3570.264228	8991.430183
105.538000	0.336260	0.187572	0.371776	0.508459	5516.540331	21805.645372	3567.137140	8929.109077
106.036000	0.335881	0.188059	0.371265	0.506367	5527.685099	21919.325058	3570.413747	8959.271284
106.541500	0.337896	0.187186	0.368211	0.507332	5534.532320	21838.269306	3562.113852	8945.343711
107.039500	0.339146	0.188201	0.364617	0.508853	5532.763843	21816.013995	3551.663958	8923.458581
107.536500	0.337165	0.188694	0.366956	0.514178	5485.478225	21604.721492	3545.619171	8847.429223
108.034500	0.339937	0.188463	0.372705	0.511285	5522.072694	21720.800811	3563.226568	8888.617033
108.536500	0.340445	0.190904	0.374280	0.513058	5513.858489	21750.060671	3562.819341	8863.343199
109.037500	0.342968	0.192373	0.377865	0.515075	5517.143509	21726.077344	3566.049901	8834.716430
109.537500	0.345035	0.193458	0.378056	0.516855	5519.009518	21695.701265	3562.776221	8809.561293
110.041000	0.340575	0.192092	0.376919	0.515945	5496.043284	21675.757073	3562.309418	8822.402200
