sample name	sample
index	1124
start time	 04-22-2021  01:59:16 PM
880	0.187813
Peak Time (s)	102.538
Peak Height 	0.1878
calc peak height	100,103
Baseline Time (s)	11.537
Baseline Value 	-0.002591
subtract baseline	10,4
Abs	0.135138
Peak Time (s)	101.537
Peak Height 	0.1351
calc peak height	100,103
Baseline Time (s)	9.036
Baseline Value 	0.001306
subtract baseline	10,3
PK_550	0.083036
Peak Time (s)	100.537
Peak Height 	0.08304
calc peak height	100,103
Baseline Time (s)	9.036
Baseline Value 	8.647E-4
subtract baseline	10,2
PK_880	0.124472
Peak Time (s)	101.537
Peak Height 	0.1245
calc peak height	100,103
Baseline Time (s)	11.037
Baseline Value 	4.0391E-4
subtract baseline	10,1


Time (s)	A880-A510	A880-A775	A880-A975	A880	I510	I775	I975	I880	
0.036000	0.001988	-0.000310	-0.003402	0.001928	6299.405593	43208.391273	3913.503129	22715.999533
0.537000	-0.003221	-0.000729	-0.003098	0.006737	6223.223788	42727.625771	3903.286446	22498.463322
1.037000	-0.000827	-0.000224	-0.004949	0.004307	6259.687373	42996.851961	3904.593385	22608.071719
1.537000	-0.001911	-0.000647	0.001472	0.001159	6275.419815	43248.450112	3926.448916	22751.004602
2.040500	0.002629	0.000191	0.001114	0.000993	6311.552216	43341.517230	3926.006918	22758.574993
2.537500	-0.005240	-0.001107	-0.004738	0.004216	6226.997556	42923.985952	3905.274534	22612.174143
3.035000	0.000896	-0.000379	0.000060	-0.001098	6314.323339	43482.927614	3928.402593	22854.109954
3.535500	-0.000363	0.000358	0.001211	0.001041	6288.162749	43352.471812	3926.117207	22756.356245
4.036000	-0.000488	0.000024	0.002360	0.001452	6284.059674	43283.440482	3927.824744	22737.650279
4.536000	-0.000507	-0.000045	-0.000921	0.001140	6286.298123	43305.885656	3920.981444	22751.850982
5.191500	-0.000297	-0.001324	0.000880	0.000049	6296.281348	43288.477896	3927.644206	22801.617425
5.857000	-0.000579	-0.000865	-0.002226	0.000016	6294.374281	43334.155165	3920.566265	22803.156981
6.037000	-0.001535	-0.001085	-0.001432	-0.000332	6289.711210	43346.059120	3923.192829	22819.068100
6.534500	-0.000281	-0.000283	0.000230	0.000101	6296.012764	43380.327097	3926.025320	22799.262323
7.037500	-0.001469	-0.000971	-0.008600	-0.000692	6292.970883	43390.023169	3907.641961	22835.498709
7.535000	0.000772	-0.000204	-0.001674	0.000193	6303.401847	43379.082263	3921.426833	22795.053439
8.035500	0.000363	-0.000439	0.001310	-0.000422	6304.987513	43414.351578	3929.731014	22823.165232
8.538500	-0.003314	0.000096	-0.003197	-0.000086	6274.209407	43432.866567	3918.574649	22807.810216
9.036000	-0.000892	0.000000	0.000000	0.000270	6290.016505	43390.858135	3925.103367	22791.537554
9.536500	0.000163	-0.000114	-0.000468	0.000133	6299.179154	43393.045493	3924.340470	22797.806659
10.036500	-0.000055	-0.000852	0.001671	-0.000289	6300.746094	43363.672271	3930.259270	22817.089274
10.537000	0.001780	0.000737	0.002350	0.000778	6306.661026	43412.179675	3929.361434	22768.366811
11.037000	0.000000	-0.000259	-0.000607	-0.000081	6299.571111	43399.410468	3924.514261	22807.586685
11.537500	0.001481	0.000296	0.003873	0.000000	6310.356235	43443.484710	3934.703143	22803.872688
12.035000	-0.001523	-0.000062	0.001369	-0.000417	6290.447198	43448.921627	3929.855280	22822.914145
12.535500	0.000892	-0.000136	0.000415	-0.000320	6308.276732	43433.024882	3927.423319	22818.488053
13.035500	0.002019	-0.000578	0.002830	-0.000915	6321.592359	43447.374209	3934.406583	22845.733915
13.535500	-0.001284	-0.001206	-0.000406	-0.001068	6297.283450	43403.131161	3927.253057	22852.701521
14.036500	-0.001086	0.000175	0.004787	0.002521	6271.316641	43198.397085	3930.967996	22689.024791
14.536500	-0.001864	-0.000764	0.003680	0.001322	6274.530809	43222.427507	3931.180999	22743.553993
15.036500	0.000795	-0.000252	0.001151	-0.000803	6311.260706	43467.220128	3930.245292	22840.599540
15.537000	0.000158	-0.000662	0.004094	-0.000840	6306.631085	43432.593976	3937.178448	22842.307222
16.038000	-0.000499	0.000055	0.001409	0.000086	6294.450370	43413.113831	3928.785548	22799.959440
16.535000	0.000676	0.000742	0.000803	0.000170	6302.842593	43469.217457	3927.187473	22796.116368
17.035500	0.003222	0.000041	0.004642	-0.003551	6351.454729	43751.381167	3944.811619	22966.782661
17.535500	0.000466	-0.000562	0.001003	0.000030	6302.298853	43360.983953	3927.974418	22802.511601
18.036000	-0.003048	-0.000287	-0.002531	0.000631	6270.766280	43330.692488	3918.456098	22775.064953
18.536000	-0.001569	-0.000702	-0.002063	0.000300	6284.600103	43322.894244	3920.287902	22790.150330
19.036500	-0.000127	-0.000307	0.002600	0.000815	6291.707459	43311.722624	3929.852801	22766.656997
19.536000	-0.000011	-0.000299	0.000337	0.000811	6292.625814	43312.888374	3924.633414	22766.846655
20.037000	-0.001630	-0.000532	-0.002139	0.000622	6281.664895	43308.825546	3919.375193	22775.472215
20.537000	-0.003312	-0.000958	-0.000936	0.000009	6273.502570	43326.153142	3923.548568	22803.464495
21.040000	-0.001250	0.000421	-0.000786	0.001060	6281.223085	43356.534201	3921.475669	22755.488962
21.535000	0.000304	-0.000651	-0.001244	0.000015	6301.167597	43354.067607	3922.825280	22803.182460
22.035500	-0.001442	-0.000598	-0.002705	0.000184	6286.466013	43343.379810	3919.083678	22795.482719
22.536000	0.001110	-0.000579	0.001899	0.000203	6305.933635	43343.370398	3929.647166	22794.609631
23.035500	-0.001594	0.000190	0.001123	0.000825	6280.394011	43357.014142	3926.415487	22766.231054
23.535500	-0.000117	-0.000782	-0.003898	0.000201	6296.503983	43324.702588	3916.313311	22794.695783
24.036500	-0.001133	-0.000763	0.002929	0.000424	6286.987174	43305.743584	3931.521797	22784.497306
24.537000	-0.000414	-0.000852	0.000052	0.000335	6293.190405	43305.723772	3925.073622	22788.558762
25.037000	-0.001159	0.000130	-0.001689	0.000394	6287.022501	43391.388138	3920.930664	22785.861525
25.540500	-0.002041	-0.000542	0.001759	-0.000073	6283.836150	43372.334358	3929.962797	22807.185198
26.037500	-0.001967	-0.000078	0.003711	0.002619	6263.855421	43165.969917	3928.249322	22684.580407
26.535000	-0.000344	-0.000715	0.002963	0.000221	6294.601906	43328.996626	3932.073722	22793.776907
27.035000	0.001722	0.000848	0.001231	-0.000677	6317.452573	43558.057994	3930.139204	22834.845898
27.535500	-0.000530	0.000142	0.003813	-0.001143	6303.663218	43535.688369	3937.229246	22856.175139
28.036000	-0.003571	-0.000954	-0.001404	0.002921	6249.383982	43057.281228	3915.796106	22670.877754
28.536000	-0.001236	-0.000191	0.000768	-0.000994	6297.080876	43490.649575	3929.799387	22849.321510
29.036500	0.001998	0.000141	0.005175	-0.000464	6317.937468	43472.219255	3938.824085	22825.069966
29.537000	0.001845	-0.000138	0.001674	-0.000692	6318.518956	43467.566365	3931.201810	22835.532850
30.037000	-0.001406	0.000098	-0.001456	0.004023	6257.446305	43052.590728	3913.161797	22620.911151
30.541000	0.001490	0.000243	0.003257	0.002877	6288.290124	43171.761090	3926.603393	22672.850318
31.035000	-0.000266	-0.000036	-0.002857	0.001573	6284.830347	43266.596452	3915.554855	22732.142935
31.535000	0.002337	-0.000373	0.002863	-0.000656	6322.050771	43442.291404	3933.880806	22833.881060
32.038500	-0.002934	0.000130	0.002643	0.003069	6253.086701	43143.619134	3924.744460	22664.159815
32.535500	-0.003254	0.000196	0.006891	-0.000388	6276.970993	43470.265689	3942.664700	22821.602091
33.036500	-0.000119	-0.000254	-0.000408	-0.001105	6306.532120	43495.157041	3927.335787	22854.400291
33.539500	0.000948	-0.000621	0.002121	-0.002709	6327.191276	43610.599424	3936.934873	22928.026330
34.037000	-0.001658	0.000097	0.000489	0.002863	6264.352569	43159.622392	3920.262959	22673.517266
34.537000	-0.001367	-0.000371	0.000214	0.001191	6279.325306	43270.921287	3923.474118	22749.526201
35.040000	0.000468	0.000206	-0.000518	0.000848	6296.020422	43356.229347	3922.578916	22765.149023
35.534500	-0.000551	0.000068	0.003289	0.001242	6285.181888	43306.955769	3930.459501	22747.197778
36.035500	0.000468	-0.000281	-0.001026	0.002448	6283.755762	43163.006700	3917.743603	22692.367500
36.535500	-0.001523	-0.001165	0.005210	0.000432	6283.945145	43267.751581	3936.814962	22784.166062
37.035500	-0.004448	-0.000457	0.002096	0.000378	6262.027605	43338.383229	3929.697722	22786.601925
37.536000	-0.001180	0.000034	-0.000257	0.001039	6281.917076	43322.630112	3922.740227	22756.455091
38.036000	-0.000368	0.000262	0.001601	0.001441	6285.059355	43306.489616	3926.096550	22738.156746
38.536500	-0.001554	-0.001045	0.000310	0.000552	6282.787900	43267.764618	3925.169864	22778.682961
39.037000	-0.001365	-0.000219	-0.001317	0.001114	6279.936439	43292.274414	3920.134028	22753.063051
39.537000	-0.000479	-0.000203	0.001345	0.001344	6284.956388	43272.335898	3925.728847	22742.568250
40.037500	-0.002383	-0.000279	-0.002517	0.000909	6273.720016	43305.676621	3917.851051	22762.386209
40.534500	-0.000068	-0.000630	-0.003314	0.000546	6294.226895	43306.764734	3916.858471	22778.959435
41.035000	-0.000901	-0.000651	-0.000054	0.000700	6286.650653	43290.456493	3923.986521	22771.898727
41.535500	-0.000211	0.000501	0.003624	0.001386	6286.686721	43333.794701	3930.904511	22740.652686
42.035500	-0.001539	0.000302	0.003715	0.003330	6261.706944	43135.441036	3926.615115	22652.337105
42.536000	-0.000746	-0.000492	0.003847	0.000713	6287.740850	43304.095256	3932.983728	22771.316006
43.036500	-0.000571	-0.001553	0.000240	0.000280	6292.405601	43245.819417	3925.632984	22791.071788
43.536500	0.000891	0.000364	0.001314	0.000788	6299.744584	43376.561964	3926.941196	22767.928052
44.036500	-0.001583	-0.000649	-0.003205	0.003243	6262.034720	43055.665823	3910.957780	22656.278390
44.540000	0.001129	0.000048	0.001242	-0.000675	6312.853684	43483.311040	3930.160997	22834.748770
45.035000	0.001137	-0.000074	-0.004667	-0.000684	6312.981356	43472.757497	3916.577852	22835.161568
45.535000	0.002014	0.000280	0.001406	-0.001039	6322.509627	43538.827918	3931.384603	22851.389643
46.035500	-0.004159	-0.001323	-0.001501	0.004216	6235.147925	42904.228932	3912.621973	22612.212285
46.536000	-0.000838	-0.000494	0.002956	-0.001276	6302.318666	43488.685096	3935.538613	22862.245505
47.036000	-0.003489	-0.000576	0.003028	-0.001406	6282.962460	43493.277615	3936.011045	22868.225528
47.536500	-0.001317	0.000050	-0.001872	0.001278	6279.044221	43301.952889	3918.483141	22745.572733
48.036500	-0.004984	-0.001067	-0.001270	0.004811	6224.449661	42873.156974	3911.792355	22585.309705
48.537000	-0.000034	0.000113	0.005823	-0.001105	6307.196762	43529.393964	3941.841263	22854.431910
49.037500	0.001692	0.000163	-0.005292	-0.000421	6315.235369	43470.270834	3914.548900	22823.107026
49.537000	0.002499	-0.000216	0.001728	-0.002351	6336.461981	43614.962291	3935.183992	22911.570540
50.034500	-0.002397	-0.000618	-0.000551	0.004752	6244.409391	42919.662178	3913.564134	22587.952921
50.535000	0.001301	-0.000122	0.005082	0.003064	6285.407635	43120.763123	3930.393606	22664.365474
51.035500	0.021854	-0.015748	0.041853	0.544888	3960.267672	14139.357137	3238.263285	8621.210659
51.536000	0.000054	-0.019602	-0.008491	-0.021259	6466.964081	43570.277094	3955.625757	23799.245567
52.035500	-0.012227	-0.025590	-0.020405	-0.100979	7056.354540	51071.191979	4130.021693	27997.496098
52.536500	-0.007667	-0.058327	-0.004950	-0.237894	8634.373045	64094.101129	4637.063573	37275.619960
53.036500	0.001866	-0.019990	0.005109	-0.162201	7832.340713	59061.365316	4396.722648	31787.438562
53.537500	0.005820	-0.013442	0.010290	-0.119892	7420.367556	54632.686352	4276.013378	29111.798632
54.034500	-0.003395	-0.009228	0.003933	-0.085215	6991.466964	51137.339635	4154.077041	27105.108308
54.535000	-0.002322	-0.009401	0.002934	-0.098005	7122.283598	52555.390898	4187.944927	27826.685148
55.035000	0.005122	-0.006577	0.008146	-0.107142	7284.322470	53938.257699	4230.418113	28355.326284
55.535000	0.009813	-0.003871	0.008437	-0.104257	7302.356358	53917.303050	4222.634770	28187.202947
56.035500	0.012533	0.000811	0.011821	-0.080453	7096.506665	51725.463043	4162.967850	26841.850116
56.535500	0.020125	0.005175	0.014072	-0.072156	7089.789833	51286.517317	4145.833040	26389.979494
57.036000	0.029183	0.007724	0.026274	-0.058434	7045.661415	50060.938713	4141.562424	25661.365805
57.536000	0.030445	0.010848	0.027332	-0.037346	6863.274907	48155.341155	4086.662910	24585.542410
58.036000	0.032141	0.013735	0.028570	-0.007591	6618.969826	45448.490099	4012.745451	23153.735449
58.539500	0.043922	0.019496	0.038424	0.018974	6496.458061	43464.551511	3971.629226	21955.713379
59.037000	0.047709	0.021814	0.042701	0.037918	6375.110409	41945.947194	3936.825411	21145.054117
59.534500	0.046651	0.024488	0.050057	0.048040	6288.280094	41284.274936	3930.391954	20726.188444
60.035000	0.050375	0.026456	0.052529	0.059111	6232.421023	40490.880308	3910.651324	20279.099834
60.538000	0.056567	0.030175	0.052903	0.065340	6232.144286	40275.062998	3897.435125	20032.518037
61.036000	0.060749	0.034071	0.067860	0.085979	6110.411791	38866.637054	3884.774380	19240.298739
61.535500	0.063536	0.034864	0.064235	0.094404	6069.760642	38242.418116	3858.472721	18927.589169
62.039000	0.055332	0.034795	0.063334	0.110543	5900.163116	36952.590253	3822.500453	18345.199245
62.536500	0.060691	0.040435	0.064755	0.110774	5935.104082	37377.711910	3824.965998	18337.016561
63.037000	0.060828	0.042328	0.060188	0.110007	5941.309981	37588.727244	3817.114195	18364.209899
63.552500	0.063659	0.043932	0.066322	0.105768	5990.264863	38056.786454	3838.713310	18515.261845
64.040000	0.066805	0.045005	0.068798	0.107404	6000.822511	38011.344184	3840.483884	18456.769857
64.538000	0.066146	0.045809	0.074428	0.096127	6076.121585	38998.118400	3876.885085	18864.383992
65.035500	0.068489	0.046661	0.073988	0.090286	6135.432083	39556.673835	3888.815915	19079.690839
65.535500	0.070107	0.048412	0.074833	0.087146	6170.423692	39970.260149	3897.713712	19196.631715
66.035500	0.072519	0.050406	0.076087	0.089715	6169.261408	39921.407222	3894.766491	19100.875752
66.536500	0.072295	0.049898	0.074051	0.085201	6201.137073	40263.180888	3900.325024	19269.478243
67.036500	0.072453	0.050351	0.084083	0.085432	6200.595853	40282.246534	3922.619111	19260.817160
67.536500	0.073650	0.051346	0.085044	0.087449	6194.481014	40194.732093	3920.194207	19185.316197
68.040000	0.075986	0.052888	0.079254	0.090016	6192.757103	40107.113738	3901.198141	19089.691776
68.537500	0.077000	0.053354	0.084618	0.092506	6181.781954	39934.677356	3907.687560	18997.495553
69.037500	0.077359	0.052654	0.080941	0.094918	6166.579814	39671.254205	3893.988343	18908.703796
69.535000	0.080727	0.055042	0.084475	0.099749	6155.788909	39465.738263	3891.093107	18732.294270
70.035500	0.077154	0.053502	0.083667	0.106371	6081.607751	38787.443607	3874.679950	18493.681104
70.535500	0.079583	0.055311	0.089457	0.105584	6104.822757	39001.726665	3889.195099	18521.844002
71.035500	0.082074	0.056931	0.090745	0.109801	6092.345245	38787.381132	3882.703873	18371.516424
71.535500	0.081732	0.056956	0.083906	0.112558	6070.056598	38563.048880	3861.742494	18273.984833
72.036500	0.080477	0.057681	0.086659	0.119694	6010.513040	38042.420152	3852.322516	18024.464190
72.536500	0.082718	0.059325	0.090329	0.118447	6035.130406	38276.368165	3862.898037	18067.798434
73.037000	0.086610	0.059598	0.089945	0.121055	6044.239743	38087.295487	3856.447521	17977.341864
73.537500	0.083636	0.059661	0.090792	0.124221	6000.916930	37837.752727	3851.480350	17868.284996
74.035000	0.084234	0.060927	0.090136	0.132321	5948.819077	37294.411873	3832.959126	17592.885389
74.535000	0.085843	0.061126	0.098759	0.129637	5978.520721	37522.559685	3856.946100	17683.561128
75.035500	0.089045	0.062198	0.094580	0.132506	5980.839608	37380.198940	3841.922146	17586.647781
75.536000	0.088970	0.062126	0.091619	0.135494	5959.592343	37139.006857	3829.426017	17486.366459
76.036000	0.086139	0.063610	0.098108	0.142307	5893.691943	36723.058464	3828.751702	17260.328556
76.536500	0.091591	0.064661	0.100715	0.140218	5945.098275	36967.503879	3838.591660	17329.252571
77.036500	0.091299	0.065832	0.097103	0.142208	5929.448345	36903.612044	3826.864900	17263.589267
77.539500	0.094131	0.066288	0.101590	0.145208	5928.305775	36705.853183	3829.965548	17165.157726
78.034500	0.092607	0.066495	0.099144	0.149634	5887.892576	36380.256197	3815.734683	17021.147769
78.537500	0.096924	0.067224	0.100399	0.148474	5925.069917	36525.633700	3820.709067	17058.740735
79.035500	0.097938	0.068304	0.114977	0.151047	5914.440528	36410.710115	3845.855183	16975.478701
79.535000	0.096404	0.067874	0.108141	0.151686	5899.684694	36328.652750	3830.117080	16954.884659
80.036000	0.096334	0.068118	0.108344	0.157713	5858.682053	35888.186946	3818.040347	16762.051261
80.535500	0.099662	0.068427	0.102912	0.154989	5899.377571	36118.425819	3812.479267	16848.855110
81.036500	0.098746	0.068886	0.103076	0.156656	5881.940735	36026.593665	3809.409570	16795.671506
81.536000	0.103920	0.070428	0.110375	0.159142	5900.090140	35954.950792	3819.281391	16716.725589
82.037000	0.103819	0.070164	0.111418	0.160111	5892.850369	35861.550731	3819.433837	16686.055440
82.537000	0.104238	0.071112	0.108034	0.162965	5876.446368	35717.865520	3806.657243	16596.187159
83.034500	0.106403	0.071198	0.108535	0.164110	5883.307126	35638.231884	3805.348205	16560.280726
83.534500	0.102496	0.071364	0.110037	0.166170	5843.394040	35496.304644	3804.215883	16495.937121
84.035000	0.105834	0.070530	0.109222	0.167121	5859.302129	35363.252169	3800.644009	16466.349454
84.535500	0.104791	0.071989	0.110494	0.168795	5841.205097	35347.202657	3799.832568	16414.390223
85.038000	0.107126	0.072197	0.115060	0.169963	5848.966127	35275.860134	3806.714117	16378.266698
85.536000	0.104981	0.071873	0.117464	0.170541	5830.892664	35208.931107	3810.435803	16360.416613
86.038500	0.108508	0.074104	0.119932	0.173075	5837.472239	35186.488807	3810.301467	16282.479902
86.537000	0.108359	0.072724	0.121763	0.172836	5838.070082	35102.182013	3814.537138	16289.815603
87.039500	0.107178	0.073741	0.117171	0.173616	5825.093298	35119.672171	3803.584775	16265.895639
87.536500	0.109268	0.074354	0.121881	0.175780	5824.610429	35005.284576	3808.759974	16199.785427
88.035000	0.110134	0.073921	0.120840	0.176923	5822.781476	34889.450529	3804.317685	16164.984969
88.535000	0.112604	0.074415	0.124887	0.175741	5846.970075	35012.596689	3814.988019	16200.967900
89.035000	0.113542	0.075635	0.118765	0.176824	5846.000089	35022.698141	3800.320252	16167.984489
89.535500	0.113062	0.076549	0.123568	0.177466	5838.552555	35042.776990	3808.760421	16148.497506
90.036000	0.115434	0.075857	0.124457	0.179452	5841.111419	34845.924233	3806.526659	16088.323437
90.536000	0.116229	0.076914	0.122477	0.178252	5854.385395	35011.709500	3804.942717	16124.650398
91.036000	0.115492	0.077587	0.125311	0.178936	5844.925850	35010.916538	3809.316633	16103.923942
91.539500	0.116916	0.078177	0.130714	0.180718	5842.547772	34923.258120	3816.733048	16050.131267
92.034000	0.116732	0.079340	0.123345	0.185253	5811.379487	34676.634595	3792.583179	15914.180035
92.535000	0.119802	0.079898	0.133079	0.181124	5859.063782	35019.990999	3820.771725	16037.896002
93.034500	0.119567	0.080198	0.121518	0.181910	5852.250159	34984.218708	3795.622976	16014.259937
93.535000	0.118568	0.079991	0.130677	0.182279	5843.152235	34941.905770	3813.453807	16003.175678
94.035500	0.118588	0.080770	0.121839	0.183626	5834.347995	34900.107930	3792.824585	15962.776432
94.535500	0.120871	0.080127	0.131504	0.182160	5859.282859	34960.632778	3815.393351	16006.753649
95.036000	0.121940	0.081522	0.130759	0.183522	5857.327569	34963.059383	3811.077360	15965.904546
95.536000	0.121110	0.080651	0.130426	0.183664	5850.843896	34888.608476	3810.105522	15961.634178
96.036500	0.119242	0.080877	0.125107	0.184628	5832.050848	34834.585437	3797.373410	15932.834203
96.537000	0.122367	0.082475	0.128556	0.184923	5850.832038	34930.095200	3803.740817	15924.006773
97.037000	0.123418	0.082300	0.136012	0.184711	5859.256426	34932.771616	3819.420909	15930.345305
97.537000	0.125752	0.082526	0.134332	0.185287	5871.025074	34907.089242	3814.778700	15913.162679
98.034500	0.122472	0.081488	0.129238	0.184913	5851.597177	34858.470472	3805.145495	15924.327072
98.535500	0.122372	0.082507	0.127337	0.186335	5841.478030	34828.945620	3798.426840	15881.962869
99.035500	0.125172	0.082158	0.125384	0.186210	5860.962648	34812.495398	3794.751804	15885.669885
99.536000	0.122645	0.082629	0.130579	0.186684	5840.973421	34812.264336	3804.273739	15871.564928
100.035500	0.124016	0.081992	0.130027	0.186778	5849.458977	34758.830187	3802.963048	15868.764605
100.536500	0.124258	0.083036	0.131617	0.187412	5846.852829	34788.867280	3804.902437	15849.961833
101.039500	0.122559	0.082048	0.129028	0.186807	5839.582919	34760.831197	3800.885328	15867.908267
101.537000	0.124472	0.081726	0.135138	0.187238	5849.434421	34705.816873	3812.432153	15855.108962
102.037000	0.121679	0.082143	0.129377	0.187593	5828.555496	34710.392584	3800.003725	15844.587360
102.538000	0.123940	0.082269	0.132216	0.187813	5842.072611	34703.515459	3805.304258	15838.054237
103.035000	0.125693	0.083237	0.128462	0.188429	5849.638230	34729.274317	3796.477226	15819.825226
103.536000	0.124986	0.084467	0.131741	0.189535	5837.592104	34738.270280	3800.856478	15787.120756
104.036000	0.123128	0.084275	0.128558	0.189268	5827.055949	34743.666034	3794.984190	15794.983804
104.539000	0.124467	0.083983	0.134619	0.189344	5835.418034	34716.886704	3807.076329	15792.762888
105.036000	0.125274	0.084360	0.134766	0.189125	5842.223010	34760.370005	3807.821565	15799.222072
105.536500	0.125504	0.083806	0.131606	0.189115	5843.812480	34720.623254	3801.430867	15799.508529
106.037000	0.124263	0.085038	0.132170	0.190793	5824.488785	34688.198448	3799.182525	15750.026679
