sample name	sample
index	900
start time	 04-08-2021  03:32:49 PM


Wavelength (nm)	Absorbance
494.344910	NaN
494.563924	NaN
494.782919	NaN
495.001897	NaN
495.220856	-0.219584
495.439797	-0.214966
495.658719	-0.107100
495.877624	0.011075
496.096510	-0.188587
496.315378	-0.194697
496.534227	-0.090699
496.753059	0.083449
496.971872	0.173728
497.190667	0.145878
497.409444	0.153780
497.628203	0.149990
497.846943	0.153543
498.065665	0.155467
498.284369	0.154402
498.503055	0.154675
498.721723	0.154143
498.940372	0.152776
499.159003	0.153831
499.377616	0.154260
499.596210	0.155172
499.814787	0.153616
500.033345	0.152775
500.251885	0.153885
500.470406	0.152495
500.688910	0.152675
500.907395	0.153456
501.125862	0.152729
501.344311	0.151554
501.562742	0.151125
501.781154	0.151719
501.999548	0.152349
502.217924	0.152232
502.436282	0.154051
502.654621	0.154191
502.872942	0.154439
503.091245	0.155426
503.309530	0.156327
503.527797	0.156850
503.746045	0.156697
503.964275	0.157202
504.182487	0.157119
504.400681	0.156958
504.618856	0.157129
504.837013	0.156461
505.055152	0.155289
505.273273	0.155792
505.491376	0.155769
505.709460	0.156410
505.927526	0.155688
506.145574	0.156369
506.363604	0.156080
506.581615	0.156015
506.799608	0.156602
507.017583	0.156911
507.235540	0.155860
507.453478	0.156089
507.671399	0.155914
507.889301	0.156097
508.107185	0.155646
508.325050	0.155125
508.542898	0.155227
508.760727	0.155799
508.978538	0.156547
509.196330	0.158270
509.414105	0.158359
509.631861	0.158626
509.849599	0.159100
510.067319	0.158867
510.285021	0.159296
510.502704	0.160617
510.720369	0.160479
510.938016	0.160200
511.155645	0.159272
511.373255	0.160417
511.590848	0.160825
511.808422	0.161096
512.025977	0.162318
512.243515	0.163265
512.461034	0.162898
512.678536	0.163235
512.896018	0.163700
513.113483	0.165069
513.330930	0.165063
513.548358	0.164852
513.765768	0.165114
513.983160	0.164992
514.200533	0.165224
514.417889	0.164790
514.635226	0.164573
514.852545	0.165163
515.069845	0.164208
515.287128	0.163902
515.504392	0.164829
515.721638	0.165192
515.938866	0.165891
516.156075	0.165440
516.373267	0.166084
516.590440	0.166444
516.807594	0.165941
517.024731	0.166114
517.241850	0.166679
517.458950	0.165989
517.676032	0.165752
517.893095	0.165934
518.110141	0.167246
518.327168	0.167636
518.544177	0.168256
518.761168	0.168917
518.978141	0.170071
519.195095	0.170906
519.412031	0.171783
519.628949	0.172415
519.845849	0.172459
520.062731	0.171461
520.279594	0.171171
520.496439	0.171600
520.713266	0.171642
520.930074	0.170841
521.146865	0.170476
521.363637	0.170654
521.580391	0.171921
521.797127	0.172028
522.013844	0.173392
522.230543	0.174200
522.447224	0.174902
522.663887	0.175822
522.880532	0.176571
523.097158	0.176955
523.313766	0.176888
523.530356	0.176409
523.746928	0.177195
523.963481	0.176669
524.180017	0.176558
524.396534	0.176651
524.613032	0.176663
524.829513	0.177016
525.045975	0.176763
525.262420	0.177602
525.478845	0.177974
525.695253	0.178641
525.911643	0.178662
526.128014	0.179574
526.344367	0.179086
526.560702	0.179525
526.777018	0.179645
526.993316	0.179922
527.209597	0.179799
527.425858	0.179523
527.642102	0.178886
527.858328	0.179745
528.074535	0.179849
528.290724	0.180550
528.506894	0.180504
528.723047	0.180954
528.939181	0.181766
529.155297	0.181654
529.371395	0.181625
529.587475	0.182244
529.803536	0.181966
530.019579	0.181849
530.235604	0.181854
530.451611	0.182231
530.667600	0.182686
530.883570	0.182658
531.099522	0.183967
531.315456	0.184968
531.531372	0.185512
531.747269	0.186447
531.963148	0.187156
532.179009	0.187931
532.394852	0.187672
532.610676	0.187631
532.826482	0.188332
533.042271	0.187379
533.258040	0.187636
533.473792	0.187741
533.689525	0.187964
533.905240	0.188438
534.120937	0.188354
534.336616	0.189387
534.552277	0.190699
534.767919	0.191342
534.983543	0.192352
535.199149	0.192965
535.414736	0.193135
535.630306	0.193600
535.845857	0.194037
536.061390	0.194339
536.276904	0.194267
536.492401	0.194132
536.707879	0.194193
536.923339	0.194835
537.138781	0.195205
537.354204	0.195913
537.569610	0.195995
537.784997	0.196598
538.000366	0.197633
538.215716	0.198130
538.431049	0.198373
538.646363	0.198646
538.861659	0.199237
539.076937	0.199595
539.292196	0.199469
539.507438	0.200102
539.722661	0.200206
539.937866	0.199725
540.153052	0.200013
540.368221	0.200198
540.583371	0.200700
540.798503	0.201090
541.013617	0.200707
541.228712	0.200797
541.443789	0.200697
541.658848	0.200748
541.873889	0.201301
542.088912	0.201455
542.303916	0.202020
542.518902	0.202127
542.733870	0.201875
542.948820	0.202575
543.163752	0.202975
543.378665	0.203511
543.593560	0.203621
543.808437	0.204002
544.023295	0.204603
544.238136	0.204104
544.452958	0.204017
544.667762	0.204775
544.882548	0.204960
545.097315	0.206004
545.312064	0.206591
545.526795	0.207177
545.741508	0.207591
545.956203	0.208071
546.170879	0.209027
546.385537	0.209656
546.600177	0.209329
546.814799	0.209721
547.029402	0.209471
547.243988	0.209251
547.458555	0.209712
547.673103	0.210266
547.887634	0.210277
548.102146	0.210555
548.316640	0.210507
548.531116	0.211508
548.745574	0.211875
548.960013	0.212201
549.174435	0.212419
549.388838	0.212638
549.603222	0.212584
549.817589	0.212847
550.031937	0.212948
550.246267	0.213358
550.460579	0.213593
550.674873	0.213840
550.889148	0.214026
551.103405	0.213950
551.317644	0.213795
551.531865	0.214377
551.746068	0.214591
551.960252	0.215016
552.174418	0.215469
552.388566	0.215351
552.602696	0.215115
552.816807	0.215583
553.030900	0.216192
553.244975	0.216807
553.459032	0.216775
553.673070	0.217590
553.887091	0.218034
554.101093	0.218038
554.315077	0.218143
554.529042	0.218756
554.742990	0.218912
554.956919	0.219697
555.170830	0.219980
555.384722	0.220172
555.598597	0.219958
555.812453	0.220098
556.026291	0.220481
556.240111	0.220412
556.453913	0.220547
556.667696	0.220556
556.881461	0.220411
557.095208	0.220347
557.308937	0.220880
557.522647	0.220858
557.736339	0.220630
557.950013	0.220660
558.163669	0.221531
558.377307	0.221831
558.590926	0.222476
558.804527	0.222928
559.018110	0.223413
559.231675	0.223086
559.445221	0.223372
559.658749	0.223660
559.872259	0.223973
560.085751	0.224198
560.299225	0.224475
560.512680	0.224354
560.726117	0.224284
560.939536	0.224356
561.152937	0.224449
561.366319	0.224672
561.579683	0.224941
561.793029	0.225221
562.006357	0.224929
562.219667	0.225182
562.432958	0.225718
562.646231	0.226186
562.859486	0.226384
563.072723	0.226707
563.285941	0.226610
563.499141	0.226608
563.712323	0.226879
563.925487	0.226833
564.138632	0.226726
564.351760	0.226916
564.564869	0.226758
564.777960	0.226816
564.991032	0.227327
565.204087	0.227932
565.417123	0.228270
565.630141	0.228330
565.843140	0.228892
566.056122	0.228817
566.269085	0.228288
566.482030	0.228961
566.694957	0.228542
566.907866	0.228754
567.120756	0.229048
567.333628	0.229376
567.546482	0.229161
567.759318	0.229174
567.972135	0.229712
568.184935	0.230451
568.397716	0.230131
568.610478	0.230601
568.823223	0.230601
569.035949	0.231167
569.248657	0.231328
569.461347	0.231781
569.674019	0.232474
569.886672	0.232373
570.099308	0.232411
570.311925	0.232796
570.524523	0.233161
570.737104	0.233450
570.949666	0.233076
571.162210	0.233198
571.374736	0.233677
571.587244	0.233675
571.799733	0.234122
572.012205	0.234476
572.224658	0.234998
572.437092	0.235628
572.649509	0.235655
572.861907	0.235622
573.074287	0.235705
573.286649	0.235801
573.498993	0.235896
573.711318	0.236594
573.923625	0.236666
574.135914	0.236347
574.348185	0.236546
574.560438	0.236684
574.772672	0.236832
574.984888	0.237218
575.197086	0.237030
575.409266	0.237031
575.621427	0.236816
575.833570	0.236796
576.045695	0.237414
576.257802	0.237111
576.469890	0.236771
576.681961	0.237192
576.894013	0.237067
577.106046	0.237400
577.318062	0.237391
577.530059	0.237209
577.742039	0.237422
577.954000	0.237529
578.165942	0.237715
578.377867	0.238243
578.589773	0.238413
578.801661	0.238734
579.013531	0.238905
579.225382	0.239142
579.437216	0.239228
579.649031	0.239199
579.860828	0.238832
580.072606	0.238903
580.284367	0.239640
580.496109	0.239272
580.707833	0.239361
580.919539	0.239103
581.131227	0.239478
581.342896	0.240006
581.554547	0.240468
581.766180	0.240920
581.977795	0.241704
582.189391	0.241698
582.400969	0.242384
582.612529	0.243093
582.824071	0.243741
583.035595	0.243850
583.247100	0.243627
583.458587	0.243758
583.670056	0.243945
583.881506	0.243492
584.092939	0.243311
584.304353	0.243646
584.515749	0.243449
584.727127	0.243643
584.938486	0.243582
585.149828	0.244112
585.361151	0.244248
585.572456	0.244089
585.783742	0.244533
585.995011	0.244814
586.206261	0.244958
586.417493	0.244945
586.628706	0.245132
586.839902	0.245229
587.051079	0.245452
587.262238	0.245941
587.473379	0.246207
587.684502	0.246266
587.895606	0.246396
588.106692	0.246248
588.317760	0.246342
588.528810	0.246251
588.739841	0.246628
588.950855	0.246615
589.161850	0.246454
589.372827	0.246979
589.583785	0.246948
589.794726	0.246857
590.005648	0.247161
590.216552	0.247659
590.427437	0.248098
590.638305	0.248528
590.849154	0.248703
591.059985	0.248878
591.270798	0.248556
591.481592	0.248815
591.692369	0.248911
591.903127	0.248716
592.113867	0.248745
592.324588	0.248884
592.535292	0.248865
592.745977	0.249254
592.956644	0.249605
593.167293	0.250153
593.377923	0.250671
593.588536	0.250891
593.799130	0.251258
594.009706	0.251379
594.220263	0.251524
594.430803	0.251803
594.641324	0.252076
594.851827	0.251991
595.062312	0.251993
595.272778	0.251674
595.483227	0.252185
595.693657	0.252232
595.904069	0.252367
596.114462	0.252474
596.324838	0.252739
596.535195	0.252560
596.745534	0.252655
596.955855	0.252727
597.166157	0.253338
597.376441	0.253277
597.586707	0.253461
597.796955	0.253666
598.007185	0.254057
598.217396	0.253978
598.427589	0.254319
598.637764	0.254505
598.847921	0.254794
599.058060	0.254497
599.268180	0.254475
599.478282	0.254624
599.688366	0.254654
599.898431	0.254227
600.108479	0.254191
600.318508	0.254203
600.528519	0.254619
600.738511	0.254914
600.948486	0.255143
601.158442	0.255584
601.368380	0.255576
601.578300	0.255492
601.788202	0.255843
601.998085	0.256351
602.207950	0.256556
602.417797	0.256723
602.627626	0.256902
602.837436	0.257153
603.047228	0.257206
603.257002	0.257628
603.466758	0.258352
603.676496	0.258929
603.886215	0.258917
604.095916	0.258942
604.305599	0.258972
604.515264	0.258892
604.724910	0.259285
604.934538	0.259514
605.144148	0.259487
605.353740	0.259473
605.563314	0.259243
605.772869	0.259495
605.982406	0.259656
606.191925	0.259501
606.401425	0.259346
606.610908	0.258844
606.820372	0.258857
607.029818	0.259226
607.239246	0.259075
607.448655	0.259003
607.658047	0.259064
607.867420	0.259323
608.076775	0.259933
608.286111	0.260224
608.495430	0.260552
608.704730	0.260684
608.914012	0.260354
609.123275	0.260568
609.332521	0.260954
609.541748	0.261046
609.750957	0.261085
609.960148	0.260985
610.169321	0.261367
610.378475	0.261492
610.587611	0.261868
610.796729	0.262477
611.005829	0.262830
611.214910	0.262998
611.423974	0.262968
611.633019	0.263233
611.842045	0.263162
612.051054	0.263008
612.260044	0.263228
612.469017	0.263357
612.677970	0.263384
612.886906	0.263250
613.095824	0.263226
613.304723	0.263483
613.513604	0.263669
613.722467	0.263832
613.931311	0.264124
614.140138	0.264547
614.348946	0.264592
614.557736	0.264858
614.766507	0.264902
614.975261	0.265091
615.183996	0.265121
615.392713	0.265366
615.601412	0.265408
615.810092	0.265275
616.018754	0.265208
616.227399	0.265192
616.436024	0.265246
616.644632	0.265475
616.853222	0.265915
617.061793	0.266070
617.270346	0.265934
617.478880	0.266210
617.687397	0.266711
617.895895	0.266826
618.104375	0.266781
618.312837	0.267120
618.521281	0.267492
618.729706	0.267368
618.938113	0.267535
619.146502	0.267734
619.354873	0.268019
619.563226	0.267927
619.771560	0.268161
619.979876	0.268656
620.188174	0.268549
620.396453	0.269033
620.604715	0.269554
620.812958	0.269863
621.021183	0.269802
621.229390	0.269706
621.437578	0.270346
621.645748	0.270560
621.853900	0.270845
622.062034	0.270708
622.270150	0.270405
622.478247	0.270122
622.686326	0.270189
622.894387	0.270415
623.102430	0.270858
623.310454	0.270828
623.518461	0.270943
623.726449	0.270607
623.934418	0.271049
624.142370	0.271133
624.350303	0.271634
624.558218	0.271766
624.766115	0.272111
624.973994	0.272277
625.181855	0.272187
625.389697	0.272412
625.597521	0.273309
625.805327	0.273446
626.013114	0.273905
626.220883	0.273948
626.428634	0.273969
626.636367	0.274183
626.844082	0.274296
627.051778	0.274597
627.259457	0.274661
627.467117	0.274709
627.674758	0.274890
627.882382	0.274968
628.089987	0.274997
628.297574	0.275402
628.505143	0.275333
628.712694	0.275409
628.920226	0.275230
629.127740	0.275379
629.335236	0.275112
629.542714	0.275361
629.750174	0.275278
629.957615	0.275299
630.165038	0.275443
630.372443	0.275562
630.579829	0.275785
630.787198	0.275982
630.994548	0.276022
631.201880	0.276300
631.409194	0.276417
631.616489	0.276708
631.823766	0.277065
632.031025	0.277093
632.238266	0.277306
632.445489	0.277178
632.652693	0.277462
632.859879	0.277718
633.067047	0.277841
633.274197	0.277964
633.481329	0.278064
633.688442	0.277957
633.895537	0.278189
634.102614	0.278212
634.309672	0.278412
634.516713	0.278477
634.723735	0.278533
634.930739	0.278471
635.137724	0.278640
635.344692	0.278760
635.551641	0.279126
635.758572	0.279335
635.965485	0.279680
636.172379	0.279813
636.379256	0.280392
636.586114	0.280606
636.792954	0.280973
636.999775	0.281255
637.206579	0.281604
637.413364	0.281843
637.620131	0.282075
637.826880	0.282132
638.033610	0.282500
638.240323	0.282273
638.447017	0.282612
638.653692	0.282918
638.860350	0.283096
639.066990	0.283195
639.273611	0.283212
639.480214	0.283299
639.686798	0.283564
639.893365	0.283804
640.099913	0.284407
640.306443	0.284500
640.512955	0.284627
640.719449	0.284678
640.925924	0.284703
641.132381	0.284996
641.338820	0.284934
641.545241	0.285062
641.751644	0.285091
641.958028	0.285041
642.164394	0.285222
642.370742	0.285097
642.577071	0.285337
642.783383	0.285371
642.989676	0.285529
643.195951	0.285874
643.402207	0.285977
643.608446	0.286176
643.814666	0.286251
644.020868	0.286485
644.227052	0.286817
644.433218	0.286838
644.639365	0.287239
644.845494	0.287411
645.051605	0.287449
645.257698	0.287542
645.463772	0.287569
645.669828	0.287758
645.875866	0.287849
646.081886	0.288083
646.287888	0.288365
646.493871	0.288369
646.699836	0.288666
646.905783	0.288760
647.111712	0.289199
647.317622	0.289511
647.523514	0.289768
647.729388	0.289729
647.935244	0.289907
648.141082	0.289897
648.346901	0.290188
648.552702	0.290222
648.758485	0.290588
648.964250	0.290755
649.169996	0.290657
649.375724	0.290734
649.581434	0.290939
649.787126	0.291065
649.992800	0.291155
650.198455	0.291128
650.404092	0.291376
650.609711	0.291585
650.815311	0.291769
651.020894	0.292447
651.226458	0.292665
651.432004	0.292930
651.637532	0.292992
651.843041	0.293343
652.048532	0.293544
652.254006	0.293604
652.459460	0.293776
652.664897	0.293804
652.870315	0.293797
653.075716	0.294029
653.281097	0.294223
653.486461	0.294586
653.691807	0.294877
653.897134	0.295358
654.102443	0.295635
654.307734	0.295906
654.513006	0.296336
654.718261	0.296442
654.923497	0.296851
655.128715	0.297019
655.333915	0.297242
655.539096	0.297612
655.744259	0.297736
655.949404	0.298034
656.154531	0.297820
656.359640	0.297818
656.564730	0.298247
656.769802	0.298173
656.974856	0.298604
657.179892	0.298913
657.384909	0.298790
657.589908	0.299168
657.794889	0.299047
657.999852	0.299887
658.204797	0.300245
658.409723	0.300268
658.614631	0.300665
658.819521	0.300770
659.024393	0.300913
659.229246	0.301228
659.434081	0.301387
659.638898	0.301990
659.843697	0.302119
660.048478	0.302375
660.253240	0.302463
660.457984	0.302624
660.662710	0.302779
660.867417	0.302990
661.072107	0.303431
661.276778	0.303728
661.481431	0.304006
661.686066	0.304115
661.890682	0.304385
662.095281	0.304892
662.299861	0.305162
662.504422	0.305551
662.708966	0.305806
662.913491	0.305904
663.117999	0.305931
663.322488	0.306093
663.526958	0.306348
663.731411	0.306629
663.935845	0.306567
664.140261	0.306686
664.344659	0.306785
664.549038	0.307003
664.753400	0.307070
664.957743	0.307443
665.162068	0.307500
665.366375	0.307741
665.570663	0.307686
665.774933	0.308321
665.979185	0.308483
666.183419	0.308882
666.387635	0.309072
666.591832	0.309447
666.796011	0.309629
667.000172	0.309997
667.204315	0.310158
667.408439	0.310496
667.612545	0.310449
667.816634	0.311120
668.020703	0.311204
668.224755	0.311440
668.428788	0.311733
668.632803	0.311927
668.836800	0.311916
669.040779	0.312400
669.244739	0.312574
669.448681	0.312781
669.652605	0.312789
669.856511	0.313508
670.060399	0.313848
670.264268	0.314147
670.468119	0.314766
670.671952	0.315289
670.875767	0.315195
671.079563	0.315694
671.283341	0.316363
671.487101	0.316570
671.690843	0.316473
671.894567	0.316885
672.098272	0.317126
672.301959	0.317083
672.505628	0.317139
672.709278	0.317417
672.912911	0.317412
673.116525	0.317296
673.320121	0.317502
673.523699	0.317592
673.727258	0.317949
673.930799	0.318075
674.134322	0.318215
674.337827	0.318296
674.541314	0.318455
674.744782	0.318552
674.948232	0.318592
675.151664	0.318866
675.355078	0.319243
675.558474	0.319035
675.761851	0.319307
675.965210	0.319556
676.168551	0.320001
676.371873	0.320184
676.575178	0.320503
676.778464	0.320661
676.981732	0.320627
677.184981	0.320676
677.388213	0.320977
677.591426	0.321123
677.794621	0.321605
677.997798	0.321772
678.200956	0.322010
678.404097	0.322255
678.607219	0.322775
678.810323	0.323074
679.013408	0.323417
679.216476	0.323563
679.419525	0.323758
679.622556	0.323738
679.825569	0.323945
680.028563	0.324211
680.231540	0.324587
680.434498	0.324843
680.637438	0.325312
680.840359	0.325404
681.043263	0.325653
681.246148	0.325980
681.449015	0.326173
681.651864	0.326612
681.854694	0.326850
682.057506	0.327027
682.260301	0.327266
682.463076	0.327302
682.665834	0.327538
682.868573	0.327880
683.071295	0.328028
683.273998	0.328446
683.476682	0.328349
683.679349	0.328563
683.881997	0.328561
684.084627	0.328753
684.287239	0.328851
684.489833	0.328966
684.692408	0.329214
684.894965	0.329477
685.097504	0.329688
685.300025	0.329992
685.502527	0.330285
685.705012	0.330756
685.907478	0.331052
686.109925	0.331553
686.312355	0.331878
686.514766	0.332157
686.717159	0.332531
686.919534	0.332704
687.121891	0.332751
687.324230	0.332996
687.526550	0.333113
687.728852	0.333396
687.931136	0.333333
688.133401	0.333763
688.335649	0.333842
688.537878	0.333995
688.740089	0.334058
688.942281	0.334646
689.144456	0.335052
689.346612	0.335307
689.548750	0.335355
689.750870	0.335891
689.952971	0.336151
690.155055	0.336309
690.357120	0.336347
690.559167	0.336544
690.761195	0.336552
690.963206	0.336501
691.165198	0.336752
691.367172	0.336895
691.569128	0.336882
691.771065	0.337023
691.972984	0.337287
692.174885	0.337499
692.376768	0.337677
692.578633	0.337974
692.780479	0.338206
692.982308	0.338210
693.184118	0.338415
693.385909	0.338329
693.587683	0.338298
693.789438	0.338592
693.991175	0.338630
694.192894	0.338665
694.394595	0.338652
694.596277	0.338803
694.797941	0.339117
694.999587	0.339106
695.201215	0.339545
695.402824	0.339382
695.604416	0.339455
695.805989	0.339724
696.007543	0.339892
696.209080	0.340076
696.410598	0.339995
696.612099	0.340181
696.813580	0.340473
697.015044	0.340540
697.216490	0.341125
697.417917	0.341093
697.619326	0.341160
697.820717	0.341303
698.022089	0.341473
698.223444	0.341764
698.424780	0.341903
698.626098	0.342094
698.827397	0.342283
699.028679	0.342392
699.229942	0.342593
699.431187	0.342901
699.632414	0.343371
699.833622	0.343655
700.034813	0.343928
700.235985	0.343897
700.437139	0.344061
700.638274	0.344221
700.839392	0.344326
701.040491	0.344430
701.241572	0.344524
701.442635	0.344509
701.643679	0.344553
701.844706	0.344594
702.045714	0.344506
702.246704	0.344583
702.447675	0.344782
702.648629	0.344862
702.849564	0.345020
703.050481	0.345285
703.251380	0.345341
703.452260	0.345308
703.653122	0.345356
703.853966	0.345700
704.054792	0.345936
704.255600	0.345951
704.456389	0.346018
704.657160	0.345918
704.857913	0.345852
705.058648	0.345749
705.259365	0.345930
705.460063	0.345542
705.660743	0.345523
705.861405	0.345467
706.062048	0.345501
706.262674	0.345849
706.463281	0.346180
706.663870	0.345987
706.864441	0.346155
707.064993	0.346227
707.265527	0.346568
707.466043	0.346793
707.666541	0.346860
707.867021	0.346867
708.067482	0.346473
708.267925	0.346227
708.468350	0.346524
708.668757	0.346489
708.869145	0.346477
709.069516	0.346804
709.269868	0.346920
709.470201	0.347075
709.670517	0.347106
709.870814	0.347254
710.071093	0.347367
710.271354	0.347208
710.471597	0.347396
710.671821	0.347431
710.872028	0.346935
711.072216	0.346948
711.272385	0.346439
711.472537	0.346503
711.672670	0.346471
711.872785	0.346442
712.072882	0.346358
712.272961	0.346032
712.473021	0.345641
712.673063	0.345952
712.873087	0.345567
713.073093	0.345790
713.273081	0.345512
713.473050	0.345283
713.673001	0.344908
713.872934	0.345131
714.072849	0.345329
714.272745	0.345666
714.472623	0.345791
714.672483	0.346026
714.872325	0.346094
715.072148	0.346142
715.271954	0.346137
715.471741	0.346347
715.671509	0.346198
715.871260	0.346270
716.070992	0.346181
716.270707	0.345874
716.470403	0.345706
716.670080	0.345304
716.869740	0.345312
717.069381	0.345504
717.269004	0.345560
717.468609	0.345580
717.668195	0.345335
717.867764	0.345303
718.067314	0.345082
718.266846	0.345004
718.466360	0.345224
718.665855	0.345128
718.865332	0.345039
719.064791	0.344904
719.264232	0.344727
719.463655	0.344627
719.663059	0.344345
719.862445	0.344680
720.061813	0.344519
720.261163	0.344152
720.460494	0.344261
720.659807	0.343953
720.859102	0.343760
721.058379	0.343626
721.257638	0.343624
721.456878	0.343633
721.656100	0.343520
721.855304	0.343223
722.054490	0.343526
722.253657	0.343248
722.452806	0.343170
722.651937	0.343223
722.851050	0.343125
723.050145	0.343120
723.249221	0.343091
723.448279	0.342739
723.647319	0.342757
723.846340	0.342585
724.045344	0.342465
724.244329	0.342331
724.443296	0.342066
724.642245	0.341815
724.841175	0.341393
725.040088	0.341241
725.238982	0.341511
725.437857	0.341468
725.636715	0.341031
725.835554	0.340887
726.034376	0.340798
726.233179	0.340940
726.431963	0.341182
726.630730	0.341235
726.829478	0.341107
727.028208	0.340676
727.226920	0.340709
727.425614	0.340937
727.624289	0.340998
727.822946	0.340924
728.021585	0.340791
728.220206	0.340310
728.418808	0.340304
728.617392	0.340247
728.815958	0.340053
729.014506	0.339913
729.213036	0.339817
729.411547	0.339317
729.610040	0.339120
729.808515	0.338830
730.006972	0.338882
730.205410	0.338657
730.403831	0.338327
730.602233	0.338299
730.800616	0.337934
730.998982	0.337164
731.197329	0.336933
731.395658	0.336781
731.593969	0.336361
731.792262	0.336151
731.990536	0.335861
732.188793	0.336042
732.387031	0.335674
732.585250	0.335658
732.783452	0.336034
732.981635	0.336116
733.179800	0.336090
733.377947	0.335986
733.576076	0.335711
733.774186	0.335654
733.972278	0.335169
734.170352	0.335146
734.368408	0.335021
734.566446	0.334752
734.764465	0.334535
734.962466	0.334428
735.160449	0.334311
735.358413	0.334116
735.556360	0.333564
735.754288	0.333266
735.952198	0.332653
736.150090	0.332335
736.347963	0.331935
736.545818	0.331787
736.743655	0.331462
736.941474	0.331254
737.139275	0.330922
737.337057	0.330969
737.534821	0.330824
737.732567	0.330868
737.930295	0.330476
738.128005	0.330056
738.325696	0.329737
738.523369	0.329355
738.721024	0.329423
738.918660	0.329228
739.116279	0.328834
739.313879	0.328766
739.511461	0.328461
739.709024	0.328112
739.906570	0.328402
740.104097	0.328061
740.301606	0.327704
740.499097	0.327379
740.696569	0.327125
740.894024	0.327142
741.091460	0.326579
741.288878	0.326521
741.486277	0.326311
741.683659	0.325884
741.881022	0.325650
742.078367	0.325513
742.275694	0.325390
742.473002	0.325108
742.670293	0.324777
742.867565	0.324789
743.064819	0.324449
743.262054	0.324386
743.459272	0.324061
743.656471	0.323585
743.853652	0.323671
744.050815	0.323252
744.247959	0.323199
744.445085	0.322798
744.642194	0.322461
744.839283	0.322221
745.036355	0.322168
745.233408	0.322027
745.430444	0.322363
745.627461	0.321752
745.824459	0.321478
746.021440	0.321105
746.218402	0.320999
746.415346	0.320904
746.612272	0.320751
746.809180	0.320290
747.006069	0.320177
747.202940	0.319817
747.399793	0.319775
747.596628	0.319386
747.793444	0.319253
747.990243	0.318900
748.187023	0.318749
748.383784	0.318221
748.580528	0.318085
748.777253	0.317550
748.973960	0.317219
749.170649	0.316677
749.367320	0.316621
749.563973	0.316260
749.760607	0.315914
749.957223	0.315485
750.153821	0.315453
750.350400	0.315216
750.546962	0.315104
750.743505	0.314851
750.940030	0.314845
751.136536	0.314594
751.333025	0.314543
751.529495	0.314505
751.725947	0.314403
751.922381	0.314262
752.118796	0.313996
752.315194	0.313904
752.511573	0.313920
752.707934	0.313712
752.904276	0.313590
753.100601	0.313281
753.296907	0.313329
753.493195	0.313077
753.689465	0.312850
753.885716	0.312967
754.081949	0.312756
754.278164	0.312779
754.474361	0.312615
754.670540	0.312498
754.866700	0.312416
755.062843	0.311950
755.258967	0.311903
755.455072	0.311627
755.651160	0.311155
755.847229	0.311091
756.043280	0.310475
756.239313	0.310169
756.435328	0.309477
756.631324	0.309218
756.827302	0.308946
757.023262	0.308701
757.219204	0.308531
757.415127	0.308417
757.611033	0.308269
757.806920	0.308015
758.002788	0.308118
758.198639	0.308184
758.394471	0.308008
758.590286	0.307991
758.786081	0.307695
758.981859	0.307651
759.177619	0.307552
759.373360	0.307281
759.569083	0.307202
759.764788	0.306899
759.960474	0.306644
760.156143	0.306513
760.351793	0.306387
760.547425	0.306248
760.743038	0.305922
760.938634	0.305532
761.134211	0.305425
761.329770	0.305185
761.525311	0.305058
761.720833	0.304878
761.916338	0.304482
762.111824	0.304406
762.307292	0.304276
762.502741	0.304221
762.698173	0.304235
762.893586	0.304002
763.088981	0.303873
763.284358	0.303614
763.479716	0.303497
763.675057	0.303668
763.870379	0.303026
764.065683	0.302842
764.260968	0.302895
764.456236	0.302659
764.651485	0.302345
764.846716	0.302373
765.041929	0.302222
765.237123	0.302064
765.432299	0.301869
765.627457	0.302137
765.822597	0.301915
766.017719	0.301577
766.212822	0.301582
766.407907	0.301549
766.602974	0.301075
766.798023	0.300899
766.993054	0.300527
767.188066	0.300365
767.383060	0.300184
767.578036	0.299986
767.772993	0.300126
767.967933	0.299869
768.162854	0.299737
768.357757	0.299885
768.552642	0.299733
768.747508	0.300153
768.942356	0.300217
769.137186	0.300065
769.331998	0.300040
769.526792	0.299828
769.721567	0.299645
769.916324	0.299608
770.111063	0.299286
770.305784	0.299417
770.500486	0.299090
770.695171	0.298999
770.889837	0.299187
771.084484	0.299182
771.279114	0.298959
771.473725	0.299023
771.668318	0.298832
771.862893	0.299350
772.057450	0.299147
772.251988	0.299263
772.446509	0.299145
772.641011	0.298851
772.835494	0.298587
773.029960	0.298477
773.224407	0.298321
773.418836	0.298297
773.613247	0.298046
773.807640	0.298123
774.002014	0.298070
774.196370	0.297888
774.390708	0.297990
774.585028	0.298156
774.779330	0.298509
774.973613	0.298395
775.167878	0.298460
775.362125	0.298272
775.556354	0.298017
775.750564	0.297990
775.944756	0.298170
776.138930	0.297964
776.333086	0.298056
776.527223	0.297743
776.721343	0.297760
776.915444	0.297839
777.109526	0.297942
777.303591	0.298039
777.497637	0.297912
777.691666	0.297756
777.885676	0.297700
778.079667	0.297494
778.273641	0.297380
778.467596	0.297496
778.661533	0.297219
778.855452	0.297078
779.049352	0.297212
779.243235	0.297481
779.437099	0.297375
779.630945	0.297592
779.824773	0.297862
780.018582	0.297935
780.212373	0.297949
780.406146	0.298140
780.599901	0.298134
780.793638	0.297958
780.987356	0.297804
781.181056	0.297785
781.374738	0.297871
781.568402	0.297696
781.762047	0.297676
781.955674	0.297611
782.149283	0.297425
782.342874	0.297460
782.536447	0.297332
782.730001	0.297452
782.923537	0.297560
783.117055	0.297606
783.310555	0.297542
783.504036	0.297702
783.697499	0.297627
783.890944	0.297646
784.084371	0.297632
784.277780	0.297783
784.471170	0.297519
784.664542	0.297644
784.857896	0.297554
785.051231	0.297733
785.244549	0.297711
785.437848	0.297893
785.631129	0.298192
785.824392	0.298364
786.017636	0.298616
786.210863	0.298988
786.404071	0.298800
786.597260	0.298551
786.790432	0.298788
786.983585	0.298827
787.176721	0.298886
787.369838	0.298859
787.562936	0.298812
787.756017	0.299212
787.949079	0.299107
788.142123	0.299705
788.335149	0.300038
788.528156	0.300040
788.721146	0.300296
788.914117	0.300635
789.107070	0.300714
789.300005	0.301039
789.492921	0.300820
789.685819	0.301113
789.878699	0.301025
790.071561	0.301321
790.264405	0.301396
790.457230	0.301553
790.650037	0.301365
790.842826	0.301983
791.035597	0.301998
791.228349	0.302194
791.421084	0.302304
791.613800	0.302386
791.806497	0.302404
791.999177	0.302623
792.191838	0.302893
792.384481	0.303231
792.577106	0.303015
792.769713	0.303338
792.962301	0.303576
793.154871	0.303559
793.347423	0.303753
793.539957	0.303867
793.732473	0.303905
793.924970	0.303764
794.117449	0.303877
794.309910	0.303890
794.502353	0.303713
794.694777	0.303565
794.887183	0.303804
795.079571	0.304146
795.271941	0.304425
795.464293	0.304417
795.656626	0.304872
795.848941	0.305119
796.041238	0.305332
796.233516	0.305734
796.425777	0.306336
796.618019	0.306494
796.810243	0.306497
797.002449	0.306833
797.194636	0.307552
797.386805	0.307571
797.578956	0.307908
797.771089	0.308549
797.963204	0.308644
798.155300	0.308296
798.347378	0.308405
798.539438	0.308733
798.731480	0.308747
798.923503	0.308811
799.115509	0.309355
799.307496	0.309664
799.499465	0.309655
799.691415	0.309909
799.883348	0.310434
800.075262	0.310824
800.267158	0.310895
800.459035	0.311180
800.650895	0.311078
800.842736	0.311270
801.034559	0.311147
801.226364	0.311383
801.418150	0.311622
801.609919	0.312016
801.801669	0.312199
801.993401	0.312330
802.185114	0.312613
802.376810	0.313046
802.568487	0.313013
802.760146	0.313347
802.951787	0.313399
803.143409	0.313685
803.335014	0.313675
803.526600	0.314078
803.718168	0.314548
803.909717	0.314790
804.101249	0.315094
804.292762	0.315299
804.484257	0.315394
804.675734	0.315655
804.867192	0.315861
805.058632	0.316257
805.250054	0.316301
805.441458	0.316493
805.632844	0.316865
805.824211	0.316989
806.015561	0.317451
806.206891	0.317920
806.398204	0.318505
806.589499	0.319105
806.780775	0.319400
806.972033	0.319827
807.163273	0.320315
807.354495	0.320375
807.545698	0.320525
807.736883	0.320838
807.928050	0.321222
808.119199	0.321358
808.310329	0.321337
808.501441	0.321705
808.692535	0.321999
808.883611	0.322142
809.074669	0.322686
809.265708	0.323567
809.456729	0.323851
809.647732	0.324259
809.838717	0.324788
810.029683	0.325400
810.220632	0.325804
810.411562	0.326242
810.602474	0.326588
810.793367	0.326955
810.984242	0.326921
811.175100	0.327278
811.365938	0.327673
811.556759	0.327696
811.747562	0.327715
811.938346	0.328031
812.129112	0.328182
812.319860	0.328488
812.510589	0.328804
812.701300	0.329406
812.891994	0.329818
813.082668	0.330282
813.273325	0.330519
813.463964	0.330981
813.654584	0.331226
813.845186	0.332052
814.035769	0.332645
814.226335	0.332922
814.416882	0.333205
814.607411	0.333570
814.797922	0.333625
814.988415	0.334191
815.178889	0.334830
815.369345	0.335321
815.559783	0.335350
815.750203	0.335608
815.940605	0.335759
816.130988	0.336034
816.321353	0.336305
816.511700	0.337391
816.702028	0.337767
816.892339	0.338034
817.082631	0.338532
817.272905	0.339157
817.463161	0.339770
817.653398	0.340615
817.843617	0.341095
818.033819	0.341817
818.224001	0.341723
818.414166	0.342437
818.604312	0.343117
818.794440	0.343517
818.984550	0.344121
819.174642	0.344735
819.364716	0.345299
819.554771	0.346099
819.744808	0.346321
819.934827	0.346414
820.124827	0.347018
820.314810	0.347288
820.504774	0.347857
820.694720	0.348172
820.884647	0.348002
821.074557	0.348150
821.264448	0.348657
821.454321	0.348883
821.644176	0.349428
821.834012	0.349541
822.023831	0.349598
822.213631	0.349894
822.403413	0.350149
822.593176	0.350791
822.782922	0.351271
822.972649	0.351206
823.162358	0.351964
823.352049	0.352530
823.541721	0.352628
823.731376	0.353382
823.921012	0.353821
824.110629	0.354305
824.300229	0.354781
824.489811	0.355308
824.679374	0.355839
824.868919	0.355900
825.058445	0.356518
825.247954	0.357130
825.437444	0.357627
825.626916	0.357766
825.816370	0.358112
826.005806	0.358789
826.195223	0.359138
826.384622	0.359518
826.574003	0.360021
826.763366	0.360406
826.952711	0.360743
827.142037	0.361068
827.331345	0.362044
827.520635	0.362598
827.709906	0.362796
827.899160	0.363327
828.088395	0.363856
828.277612	0.364702
828.466810	0.365057
828.655991	0.365893
828.845153	0.366586
829.034297	0.366592
829.223423	0.367157
829.412531	0.367838
829.601620	0.368565
829.790691	0.369085
829.979744	0.369223
830.168779	0.369593
830.357795	0.370069
830.546793	0.370548
830.735773	0.371104
830.924735	0.371424
831.113679	0.371432
831.302604	0.371471
831.491511	0.371822
831.680400	0.372572
831.869271	0.372964
832.058123	0.373704
832.246957	0.373814
832.435773	0.374501
832.624571	0.375366
832.813351	0.376250
833.002112	0.377007
833.190855	0.377636
833.379580	0.378088
833.568287	0.378823
833.756975	0.378986
833.945645	0.379993
834.134297	0.380285
834.322931	0.380556
834.511547	0.380741
834.700144	0.381059
834.888723	0.381415
835.077284	0.381981
835.265826	0.382584
835.454351	0.382728
835.642857	0.382904
835.831345	0.383604
836.019815	0.383899
836.208266	0.384774
836.396699	0.385714
836.585114	0.386357
836.773511	0.386858
836.961890	0.387357
837.150250	0.388177
837.338592	0.389026
837.526916	0.389655
837.715222	0.390445
837.903510	0.390930
838.091779	0.390879
838.280030	0.391714
838.468263	0.392069
838.656477	0.392679
838.844674	0.393062
839.032852	0.393500
839.221012	0.394035
839.409153	0.394461
839.597277	0.394678
839.785382	0.395349
839.973469	0.395307
840.161538	0.395813
840.349589	0.396342
840.537621	0.397134
840.725635	0.397438
840.913631	0.397631
841.101609	0.398353
841.289568	0.399130
841.477509	0.400030
841.665432	0.401150
841.853337	0.401855
842.041224	0.402054
842.229092	0.402639
842.416942	0.403438
842.604774	0.404326
842.792588	0.404998
842.980383	0.405870
843.168160	0.406201
843.355919	0.406481
843.543660	0.407045
843.731382	0.407782
843.919087	0.408122
844.106773	0.408663
844.294441	0.409233
844.482090	0.409088
844.669722	0.409697
844.857335	0.410182
845.044930	0.410947
845.232507	0.411625
845.420065	0.412149
845.607605	0.412902
845.795127	0.413295
845.982631	0.414136
846.170117	0.414531
846.357584	0.414634
846.545033	0.415247
846.732464	0.415421
846.919877	0.416109
847.107272	0.417061
847.294648	0.417555
847.482006	0.418289
847.669346	0.418526
847.856667	0.420070
848.043971	0.421013
848.231256	0.421690
848.418523	0.422385
848.605771	0.422783
848.793002	0.423089
848.980214	0.423761
849.167408	0.423951
849.354584	0.424152
849.541742	0.424181
849.728881	0.424643
849.916002	0.425341
850.103105	0.425772
850.290190	0.426440
850.477256	0.427186
850.664304	0.427694
850.851334	0.428146
851.038346	0.428558
851.225340	0.429175
851.412315	0.429729
851.599272	0.429836
851.786211	0.430488
851.973132	0.430642
852.160034	0.431157
852.346918	0.431789
852.533784	0.432702
852.720632	0.433865
852.907462	0.434688
853.094273	0.435101
853.281066	0.435786
853.467841	0.436457
853.654598	0.437059
853.841336	0.437093
854.028056	0.437723
854.214758	0.438589
854.401442	0.439102
854.588107	0.439768
854.774755	0.440507
854.961384	0.441038
855.147995	0.441376
855.334587	0.441961
855.521162	0.442820
855.707718	0.442968
855.894256	0.443260
856.080775	0.443861
856.267277	0.444393
856.453760	0.444708
856.640225	0.445081
856.826672	0.445869
857.013101	0.446608
857.199511	0.447126
857.385903	0.447979
857.572277	0.448524
857.758633	0.449187
857.944970	0.449642
858.131290	0.450009
858.317591	0.450540
858.503873	0.451201
858.690138	0.451882
858.876384	0.452188
859.062612	0.452643
859.248822	0.452892
859.435014	0.453355
859.621188	0.453839
859.807343	0.454852
859.993480	0.455456
860.179599	0.456168
860.365699	0.456657
860.551781	0.457573
860.737846	0.458123
860.923891	0.458896
861.109919	0.459156
861.295929	0.459785
861.481920	0.460062
861.667893	0.460768
861.853848	0.461103
862.039784	0.461364
862.225702	0.461956
862.411603	0.462845
862.597484	0.463197
862.783348	0.463723
862.969193	0.463795
863.155021	0.464485
863.340830	0.465163
863.526620	0.465733
863.712393	0.465908
863.898147	0.466216
864.083883	0.466175
864.269601	0.466666
864.455301	0.467123
864.640982	0.467753
864.826645	0.467834
865.012290	0.468207
865.197917	0.468948
865.383526	0.469827
865.569116	0.470117
865.754688	0.470375
865.940242	0.470776
866.125777	0.471002
866.311295	0.471113
866.496794	0.471955
866.682275	0.472457
866.867737	0.472078
867.053182	0.472876
867.238608	0.473680
867.424016	0.474353
867.609406	0.474510
867.794778	0.475008
867.980131	0.475959
868.165466	0.476059
868.350783	0.476209
868.536082	0.476993
868.721362	0.476947
868.906625	0.476923
869.091869	0.477321
869.277094	0.478182
869.462302	0.479025
869.647491	0.479378
869.832662	0.480189
870.017815	0.480840
870.202950	0.480920
870.388066	0.481626
870.573165	0.481961
870.758245	0.482520
870.943306	0.482796
871.128350	0.482825
871.313375	0.483043
871.498382	0.483074
871.683371	0.483167
871.868342	0.483589
872.053294	0.483287
872.238229	0.483831
872.423144	0.484478
872.608042	0.485113
872.792922	0.485449
872.977783	0.485878
873.162626	0.485893
873.347451	0.486129
873.532258	0.486187
873.717046	0.487138
873.901816	0.487794
874.086568	0.487212
874.271302	0.487729
874.456017	0.487869
874.640715	0.487999
874.825394	0.488850
875.010055	0.489045
875.194697	0.489882
875.379322	0.490283
875.563928	0.490211
875.748516	0.490901
875.933085	0.490783
876.117637	0.491109
876.302170	0.491378
876.486685	0.491298
876.671182	0.492188
876.855661	0.492262
877.040121	0.491925
877.224563	0.492284
877.408987	0.492743
877.593393	0.492848
877.777780	0.493342
877.962150	0.493973
878.146501	0.494774
878.330833	0.495026
878.515148	0.494956
878.699444	0.495468
878.883722	0.495697
879.067982	0.496013
879.252224	0.496342
879.436447	0.496464
879.620653	0.496506
879.804840	0.496339
879.989008	0.496285
880.173159	0.496382
880.357291	0.496373
880.541405	0.496543
880.725501	0.496965
880.909579	0.497113
881.093638	0.497423
881.277680	0.497675
881.461703	0.497834
881.645707	0.498255
881.829694	0.499045
882.013662	0.499691
882.197612	0.500196
882.381544	0.500480
882.565458	0.500629
882.749353	0.500555
882.933230	0.500648
883.117089	0.500848
883.300930	0.500863
883.484753	0.500525
883.668557	0.500243
883.852343	0.500501
884.036111	0.500171
884.219861	0.500547
884.403592	0.501079
884.587305	0.501236
884.771000	0.501722
884.954677	0.502009
885.138335	0.502151
885.321976	0.502508
885.505598	0.502497
885.689201	0.502865
885.872787	0.503173
886.056354	0.503272
886.239904	0.503330
886.423434	0.502967
886.606947	0.502641
886.790442	0.502916
886.973918	0.502929
887.157376	0.503074
887.340816	0.502422
887.524237	0.501820
887.707641	0.501414
887.891026	0.501899
888.074393	0.501743
888.257741	0.502433
888.441072	0.502685
888.624384	0.502529
888.807678	0.502199
888.990954	0.502699
889.174211	0.502889
889.357451	0.504126
889.540672	0.503695
889.723875	0.504140
889.907059	0.503107
890.090226	0.502877
890.273374	0.503095
890.456504	0.503291
890.639616	0.503257
890.822709	0.503507
891.005785	0.503015
891.188842	0.503171
891.371881	0.503263
891.554901	0.503896
891.737904	0.504026
891.920888	0.504248
892.103854	0.504306
892.286802	0.504396
892.469731	0.503648
892.652643	0.503042
892.835536	0.502921
893.018410	0.502898
893.201267	0.502408
893.384106	0.502851
893.566926	0.502320
893.749728	0.501805
893.932511	0.502012
894.115277	0.502522
894.298024	0.502589
894.480753	0.502071
894.663464	0.501766
894.846157	0.501916
895.028831	0.501515
895.211487	0.501445
895.394125	0.501371
895.576745	0.501189
895.759346	0.501198
895.941930	0.500897
896.124495	0.501330
896.307041	0.501417
896.489570	0.501272
896.672080	0.500862
896.854573	0.501025
897.037046	0.501456
897.219502	0.500743
897.401940	0.500425
897.584359	0.500593
897.766760	0.499219
897.949143	0.498880
898.131507	0.498479
898.313854	0.498287
898.496182	0.497598
898.678492	0.496810
898.860783	0.497107
899.043057	0.496855
899.225312	0.496231
899.407549	0.496702
899.589768	0.496541
899.771968	0.497338
899.954151	0.497648
900.136315	0.497456
900.318461	0.497523
900.500588	0.496589
900.682698	0.496106
900.864789	0.496108
901.046862	0.496473
901.228917	0.495815
901.410953	0.494819
901.592971	0.494266
901.774972	0.493548
901.956953	0.492908
902.138917	0.493221
902.320862	0.492353
902.502790	0.492217
902.684699	0.491037
902.866589	0.490932
903.048462	0.490096
903.230316	0.489371
903.412152	0.489148
903.593970	0.488541
903.775770	0.487856
903.957551	0.487722
904.139314	0.487022
904.321059	0.487306
904.502786	0.485838
904.684494	0.485572
904.866185	0.485676
905.047857	0.485663
905.229510	0.485795
905.411146	0.485917
905.592763	0.486225
905.774363	0.485893
905.955943	0.485559
906.137506	0.486235
906.319051	0.485964
906.500577	0.484828
906.682085	0.484704
906.863575	0.484543
907.045046	0.483507
907.226500	0.482426
907.407935	0.481601
907.589352	0.480710
907.770750	0.480165
907.952131	0.479815
908.133493	0.479799
908.314837	0.479133
908.496163	0.478774
908.677470	0.478833
908.858760	0.478764
909.040031	0.478221
909.221284	0.477442
909.402518	0.476928
909.583735	0.476389
909.764933	0.475489
909.946113	0.474655
910.127275	0.473835
910.308418	0.473335
910.489544	0.473432
910.670651	0.472040
910.851740	0.471798
911.032810	0.470920
911.213863	0.470691
911.394897	0.470845
911.575913	0.470544
911.756911	0.469376
911.937890	0.468118
912.118851	0.467341
912.299794	0.467908
912.480719	0.467239
912.661626	0.466985
912.842514	0.465934
913.023384	0.465377
913.204236	0.464408
913.385070	0.464105
913.565886	0.463697
913.746683	0.463137
913.927462	0.462463
914.108223	0.461886
914.288965	0.461200
914.469690	0.460637
914.650396	0.459531
914.831084	0.459503
915.011754	0.458585
915.192405	0.457400
915.373038	0.456635
915.553653	0.455068
915.734250	0.454644
915.914829	0.453611
916.095389	0.452379
916.275931	0.451756
916.456455	0.450766
916.636961	0.450692
916.817448	0.450209
916.997917	0.449139
917.178368	0.448928
917.358801	0.448082
917.539216	0.447602
917.719612	0.447616
917.899990	0.446718
918.080350	0.446019
918.260692	0.444837
918.441015	0.444181
918.621320	0.443003
918.801607	0.442494
918.981876	0.441366
919.162127	0.440737
919.342359	0.439470
919.522573	0.438383
919.702769	0.437101
919.882947	0.435322
920.063106	0.434520
920.243247	0.433517
920.423370	0.432270
920.603475	0.431652
920.783562	0.430049
920.963630	0.428541
921.143680	0.428413
921.323712	0.427991
921.503725	0.428021
921.683721	0.427215
921.863698	0.426889
922.043657	0.426447
922.223598	0.425855
922.403520	0.426243
922.583424	0.426220
922.763311	0.424869
922.943178	0.423892
923.123028	0.422915
923.302859	0.422360
923.482673	0.421905
923.662467	0.420959
923.842244	0.419480
924.022003	0.417765
924.201743	0.416062
924.381465	0.415153
924.561169	0.414065
924.740854	0.412549
924.920522	0.411163
925.100171	0.409168
925.279802	0.407671
925.459414	0.406578
925.639009	0.405743
925.818585	0.405473
925.998143	0.404126
926.177683	0.402872
926.357205	0.402781
926.536708	0.401539
926.716193	0.401229
926.895660	0.400671
927.075109	0.400058
927.254539	0.398893
927.433951	0.398215
927.613345	0.397650
927.792721	0.396506
927.972079	0.394771
928.151418	0.394533
928.330739	0.393939
928.510042	0.393368
928.689327	0.392661
928.868593	0.391273
929.047841	0.389055
929.227071	0.387559
929.406283	0.387494
929.585476	0.386345
929.764652	0.384067
929.943809	0.382063
930.122948	0.380124
930.302068	0.378960
930.481171	0.377820
930.660255	0.376889
930.839321	0.375754
931.018369	0.374036
931.197398	0.372890
931.376409	0.372533
931.555402	0.370771
931.734377	0.370908
931.913334	0.368625
932.092272	0.367376
932.271192	0.367003
932.450094	0.366220
932.628978	0.364922
932.807844	0.363802
932.986691	0.362409
933.165520	0.362078
933.344331	0.360168
933.523123	0.359791
933.701898	0.358537
933.880654	0.356415
934.059392	0.354094
934.238111	0.353982
934.416813	0.353302
934.595496	0.351818
934.774161	0.350660
934.952808	0.349369
935.131437	0.348585
935.310047	0.348413
935.488639	0.347926
935.667213	0.347579
935.845769	0.346107
936.024306	0.344835
936.202825	0.343671
936.381326	0.342216
936.559809	0.341181
936.738274	0.339113
936.916720	0.337243
937.095148	0.335943
937.273558	0.335961
937.451950	0.333607
937.630323	0.331384
937.808678	0.329542
937.987015	0.327910
938.165334	0.326992
938.343635	0.325348
938.521917	0.325554
938.700181	0.324306
938.878427	0.321478
939.056655	0.320621
939.234864	0.320649
939.413055	0.320974
939.591228	0.320897
939.769383	0.318446
939.947519	0.317362
940.125638	0.315434
940.303738	0.314099
940.481820	0.312800
940.659883	0.310809
940.837929	0.309889
941.015956	0.307180
941.193965	0.305653
941.371955	0.304932
941.549928	0.303246
941.727882	0.300718
941.905818	0.299105
942.083736	0.297974
942.261636	0.297486
942.439517	0.295357
942.617380	0.295831
942.795225	0.293520
942.973052	0.291692
943.150860	0.291162
943.328651	0.289246
943.506423	0.288954
943.684176	0.287368
943.861912	0.286525
944.039629	0.285729
944.217328	0.283091
944.395009	0.282109
944.572672	0.282395
944.750317	0.282339
944.927943	0.280985
945.105551	0.278867
945.283141	0.278002
945.460712	0.275796
945.638265	0.274378
945.815801	0.272926
945.993317	0.270948
946.170816	0.267482
946.348297	0.263658
946.525759	0.261263
946.703203	0.258966
946.880629	0.257692
947.058036	0.257058
947.235425	0.255805
947.412797	0.255731
947.590149	0.254756
947.767484	0.253917
947.944800	0.254478
948.122099	0.256352
948.299379	0.256487
948.476640	0.255224
948.653884	0.252511
948.831109	0.249012
949.008316	0.246779
949.185505	0.246657
949.362676	0.244479
949.539828	0.243051
949.716962	0.240545
949.894078	0.238953
950.071176	0.237263
950.248256	0.237223
950.425317	0.238486
950.602360	0.237131
950.779385	0.233863
950.956391	0.231915
951.133380	0.229022
951.310350	0.227306
951.487302	0.224559
951.664235	0.221689
951.841151	0.218716
952.018048	0.217762
952.194927	0.216191
952.371788	0.217473
952.548631	0.219135
952.725455	0.217978
952.902261	0.216678
953.079049	0.217878
953.255819	0.219597
953.432570	0.220176
953.609303	0.217366
953.786018	0.214668
953.962715	0.210865
954.139394	0.208610
954.316054	0.208259
954.492696	0.208504
954.669320	0.205739
954.845926	0.202449
955.022513	0.200344
955.199083	0.198856
955.375634	0.197113
955.552166	0.196238
955.728681	0.193795
955.905177	0.191248
956.081655	0.187867
956.258115	0.185464
956.434557	0.184635
956.610980	0.184038
956.787385	0.182835
956.963772	0.184657
957.140141	0.181031
957.316492	0.179963
957.492824	0.178932
957.669138	0.178356
957.845434	0.179822
958.021712	0.179133
958.197971	0.177440
958.374212	0.177519
958.550435	0.174406
958.726640	0.176603
958.902826	0.176103
959.078995	0.176495
959.255145	0.176672
959.431277	0.176505
959.607390	0.175396
959.783486	0.174648
959.959563	0.173805
960.135622	0.173355
960.311662	0.173718
960.487685	0.175794
960.663689	0.175727
960.839675	0.174713
961.015643	0.173122
961.191593	0.172185
961.367524	0.170258
961.543437	0.169466
961.719332	0.169099
961.895209	0.167390
962.071067	0.164547
962.246907	0.161687
962.422730	0.160875
962.598533	0.159386
962.774319	0.160384
962.950086	0.161821
963.125835	0.161910
963.301566	0.163573
963.477279	0.162690
963.652973	0.162217
963.828650	0.164134
964.004308	0.162341
964.179947	0.162687
964.355569	0.162359
964.531172	0.161214
964.706757	0.157873
964.882324	0.157625
965.057873	0.159370
965.233403	0.157051
965.408916	0.158940
965.584410	0.160021
965.759885	0.160793
965.935343	0.158122
966.110782	0.158507
966.286203	0.162101
966.461606	0.159255
966.636991	0.157595
966.812357	0.159939
966.987705	0.156474
967.163035	0.156696
967.338347	0.155902
967.513641	0.157961
967.688916	0.156656
967.864173	0.155639
968.039412	0.156986
968.214632	0.154754
968.389835	0.153684
968.565019	0.154523
968.740185	0.154796
968.915333	0.155757
969.090462	0.155353
969.265573	0.155186
969.440667	0.153979
969.615741	0.153180
969.790798	0.153740
969.965836	0.153628
970.140856	0.153112
970.315858	0.154852
970.490842	0.152830
970.665808	0.150256
970.840755	0.148622
971.015684	0.150526
971.190595	0.151294
971.365487	0.154167
971.540362	0.155132
971.715218	0.152139
971.890056	0.149716
972.064875	0.150381
972.239677	0.150466
972.414460	0.151994
972.589225	0.149574
972.763972	0.149112
972.938700	0.146343
973.113411	0.143802
973.288103	0.145224
973.462777	0.142788
973.637432	0.143812
973.812070	0.143756
973.986689	0.143830
974.161290	0.145021
974.335873	0.144490
974.510437	0.144522
974.684984	0.144268
974.859512	0.145921
975.034022	0.146449
975.208513	0.143354
975.382987	0.142888
975.557442	0.142978
975.731879	0.139444
975.906298	0.139627
976.080698	0.139842
976.255080	0.142509
976.429445	0.142448
976.603790	0.145164
976.778118	0.144467
976.952427	0.148325
977.126719	0.148649
977.300992	0.149971
977.475246	0.151077
977.649483	0.153989
977.823701	0.154023
977.997901	0.152565
978.172083	0.150863
978.346247	0.151533
978.520392	0.148917
978.694519	0.148189
978.868628	0.147495
979.042719	0.146114
979.216791	0.146443
979.390845	0.145799
979.564882	0.144979
979.738899	0.143667
979.912899	0.144664
980.086880	0.143292
980.260843	0.143355
980.434788	0.146849
980.608715	0.145222
980.782623	0.142311
980.956514	0.142280
981.130386	0.143370
981.304240	0.145868
981.478075	0.145043
981.651892	0.145771
981.825692	0.147875
981.999472	0.145102
982.173235	0.145575
982.346980	0.146091
982.520706	0.146890
982.694414	0.147320
982.868104	0.149014
983.041775	0.150705
983.215428	0.152047
983.389064	0.150807
983.562680	0.150259
983.736279	0.149896
983.909860	0.149621
984.083422	0.150001
984.256966	0.151017
984.430491	0.148199
984.603999	0.146332
984.777488	0.146224
984.950959	0.149294
985.124412	0.150829
985.297847	0.152516
985.471263	0.154060
985.644661	0.151418
985.818041	0.149525
985.991403	0.151501
986.164747	0.151110
986.338072	0.150299
986.511379	0.147670
986.684668	0.147103
986.857938	0.147037
987.031191	0.145379
987.204425	0.147836
987.377641	0.148836
987.550839	0.146524
987.724018	0.148790
987.897179	0.147288
988.070322	0.146429
988.243447	0.147718
988.416554	0.146969
988.589642	0.146195
988.762712	0.145674
988.935764	0.144720
989.108798	0.145097
989.281813	0.143691
989.454811	0.147136
989.627790	0.146911
989.800751	0.144526
989.973693	0.145646
990.146617	0.146345
990.319524	0.143855
990.492412	0.143402
990.665281	0.142541
990.838133	0.143324
991.010966	0.142916
991.183781	0.143095
991.356578	0.143484
991.529356	0.141131
991.702117	0.139783
991.874859	0.139735
992.047583	0.139455
992.220288	0.140493
992.392976	0.139319
992.565645	0.140483
992.738296	0.141476
992.910929	0.141337
993.083543	0.144014
993.256139	0.146460
993.428718	0.146145
993.601277	0.148147
993.773819	0.147820
993.946342	0.148235
994.118848	0.146675
994.291335	0.146774
994.463803	0.149946
994.636254	0.147985
994.808686	0.145986
994.981100	0.148897
995.153496	0.147793
995.325874	0.148341
995.498233	0.147341
995.670574	0.147344
995.842897	0.146157
996.015202	0.146719
996.187488	0.148667
996.359757	0.150159
996.532007	0.148314
996.704239	0.148803
996.876452	0.147510
997.048648	0.148978
997.220825	0.151861
997.392984	0.150514
997.565124	0.147169
997.737247	0.145716
997.909351	0.145138
998.081437	0.145146
998.253505	0.145847
998.425554	0.146646
998.597586	0.147109
998.769599	0.145738
998.941594	0.147609
999.113571	0.148496
999.285529	0.149679
999.457469	0.153346
999.629391	0.153560
999.801295	0.152821
999.973181	0.152832
1000.145048	0.151050
1000.316897	0.149860
1000.488728	0.148900
1000.660541	0.148548
1000.832335	0.147111
1001.004111	0.144075
1001.175869	0.145632
1001.347609	0.145388
1001.519331	0.145570
1001.691034	0.146199
1001.862719	0.146130
1002.034386	0.146829
1002.206035	0.147946
1002.377665	0.148210
1002.549277	0.147848
1002.720871	0.147749
1002.892447	0.145372
1003.064004	0.145388
1003.235544	0.145370
1003.407065	0.142331
1003.578568	0.143641
1003.750052	0.142727
1003.921519	0.141909
1004.092967	0.141459
1004.264397	0.138852
1004.435809	0.143236
1004.607202	0.144217
1004.778577	0.144769
1004.949934	0.148894
1005.121273	0.146492
1005.292594	0.145538
1005.463896	0.147463
1005.635180	0.147888
1005.806446	0.148794
1005.977694	0.147681
1006.148923	0.146254
1006.320135	0.146426
1006.491328	0.144466
1006.662503	0.144559
1006.833659	0.143948
1007.004798	0.142870
1007.175918	0.143645
1007.347020	0.144638
1007.518103	0.145659
1007.689169	0.145571
1007.860216	0.144818
1008.031245	0.144632
1008.202256	0.144534
1008.373248	0.145831
1008.544223	0.146977
1008.715179	0.146564
1008.886117	0.147255
1009.057036	0.144686
1009.227938	0.144988
1009.398821	0.146774
1009.569686	0.145465
1009.740533	0.146075
1009.911361	0.147872
1010.082172	0.148689
1010.252964	0.147820
1010.423738	0.145413
1010.594493	0.145203
1010.765231	0.146839
1010.935950	0.146834
1011.106651	0.147509
1011.277334	0.148658
1011.447998	0.147812
1011.618645	0.146652
1011.789273	0.147849
1011.959882	0.148679
1012.130474	0.149472
1012.301048	0.150068
1012.471603	0.148395
1012.642140	0.148854
1012.812658	0.148215
1012.983159	0.147762
1013.153641	0.145823
1013.324105	0.146350
1013.494551	0.146142
1013.664979	0.145482
1013.835388	0.141448
1014.005779	0.141952
1014.176152	0.142149
1014.346507	0.142435
1014.516843	0.142945
1014.687162	0.145674
1014.857462	0.142599
1015.027744	0.143603
1015.198007	0.142695
1015.368252	0.145074
1015.538480	0.145408
1015.708689	0.146589
1015.878879	0.145468
1016.049052	0.144524
1016.219206	0.142881
1016.389342	0.145243
1016.559460	0.145122
1016.729559	0.148402
1016.899641	0.148165
1017.069704	0.146785
1017.239749	0.146280
1017.409775	0.146189
1017.579784	0.146754
1017.749774	0.147179
1017.919746	0.147304
1018.089700	0.146089
1018.259635	0.143693
1018.429553	0.144851
1018.599452	0.144803
1018.769333	0.145766
1018.939195	0.147722
1019.109040	0.147197
1019.278866	0.146909
1019.448674	0.147157
1019.618464	0.147815
1019.788235	0.146669
1019.957989	0.145454
1020.127724	0.146605
1020.297441	0.146297
1020.467139	0.144414
1020.636820	0.143666
1020.806482	0.144055
1020.976126	0.142011
1021.145752	0.144115
1021.315359	0.145666
1021.484948	0.143759
1021.654519	0.144295
1021.824072	0.142281
1021.993607	0.143082
1022.163123	0.142524
1022.332621	0.143407
1022.502101	0.144209
1022.671563	0.142571
1022.841007	0.141388
1023.010432	0.142503
1023.179839	0.142593
1023.349228	0.143138
1023.518598	0.143861
1023.687951	0.145138
1023.857285	0.141890
1024.026601	0.140096
1024.195899	0.139884
1024.365178	0.141026
1024.534439	0.143169
1024.703682	0.141377
1024.872907	0.140578
1025.042114	0.138168
1025.211302	0.137290
1025.380472	0.141059
1025.549624	0.143090
1025.718758	0.142257
1025.887873	0.142349
1026.056970	0.138601
1026.226049	0.138499
1026.395110	0.138849
1026.564153	0.140862
1026.733177	0.141961
1026.902183	0.139712
1027.071171	0.140019
1027.240141	0.139693
1027.409092	0.138828
1027.578026	0.141342
1027.746940	0.144124
1027.915837	0.144372
1028.084716	0.143386
1028.253576	0.142581
1028.422418	0.142924
1028.591242	0.143761
1028.760048	0.145174
1028.928835	0.147177
1029.097604	0.146039
1029.266355	0.144346
1029.435088	0.145082
1029.603803	0.145450
1029.772499	0.144458
1029.941177	0.145001
1030.109837	0.141529
1030.278478	0.141995
1030.447102	0.141358
1030.615707	0.140857
1030.784294	0.140186
1030.952863	0.141471
1031.121413	0.142096
1031.289945	0.143333
1031.458460	0.141842
1031.626955	0.143543
1031.795433	0.140986
1031.963892	0.141236
1032.132334	0.139104
1032.300756	0.138637
1032.469161	0.137269
1032.637548	0.135782
1032.805916	0.137502
1032.974266	0.139727
1033.142598	0.141641
1033.310911	0.142458
1033.479207	0.142265
1033.647484	0.143417
1033.815743	0.144413
1033.983983	0.142578
1034.152206	0.144471
1034.320410	0.142757
1034.488596	0.140607
1034.656764	0.140108
1034.824914	0.140307
1034.993045	0.140427
1035.161158	0.142045
1035.329253	0.141546
1035.497330	0.141610
1035.665388	0.140831
1035.833428	0.142009
1036.001450	0.142008
1036.169454	0.139961
1036.337440	0.139708
1036.505407	0.137530
1036.673356	0.136456
1036.841287	0.136755
1037.009200	0.138677
1037.177094	0.138206
1037.344970	0.137128
1037.512828	0.137162
1037.680668	0.138994
1037.848489	0.140035
1038.016293	0.142937
1038.184078	0.145052
1038.351845	0.142869
1038.519593	0.144001
1038.687324	0.144042
1038.855036	0.146835
1039.022730	0.147765
1039.190406	0.149015
1039.358063	0.149540
1039.525702	0.147040
1039.693323	0.146932
1039.860926	0.149515
1040.028511	0.148739
1040.196077	0.150076
1040.363625	0.146082
1040.531155	0.145807
1040.698667	0.144396
1040.866161	0.144026
1041.033636	0.146935
1041.201093	0.146533
1041.368532	0.146283
1041.535952	0.145338
1041.703355	0.145076
1041.870739	0.145265
1042.038105	0.144382
1042.205452	0.142308
1042.372782	0.141946
1042.540093	0.140234
1042.707386	0.140110
1042.874661	0.139397
1043.041918	0.138654
1043.209156	0.139356
1043.376376	0.139004
1043.543578	0.140490
1043.710762	0.141895
1043.877927	0.141060
1044.045074	0.141066
1044.212203	0.141489
1044.379314	0.142283
1044.546407	0.143589
1044.713481	0.142022
1044.880537	0.143501
1045.047575	0.144094
1045.214595	0.143505
1045.381596	0.143956
1045.548579	0.143096
1045.715544	0.142105
1045.882491	0.140252
1046.049420	0.142669
1046.216330	0.141027
1046.383222	0.140071
1046.550096	0.138232
1046.716951	0.138690
1046.883789	0.139558
1047.050608	0.139268
1047.217409	0.138966
1047.384192	0.142017
1047.550956	0.139083
1047.717703	0.140241
1047.884431	0.139858
1048.051140	0.142915
1048.217832	0.142151
1048.384505	0.142118
1048.551161	0.144083
1048.717798	0.143625
1048.884416	0.142060
1049.051017	0.142231
1049.217599	0.143393
1049.384163	0.144780
1049.550709	0.143645
1049.717237	0.143776
1049.883746	0.141694
1050.050237	0.139905
1050.216710	0.142203
1050.383165	0.142611
1050.549601	0.139937
1050.716019	0.138664
1050.882420	0.137595
1051.048801	0.137435
1051.215165	0.137077
1051.381510	0.139050
1051.547837	0.139197
1051.714146	0.140428
1051.880437	0.140317
1052.046709	0.141179
1052.212964	0.141000
1052.379200	0.142381
1052.545417	0.139937
1052.711617	0.142060
1052.877798	0.141985
1053.043961	0.143133
1053.210106	0.141466
1053.376233	0.140924
1053.542341	0.142653
1053.708432	0.142396
1053.874504	0.141590
1054.040557	0.141090
1054.206593	0.140800
1054.372610	0.141234
1054.538609	0.142028
1054.704590	0.142253
1054.870553	0.140965
1055.036497	0.139996
1055.202424	0.141201
1055.368331	0.141498
1055.534221	0.142665
1055.700093	0.139801
1055.865946	0.141674
1056.031781	0.139205
1056.197598	0.138613
1056.363397	0.140585
1056.529177	0.142425
1056.694939	0.143519
1056.860683	0.143059
1057.026409	0.144279
1057.192116	0.146305
1057.357806	0.144316
1057.523477	0.147115
1057.689130	0.148654
1057.854764	0.147443
1058.020381	0.147208
1058.185979	0.145302
1058.351559	0.145095
1058.517120	0.145721
1058.682664	0.144240
1058.848189	0.143125
1059.013696	0.142273
1059.179185	0.141474
1059.344656	0.144490
1059.510108	0.144522
1059.675542	0.146372
1059.840958	0.145880
1060.006356	0.145431
1060.171735	0.146987
1060.337096	0.146414
1060.502439	0.145878
1060.667764	0.146965
1060.833071	0.145134
1060.998359	0.145199
1061.163629	0.144335
1061.328881	0.145893
1061.494115	0.144134
1061.659330	0.143470
1061.824527	0.142826
1061.989706	0.142111
1062.154867	0.141208
1062.320010	0.140897
1062.485134	0.140189
1062.650240	0.140086
1062.815328	0.141408
1062.980398	0.143682
1063.145449	0.144215
1063.310482	0.147746
1063.475497	0.148679
1063.640494	0.147665
1063.805473	0.148245
1063.970433	0.146847
1064.135375	0.146964
1064.300299	0.145753
1064.465204	0.145475
1064.630092	0.146167
1064.794961	0.143747
1064.959812	0.143972
1065.124645	0.143697
1065.289459	0.145900
1065.454256	0.148352
1065.619034	0.148958
1065.783793	0.149787
1065.948535	0.147848
1066.113258	0.146823
1066.277964	0.147548
1066.442651	0.146753
1066.607319	0.148867
1066.771970	0.145435
1066.936602	0.146913
1067.101216	0.146977
1067.265812	0.147186
1067.430389	0.148610
1067.594949	0.148560
1067.759490	0.149533
1067.924013	0.150642
1068.088518	0.149441
1068.253004	0.150625
1068.417472	0.147456
1068.581922	0.146085
1068.746354	0.145576
1068.910768	0.147119
1069.075163	0.144990
1069.239540	0.147372
1069.403899	0.148731
1069.568240	0.148310
1069.732562	0.147776
1069.896866	0.151087
1070.061152	0.151067
1070.225420	0.150510
1070.389670	0.150418
1070.553901	0.153610
1070.718114	0.152315
1070.882309	0.151861
1071.046486	0.154849
1071.210644	0.156376
1071.374784	0.154606
1071.538906	0.157312
1071.703010	0.157124
1071.867096	0.157815
1072.031163	0.157439
1072.195212	0.157958
1072.359243	0.157459
1072.523256	0.154329
1072.687250	0.154612
1072.851226	0.155194
1073.015184	0.155246
1073.179124	0.155438
1073.343045	0.154353
1073.506949	0.154743
1073.670834	0.157231
1073.834701	0.158736
1073.998549	0.159575
1074.162380	0.158142
1074.326192	0.159306
1074.489986	0.158566
1074.653761	0.159695
1074.817519	0.158590
1074.981258	0.158749
1075.144979	0.154673
1075.308682	0.151802
1075.472367	0.152323
1075.636033	0.153122
1075.799681	0.152996
1075.963311	0.153448
1076.126923	0.151728
1076.290516	0.153062
1076.454092	0.155184
1076.617649	0.154200
1076.781187	0.157066
1076.944708	0.156180
1077.108210	0.155135
1077.271695	0.154308
1077.435160	0.153362
1077.598608	0.154256
1077.762038	0.154119
1077.925449	0.151708
1078.088842	0.154859
1078.252217	0.151225
1078.415573	0.152819
1078.578912	0.155154
1078.742232	0.154746
1078.905534	0.153856
1079.068817	0.152074
1079.232083	0.152922
1079.395330	0.151711
1079.558559	0.149554
1079.721770	0.151097
1079.884962	0.148925
1080.048136	0.147874
1080.211293	0.145935
1080.374430	0.145740
1080.537550	0.148413
1080.700651	0.146942
1080.863735	0.150725
1081.026800	0.153293
1081.189846	0.154079
1081.352875	0.156083
1081.515885	0.158106
1081.678877	0.158417
1081.841851	0.162205
1082.004807	0.162899
1082.167744	0.162582
1082.330663	0.161949
1082.493564	0.161554
1082.656447	0.162531
1082.819312	0.162202
1082.982158	0.160695
1083.144986	0.164421
1083.307796	0.163058
1083.470587	0.165562
1083.633361	0.168958
1083.796116	0.170592
1083.958853	0.170759
1084.121571	0.170693
1084.284272	0.172048
1084.446954	0.170551
1084.609618	0.169527
1084.772264	0.168059
1084.934892	0.166914
1085.097501	0.165239
1085.260092	0.163366
1085.422665	0.158884
1085.585220	0.159842
1085.747756	0.158850
1085.910274	0.159075
1086.072774	0.157946
1086.235256	0.158533
1086.397720	0.158710
1086.560165	0.158747
1086.722592	0.157667
1086.885001	0.158932
1087.047392	0.159641
1087.209764	0.160572
1087.372119	0.164927
1087.534455	0.165295
1087.696772	0.165530
1087.859072	0.164772
1088.021353	0.164519
1088.183616	0.163479
1088.345861	0.164694
1088.508088	0.164135
1088.670296	0.162941
1088.832486	0.160603
1088.994658	0.161689
1089.156812	0.162097
1089.318948	0.162796
1089.481065	0.164010
1089.643164	0.166527
1089.805245	0.168623
1089.967308	0.167945
1090.129352	0.170636
1090.291378	0.169772
1090.453386	0.170885
1090.615376	0.170851
1090.777347	0.169455
1090.939301	0.167834
1091.101236	0.166130
1091.263153	0.163469
1091.425051	0.163203
1091.586932	0.159886
1091.748794	0.159774
1091.910638	0.159417
1092.072463	0.159715
1092.234271	0.158234
1092.396060	0.158772
1092.557831	0.161315
1092.719584	0.164063
1092.881319	0.164439
1093.043035	0.166715
1093.204733	0.170738
1093.366413	0.168216
1093.528075	0.166495
1093.689718	0.168193
1093.851343	0.171838
1094.012950	0.172909
1094.174539	0.173744
1094.336110	0.173376
1094.497662	0.173874
1094.659196	0.168452
1094.820712	0.169160
1094.982210	0.171342
1095.143689	0.172778
1095.305151	0.167946
1095.466594	0.164738
1095.628018	0.164227
1095.789425	0.167878
1095.950813	0.168325
1096.112183	0.174575
1096.273535	0.175807
1096.434869	0.174365
1096.596184	0.173179
1096.757482	0.178404
1096.918761	0.180541
1097.080021	0.180047
1097.241264	0.173811
1097.402488	0.173507
1097.563694	0.172947
1097.724882	0.173093
1097.886052	0.175125
1098.047203	0.177176
1098.208336	0.176548
1098.369451	0.178816
1098.530548	0.181442
1098.691627	0.183000
1098.852687	0.180760
1099.013729	0.179300
1099.174753	0.179319
1099.335758	0.179288
1099.496746	0.183263
1099.657715	0.184798
1099.818666	0.178361
1099.979599	0.174150
1100.140513	0.179300
1100.301409	0.182178
1100.462287	0.184512
1100.623147	0.184631
1100.783989	0.183899
1100.944812	0.179996
1101.105617	0.177271
1101.266404	0.179736
1101.427173	0.180651
1101.587923	0.177693
1101.748656	0.178057
1101.909370	0.178839
1102.070066	0.178610
1102.230743	0.182586
1102.391403	0.184551
1102.552044	0.182774
1102.712667	0.186533
1102.873271	0.183924
1103.033858	0.182096
1103.194426	0.184293
1103.354976	0.181218
1103.515508	0.183373
1103.676021	0.177662
1103.836517	0.173414
1103.996994	0.174800
1104.157453	0.172049
1104.317893	0.177265
1104.478316	0.176484
1104.638720	0.174945
1104.799106	0.173898
1104.959474	0.174143
1105.119823	0.176288
1105.280155	0.177344
1105.440468	0.177827
1105.600763	0.176305
1105.761039	0.173243
1105.921298	0.174106
1106.081538	0.172447
1106.241760	0.171971
1106.401964	0.172705
1106.562149	0.171221
1106.722316	0.170336
1106.882465	0.169650
1107.042596	0.174082
1107.202709	0.172980
1107.362803	0.174085
1107.522879	0.173437
1107.682937	0.174915
1107.842977	0.177782
1108.002999	0.177942
1108.163002	0.178428
1108.322987	0.179111
1108.482954	0.176525
1108.642902	0.179774
1108.802833	0.180949
1108.962745	0.182730
1109.122639	0.184260
1109.282515	0.179929
1109.442372	0.179330
1109.602211	0.180341
1109.762032	0.179303
1109.921835	0.179192
1110.081620	0.179428
1110.241386	0.182563
1110.401134	0.181610
1110.560864	0.180413
1110.720576	0.183995
1110.880269	0.185565
1111.039945	0.182173
1111.199602	0.181383
1111.359240	0.183105
1111.518861	0.187312
1111.678463	0.185297
1111.838047	0.187893
1111.997613	0.186539
1112.157161	0.186894
1112.316690	0.189882
1112.476202	0.189867
1112.635695	0.191675
1112.795169	0.193632
1112.954626	0.186851
1113.114064	0.192175
1113.273484	0.187017
1113.432886	0.187457
1113.592270	0.186132
1113.751635	0.183385
1113.910983	0.185391
1114.070312	0.185006
1114.229622	0.180830
1114.388915	0.185491
1114.548189	0.176390
1114.707445	0.181095
1114.866683	0.181856
1115.025903	0.180618
1115.185104	0.187318
1115.344287	0.192002
1115.503452	0.194660
1115.662599	0.199703
1115.821727	0.195518
1115.980838	0.200796
1116.139930	0.199397
1116.299004	0.197145
1116.458059	0.201475
1116.617097	0.193632
1116.776116	0.192066
1116.935117	0.191813
1117.094099	0.188542
1117.253064	0.191468
1117.412010	0.187585
1117.570938	0.187359
1117.729848	0.192213
1117.888740	0.187585
1118.047613	0.188790
1118.206468	0.193185
1118.365305	0.199052
1118.524124	0.201460
1118.682924	0.204450
1118.841707	0.211983
1119.000471	0.209475
1119.159216	0.205046
1119.317944	0.204893
1119.476653	0.211370
1119.635344	0.210907
1119.794017	0.204138
1119.952672	0.202377
1120.111308	0.203464
1120.269927	0.197723
1120.428527	0.203488
1120.587108	0.203815
1120.745672	0.206032
1120.904217	0.203294
1121.062744	0.203525
1121.221253	0.204892
1121.379744	0.207570
1121.538216	0.207894
1121.696671	0.209396
1121.855107	0.208665
1122.013524	0.206892
1122.171924	0.209634
1122.330305	0.207425
1122.488668	0.205216
1122.647013	0.202926
1122.805340	0.202369
1122.963648	0.194931
1123.121938	0.200542
1123.280210	0.198952
1123.438464	0.200225
1123.596700	0.200971
1123.754917	0.203379
1123.913116	0.204247
1124.071297	0.203484
1124.229459	0.206157
1124.387604	0.208937
1124.545730	0.205343
1124.703838	0.209126
1124.861928	0.213797
1125.019999	0.207346
1125.178052	0.210643
1125.336088	0.211493
1125.494104	0.213687
1125.652103	0.213807
1125.810083	0.215169
1125.968045	0.212805
1126.125989	0.209982
1126.283915	0.210468
1126.441823	0.212601
1126.599712	0.202156
1126.757583	0.197514
1126.915436	0.200617
1127.073270	0.198063
1127.231087	0.199942
1127.388885	0.198987
1127.546665	0.201984
1127.704426	0.198545
1127.862170	0.199951
1128.019895	0.206754
1128.177602	0.211796
1128.335291	0.211597
1128.492961	0.211422
1128.650614	0.211171
1128.808248	0.215135
1128.965864	0.215693
1129.123461	0.218752
1129.281041	0.213328
1129.438602	0.211772
1129.596145	0.203778
1129.753670	0.201027
1129.911176	0.200473
1130.068665	0.194141
1130.226135	0.192134
1130.383587	0.189356
1130.541020	0.189642
1130.698436	0.193529
1130.855833	0.194792
1131.013212	0.201624
1131.170573	0.200882
1131.327915	0.202447
1131.485239	0.211791
1131.642545	0.207806
1131.799833	0.205171
1131.957103	0.203086
1132.114354	0.201420
1132.271588	0.202525
1132.428803	0.202883
1132.585999	0.203866
1132.743178	0.212519
1132.900338	0.199600
1133.057480	0.210511
1133.214604	0.217838
1133.371710	0.227628
1133.528797	0.230529
1133.685866	0.229875
1133.842917	0.232880
1133.999950	0.234619
1134.156964	0.229300
1134.313960	0.233569
1134.470938	0.226595
1134.627898	0.223072
1134.784840	0.216581
1134.941763	0.219610
1135.098668	0.220855
1135.255555	0.218741
1135.412424	0.215372
1135.569274	0.208329
1135.726107	0.208705
1135.882921	0.211086
1136.039716	0.211051
1136.196494	0.210150
1136.353253	0.206566
1136.509995	0.208571
1136.666717	0.200925
1136.823422	0.208309
1136.980109	0.212069
1137.136777	0.214153
1137.293427	0.205845
1137.450059	0.201416
1137.606672	0.207940
1137.763267	0.203515
1137.919844	0.196666
1138.076403	0.198699
1138.232944	0.197840
1138.389466	0.198876
1138.545971	0.196450
1138.702457	0.204896
1138.858924	0.203816
1139.015374	0.196442
1139.171805	0.198072
1139.328218	0.200434
1139.484613	0.193681
1139.640990	0.183797
1139.797348	0.184804
1139.953688	0.191196
1140.110010	0.189957
1140.266314	0.194463
1140.422600	0.200846
1140.578867	0.200923
1140.735116	0.201755
1140.891347	0.213585
1141.047559	0.227450
1141.203754	0.228026
1141.359930	0.230006
1141.516088	0.227784
1141.672228	0.229460
1141.828349	0.217708
1141.984452	0.224618
1142.140537	0.222536
1142.296604	0.219197
1142.452653	0.212192
1142.608683	0.212811
1142.764695	0.213483
1142.920689	0.210725
1143.076665	0.207971
1143.232622	0.218076
1143.388562	0.208723
1143.544483	0.206028
1143.700385	0.205872
1143.856270	0.200627
1144.012136	0.202035
1144.167985	0.198807
1144.323814	0.202932
1144.479626	0.192719
1144.635420	0.186732
1144.791195	0.190914
1144.946952	0.192165
1145.102691	0.196839
1145.258411	0.203456
1145.414113	0.189019
1145.569798	0.192687
1145.725463	0.190118
1145.881111	0.206152
1146.036741	0.214471
1146.192352	0.216965
1146.347945	0.219066
1146.503519	0.221353
1146.659076	0.214663
1146.814614	0.220886
1146.970134	0.220295
1147.125636	0.222576
1147.281120	0.221901
1147.436585	0.216235
1147.592032	0.212516
1147.747461	0.208846
1147.902872	0.206835
1148.058265	0.213093
1148.213639	0.219922
1148.368995	0.220346
1148.524333	0.217200
1148.679653	0.212943
1148.834954	0.214821
1148.990237	0.216664
1149.145502	0.233473
1149.300749	0.228590
1149.455977	0.227408
1149.611188	0.215136
1149.766380	0.209498
1149.921553	0.217996
1150.076709	0.215159
1150.231846	0.217368
1150.386966	0.222121
1150.542066	0.222525
1150.697149	0.226600
1150.852214	0.233259
1151.007260	0.243114
1151.162288	0.241537
1151.317298	0.231789
1151.472289	0.229426
1151.627263	0.216611
1151.782218	0.214699
1151.937155	0.199361
1152.092073	0.208108
1152.246974	0.201137
1152.401856	0.194151
1152.556720	0.193557
1152.711566	0.196205
1152.866393	0.197662
1153.021203	0.208095
1153.175994	0.213729
1153.330767	0.223112
1153.485521	0.224752
1153.640258	0.229427
1153.794976	0.239500
1153.949676	0.246213
1154.104358	0.239352
1154.259021	0.250575
1154.413667	0.247926
1154.568294	0.244935
1154.722903	0.243225
1154.877493	0.222483
1155.032066	0.211284
1155.186620	0.213374
1155.341156	0.209216
1155.495674	0.211942
1155.650173	0.209248
1155.804654	0.204463
1155.959118	0.200580
1156.113562	0.204150
1156.267989	0.214435
1156.422397	0.221318
1156.576788	0.229248
1156.731160	0.240564
1156.885513	0.244107
1157.039849	0.232364
1157.194166	0.238962
1157.348465	0.243434
1157.502746	0.238129
1157.657009	0.227571
1157.811253	0.231680
1157.965479	0.218261
1158.119687	0.203494
1158.273877	0.205938
1158.428048	0.201510
1158.582201	0.191970
1158.736337	0.179286
1158.890453	0.170677
1159.044552	0.183072
1159.198632	0.170912
1159.352694	0.172951
1159.506738	0.174098
1159.660764	0.171633
1159.814771	0.179162
1159.968761	0.189539
1160.122732	0.189442
1160.276685	0.209501
1160.430619	0.199445
1160.584535	0.212223
1160.738434	0.210686
1160.892313	0.226351
1161.046175	0.236514
1161.200019	0.237420
1161.353844	0.238343
1161.507651	0.247098
1161.661440	0.235534
1161.815210	0.249277
1161.968962	0.249949
1162.122697	0.255350
1162.276412	0.258449
1162.430110	0.251048
1162.583789	0.247841
1162.737451	0.248611
1162.891094	0.241171
1163.044718	0.251073
1163.198325	0.259990
1163.351913	0.257248
1163.505483	0.249260
1163.659035	0.237716
1163.812569	0.229520
1163.966084	0.236619
1164.119581	0.233176
1164.273060	0.237914
1164.426521	0.229080
1164.579964	0.206422
1164.733388	0.193979
1164.886794	0.208434
1165.040182	0.197230
1165.193551	0.198518
1165.346903	0.195598
1165.500236	0.188284
1165.653551	0.193962
1165.806848	0.176457
1165.960126	0.170131
1166.113386	0.188488
1166.266628	0.176249
1166.419852	0.198339
1166.573058	0.216639
1166.726245	0.228813
1166.879414	0.237198
1167.032565	0.247382
1167.185698	0.258694
1167.338812	0.279651
1167.491909	0.271226
1167.644987	0.277059
1167.798046	0.269772
1167.951088	0.248666
1168.104111	0.240714
1168.257117	0.227411
1168.410103	0.210292
1168.563072	0.210450
1168.716023	0.204751
1168.868955	0.202239
1169.021869	0.206973
1169.174765	0.209034
1169.327642	0.212797
1169.480501	0.216739
1169.633343	0.233427
1169.786165	0.216358
1169.938970	0.219580
1170.091757	0.218939
1170.244525	0.216373
1170.397275	0.219710
1170.550007	0.202142
1170.702720	0.209113
1170.855415	0.200464
1171.008092	0.191996
1171.160751	0.210089
1171.313392	0.209233
1171.466014	0.190317
1171.618619	0.187793
1171.771205	0.187793
1171.923772	0.187793
