sample name	sample
index	154
start time	 02-15-2021  02:44:31 PM
880	0.437701
Peak Time (s)	91.038
Peak Height 	0.4377
calc peak height	90,93
Baseline Time (s)	9.536
Baseline Value 	-0.004175
subtract baseline	10,4
Abs	0.305928
Peak Time (s)	91.535
Peak Height 	0.3059
calc peak height	90,93
Baseline Time (s)	9.035
Baseline Value 	0.01227
subtract baseline	10,3
PK_550	0.156837
Peak Time (s)	90.035
Peak Height 	0.1568
calc peak height	90,93
Baseline Time (s)	9.536
Baseline Value 	0.001223
subtract baseline	10,2
PK_880	0.301030
Peak Time (s)	92.035
Peak Height 	0.301
calc peak height	90,93
Baseline Time (s)	8.535
Baseline Value 	0.002293
subtract baseline	10,1


Time (s)	A880-A510	A880-A775	A880-A975	A880	I510	I775	I975	I880	
0.035500	-0.001500	-0.002316	0.005252	0.000797	4046.501330	13697.046129	3233.231890	8046.581599
0.535500	-0.000829	-0.001107	0.000088	0.003427	4041.974429	13662.388775	3228.945196	8016.255060
1.036000	-0.003717	-0.000620	-0.017095	0.003809	4034.465777	13664.972577	3219.563089	8011.873488
1.540500	-0.005959	-0.004040	-0.019323	0.004594	4027.563169	13563.048474	3217.991093	8002.858684
2.036500	0.003055	-0.000856	0.002125	0.000743	4057.230771	13734.098299	3231.532460	8047.203066
2.540000	-0.001053	-0.001576	-0.008148	0.000956	4047.170666	13711.260727	3225.824271	8044.747162
3.037000	0.003160	-0.001233	-0.009701	-0.002241	4064.488428	13798.215593	3226.710005	8081.846563
3.534500	0.000563	-0.001839	-0.006794	0.000733	4051.439754	13710.294564	3226.673719	8047.326306
4.035000	0.001385	-0.002757	-0.000773	-0.001872	4059.447085	13751.646356	3231.377244	8077.553396
4.535500	0.003057	-0.001492	-0.003862	0.000729	4057.269309	13718.861471	3228.263824	8047.365801
5.035500	0.002096	-0.001501	0.000888	-0.000326	4057.489572	13744.508671	3231.439902	8059.583980
5.535500	-0.001470	0.000019	0.005086	0.000974	4046.162536	13749.909277	3233.041729	8044.535485
6.036000	-0.000412	0.000163	0.007595	0.001749	4046.818335	13734.422783	3234.004925	8035.586075
6.536500	0.002174	0.000451	-0.023287	0.001135	4054.258902	13756.560704	3217.728807	8042.678365
7.036500	-0.003341	-0.000666	-0.003155	-0.000141	4044.414910	13760.478750	3229.123186	8057.449339
7.537000	0.004436	-0.000253	-0.000730	0.001072	4059.698179	13740.832674	3229.784952	8043.407881
8.034500	-0.000888	-0.001876	-0.015083	-0.001860	4054.101684	13772.997761	3223.619497	8077.412107
8.535000	0.000000	-0.001774	-0.000143	-0.001349	4054.981451	13762.934670	3231.435615	8071.465378
9.035000	-0.003365	0.000175	0.000000	0.000568	4042.720348	13763.725233	3230.460696	8049.232996
9.535500	-0.004460	0.000000	-0.007162	0.000000	4041.506778	13773.379904	3226.871160	8055.810395
10.035500	0.001277	0.000377	0.000739	-0.000457	4055.881673	13793.920256	3231.430055	8061.107535
10.535500	0.005262	-0.000192	0.000799	0.001905	4059.681578	13721.920508	3230.165876	8033.785297
11.039500	-0.000047	0.000669	-0.005297	0.000417	4050.756139	13779.584148	3227.654645	8050.976950
11.536500	0.003686	-0.000021	0.003244	-0.000085	4060.652849	13774.961856	3232.607907	8056.794091
12.036500	0.003281	0.000948	-0.002094	0.000510	4058.307035	13784.165260	3229.346105	8049.901686
12.536500	0.004276	-0.001134	-0.004662	-0.001050	4064.311644	13771.322608	3228.797261	8067.996419
13.034500	0.000606	-0.000463	0.005788	-0.000764	4055.030365	13780.776320	3234.398398	8064.667574
13.537000	0.005868	-0.000801	0.004703	-0.001030	4068.022713	13779.007637	3233.942267	8067.759775
14.035000	0.002855	-0.002888	-0.022552	-0.000546	4059.784348	13715.912591	3218.986600	8062.142129
14.535500	-0.001300	-0.000419	0.001379	0.000881	4046.771298	13741.443261	3231.046274	8045.611017
15.035500	0.000439	-0.001430	0.000639	-0.002069	4057.690417	13789.099182	3232.264028	8079.835643
15.542500	0.000226	-0.000496	-0.006314	-0.000857	4054.360782	13782.258020	3227.793715	8065.750750
16.036000	0.001080	-0.001338	-0.025412	-0.002213	4059.532167	13794.939355	3218.364649	8081.519496
16.537000	-0.000752	-0.000766	-0.010085	-0.000638	4051.570143	13770.221789	3225.639515	8063.209358
17.037000	0.004397	0.001364	-0.026912	-0.003512	4070.416207	13894.013913	3218.259766	8096.668762
17.537000	0.003947	0.001268	-0.012738	0.000679	4059.472728	13787.882310	3223.515594	8047.951409
18.038000	-0.005377	-0.002892	-0.020061	-0.002072	4044.170783	13753.230852	3221.093927	8079.878268
18.535000	-0.000758	-0.000320	-0.000526	0.000234	4049.531205	13759.763223	3230.355434	8053.104282
19.035000	0.002870	-0.000084	-0.001356	-0.000256	4059.138036	13777.596286	3230.169026	8058.774239
19.535500	0.002976	-0.001159	-0.008428	-0.000700	4060.429375	13762.095857	3226.565220	8063.927624
20.036000	-0.000554	-0.001837	-0.002504	-0.001215	4053.376318	13758.090964	3230.065571	8069.912044
20.539000	-0.001878	0.001869	0.009543	0.001305	4044.453103	13787.282104	3235.340938	8040.716838
21.037000	0.001494	0.000107	-0.011018	-0.000167	4055.708793	13780.107815	3224.885931	8057.740279
21.536500	-0.001517	-0.001618	-0.012102	-0.001765	4052.413447	13777.003570	3225.162126	8076.305621
22.037000	-0.001281	-0.000344	-0.010127	-0.000729	4050.550353	13782.858171	3225.665887	8064.260495
22.537500	0.003272	-0.000776	-0.013209	-0.001512	4063.034534	13791.484661	3224.433260	8073.356846
23.035000	0.000269	-0.001891	-0.000789	-0.001925	4056.955516	13774.199838	3231.396850	8078.161145
23.535000	0.001111	0.000235	-0.004707	0.000160	4054.052374	13775.232432	3228.114081	8053.958872
24.035500	-0.000046	-0.000583	-0.032068	-0.001532	4055.299295	13796.750391	3214.576019	8073.587296
24.536000	0.002114	-0.001932	-0.019666	-0.000691	4058.387472	13742.899382	3220.574760	8063.826853
25.038500	0.003634	-0.000785	-0.009556	-0.001041	4062.779093	13779.681671	3226.141176	8067.889844
25.536500	0.001878	-0.001309	0.001458	-0.001732	4060.275912	13783.791576	3232.531048	8075.919386
26.036500	0.002909	0.001450	-0.007171	0.001017	4056.250013	13784.033533	3226.317135	8044.041651
26.536500	0.004387	-0.001045	-0.022143	-0.000620	4063.558659	13762.913576	3219.238902	8062.993679
27.037500	0.005717	-0.000846	0.008324	-0.004216	4075.225526	13856.606735	3237.760126	8104.893675
27.537500	0.000566	-0.001878	-0.000435	-0.003432	4061.188239	13811.704063	3232.424288	8095.738850
28.035000	-0.001766	-0.001081	-0.023237	-0.002182	4052.806145	13800.496920	3219.483974	8081.157205
28.535500	0.010236	0.002530	-0.003318	-0.000066	4076.107863	13837.444171	3228.993137	8056.577663
29.036000	0.007455	-0.000263	-0.012845	-0.002125	4074.385731	13819.270896	3224.956559	8080.488362
29.535500	0.005673	0.000565	-0.014869	-0.001048	4067.603136	13813.140499	3223.300715	8067.963028
30.036000	0.004098	-0.001969	0.001524	-0.003155	4068.862953	13802.600305	3233.356534	8092.502144
30.537000	-0.000503	-0.002076	-0.016237	-0.001802	4054.864254	13766.648643	3222.974411	8076.732435
31.036500	-0.001508	-0.000302	-0.007086	-0.001616	4052.086264	13805.741905	3227.786726	8074.567624
31.537000	0.007251	0.001562	0.000605	0.000862	4066.818234	13790.618236	3230.631095	8045.828048
32.037500	0.001978	0.001767	0.007805	-0.000835	4058.405506	13837.589704	3235.565577	8065.493499
32.537000	-0.000330	-0.000373	-0.005008	-0.000352	4051.885665	13772.848327	3228.228879	8059.888577
33.035000	0.001356	-0.001646	0.000946	-0.002367	4060.539309	13791.114144	3232.599042	8083.306977
33.535500	0.004701	0.000086	-0.023473	-0.002361	4068.410223	13833.742246	3219.453627	8083.240530
34.035500	0.001699	-0.000320	0.001065	0.000075	4055.623909	13763.666474	3231.317133	8054.945066
34.539000	0.001653	-0.000774	-0.004791	-0.000567	4057.016288	13768.274118	3228.463520	8062.381599
35.036500	0.004426	0.000020	-0.014983	-0.000137	4062.514066	13777.254664	3222.756002	8057.399014
35.536500	0.001201	-0.000180	-0.005587	0.000121	4054.353865	13765.973784	3227.657727	8054.410714
36.037000	0.005086	0.000897	-0.016701	0.001223	4060.868863	13765.355140	3221.127735	8041.658061
36.534500	-0.001790	0.001634	-0.006642	0.000957	4045.460936	13790.050550	3226.634643	8044.730046
37.037500	0.006962	0.000550	-0.015894	0.000257	4067.566525	13780.585834	3222.064628	8052.834368
37.537500	0.000035	-0.000762	0.005641	-0.000766	4053.703501	13773.490281	3234.317631	8064.697176
38.035000	-0.003046	-0.000807	-0.006498	-0.000534	4046.004923	13766.653495	3227.518657	8061.997350
38.538500	0.003933	-0.000330	-0.010795	0.000384	4060.132825	13755.833587	3224.710885	8051.362825
39.036000	0.003968	0.000568	-0.008665	-0.000268	4061.746357	13793.960375	3226.204884	8058.915649
39.536000	0.002259	-0.000370	-0.021990	-0.000194	4057.563734	13769.063217	3219.096149	8058.061388
40.036500	0.005479	-0.001240	-0.012856	-0.001036	4067.117402	13768.354447	3224.367521	8067.826284
40.537000	0.000067	-0.000486	-0.022244	0.001407	4048.719819	13726.886199	3218.129045	8039.529315
41.037000	0.001024	0.000582	-0.019805	0.000636	4052.739938	13772.053314	3219.805098	8048.449878
41.539000	0.002847	0.000394	0.000057	-0.000121	4058.770190	13786.064590	3230.870694	8057.216184
42.035000	0.002269	-0.000303	-0.009784	-0.000682	4058.729230	13782.695700	3225.824942	8063.716336
42.535000	0.002792	-0.000348	0.003654	0.000730	4056.647405	13746.889242	3232.384008	8047.355452
43.035000	-0.001718	-0.000210	-0.010444	-0.000437	4048.859002	13778.973945	3225.338619	8060.875733
43.535000	0.002439	-0.000208	0.007414	-0.003261	4065.192053	13848.754988	3236.708572	8093.735751
44.041500	0.004335	0.000916	0.004259	-0.000947	4064.208627	13819.312077	3233.649323	8066.794035
44.536000	-0.006065	0.001031	-0.013758	-0.000058	4037.946355	13800.214204	3223.365026	8056.481284
45.036500	0.006625	-0.000322	0.005426	-0.001624	4071.225270	13805.465267	3234.676693	8074.668181
45.536500	0.006533	-0.001899	-0.028036	-0.002211	4072.398671	13781.051804	3217.001147	8081.492153
46.037000	-0.001237	0.001629	-0.001505	-0.000658	4050.487406	13829.795434	3230.307804	8063.437067
46.534500	0.004971	-0.000188	-0.006701	-0.000474	4064.593075	13780.406389	3227.376505	8061.304983
47.035000	-0.002234	-0.000179	-0.014020	-0.000173	4047.049319	13773.234902	3223.286961	8057.820474
47.535500	0.002557	-0.000957	-0.007895	-0.000200	4058.274722	13754.777757	3226.583105	8058.126934
48.035500	-0.000551	0.000078	-0.011579	-0.000986	4052.849229	13799.585360	3225.024553	8067.245037
48.536000	0.005965	-0.000360	-0.003329	-0.000086	4066.021967	13766.647672	3228.997939	8056.806334
49.036000	-0.002718	-0.001737	-0.017175	-0.001751	4049.586591	13773.704095	3222.449236	8076.135576
49.536000	0.007131	0.000091	-0.000708	-0.004464	4079.194656	13886.041663	3232.844803	8107.805392
50.036000	0.003474	-0.000011	-0.004836	-0.004054	4069.514947	13873.302082	3230.343488	8103.000916
50.536000	-0.003823	-0.001654	-0.013855	0.004554	4032.520418	13621.733356	3220.872351	8003.320814
51.037000	-0.004476	-0.003028	-0.010084	0.023397	3988.983617	13142.622333	3213.073515	7791.886666
51.535000	-0.024210	-0.012539	0.014362	0.219027	3618.260193	9357.452111	3141.132713	6062.659965
52.035000	0.001644	-0.008996	0.002072	-0.056794	4197.459566	15016.549816	3265.399003	8758.839459
52.535000	0.008255	-0.006237	-0.004065	-0.064373	4235.877158	15303.883087	3266.307201	8859.795458
53.035500	0.009176	-0.004554	0.011235	-0.021099	4124.831859	14188.289532	3249.210038	8306.310946
53.539500	0.021464	0.000815	0.020399	0.009435	4080.231492	13563.385336	3236.870932	7947.665245
54.036000	0.024503	0.002501	0.041618	0.016757	4070.031759	13428.340493	3244.825897	7865.350238
54.536500	0.053096	0.015078	0.064345	0.024382	4120.942377	13546.896332	3253.763820	7781.083870
55.036500	0.074018	0.026631	0.080714	0.025175	4172.184376	13809.258342	3263.314139	7772.406000
55.534000	0.108226	0.036080	0.111450	0.073925	4134.927587	12881.659845	3252.300013	7268.189675
56.034500	0.132848	0.049562	0.145450	0.124229	4072.101974	12085.562652	3242.717451	6803.963228
56.535000	0.157175	0.064371	0.165400	0.181610	3996.521321	11245.438532	3222.033076	6336.094226
57.035000	0.181250	0.075259	0.176044	0.212499	3981.642163	10878.275116	3211.566501	6108.683175
57.535500	0.200049	0.089397	0.202651	0.249266	3943.509659	10482.780191	3206.494980	5858.266851
58.038000	0.219494	0.098184	0.227198	0.269994	3940.847482	10282.236147	3208.387497	5726.160525
58.536000	0.230275	0.108934	0.241980	0.302669	3896.597668	9928.064432	3199.662577	5530.296202
59.036000	0.238032	0.114973	0.241863	0.339908	3840.429052	9453.929208	3182.566309	5324.326894
59.536500	0.253260	0.122341	0.242466	0.351133	3847.833156	9397.642641	3177.967599	5265.627285
60.036500	0.261826	0.128703	0.265707	0.353881	3858.718925	9450.363075	3186.942255	5251.487195
60.537000	0.268386	0.136071	0.285216	0.382996	3817.322943	9139.629435	3182.682536	5107.034155
61.034500	0.271986	0.137257	0.262318	0.363648	3859.457038	9432.603805	3181.131954	5201.941693
61.535000	0.274164	0.139354	0.297800	0.367967	3855.431731	9400.233418	3195.184828	5180.388142
62.035500	0.264318	0.136824	0.266778	0.369248	3834.823812	9345.090920	3180.636679	5174.035985
62.535500	0.274733	0.141169	0.266378	0.368807	3854.924158	9414.426684	3180.654857	5176.222967
63.035500	0.269538	0.143858	0.268727	0.364584	3853.103259	9515.913894	3183.527560	5197.253447
63.535500	0.286373	0.150769	0.302740	0.366345	3881.792672	9592.581657	3198.274200	5188.456247
64.036500	0.286560	0.148788	0.270240	0.362637	3889.369458	9618.499489	3185.057933	5207.019695
64.536500	0.289481	0.151072	0.289630	0.362963	3894.456108	9648.018280	3193.710572	5205.381774
65.037000	0.284290	0.148567	0.290710	0.363547	3883.179913	9601.523530	3193.940858	5202.450237
65.537500	0.286572	0.151391	0.288144	0.361953	3890.730167	9668.104032	3193.489909	5210.459234
66.037500	0.289256	0.149677	0.289398	0.361851	3896.201362	9643.740887	3194.119519	5210.976591
66.535000	0.283387	0.150278	0.290500	0.362750	3882.974967	9639.249680	3194.213662	5206.453456
67.035500	0.281074	0.149733	0.298115	0.369114	3866.314783	9535.861547	3194.796468	5174.702361
67.538500	0.289673	0.146140	0.299173	0.363193	3894.380513	9570.495353	3198.077654	5204.225024
68.036000	0.291846	0.150646	0.298488	0.365477	3894.161979	9603.757580	3196.675231	5192.787678
68.536500	0.289120	0.152472	0.320489	0.367349	3885.175965	9603.073126	3206.374243	5183.461961
69.036500	0.285433	0.148834	0.306921	0.370770	3871.467047	9498.022054	3198.158799	5166.513062
69.536500	0.290565	0.154657	0.294961	0.371216	3880.479593	9577.876608	3192.359618	5164.313234
70.037000	0.296414	0.152319	0.281902	0.371351	3891.600892	9541.031842	3186.371171	5163.651372
70.537000	0.286364	0.154134	0.279613	0.375027	3865.130808	9513.449460	3183.723126	5145.614394
71.035000	0.287592	0.152676	0.297410	0.377843	3862.122475	9450.520639	3190.443967	5131.901690
71.535000	0.290211	0.154124	0.282950	0.375638	3871.297180	9504.266142	3184.928554	5142.630997
72.035000	0.295078	0.151486	0.292885	0.375614	3880.702227	9465.755087	3189.398264	5142.744943
72.535500	0.289350	0.152913	0.288867	0.380398	3860.616901	9416.650388	3185.442988	5119.534400
73.036000	0.288018	0.148335	0.295504	0.382036	3855.029546	9326.716942	3187.679607	5111.644131
73.536000	0.293984	0.153184	0.311106	0.382321	3865.749748	9392.628939	3194.695785	5110.274230
74.036500	0.295026	0.155324	0.294575	0.384687	3863.238464	9389.352316	3186.075077	5098.937502
74.537000	0.294588	0.155977	0.284063	0.391230	3850.122595	9304.455277	3178.610051	5067.906147
75.037500	0.294851	0.154200	0.286419	0.395151	3843.335455	9223.440559	3177.939575	5049.533349
75.534500	0.290288	0.152445	0.305462	0.388180	3847.797681	9297.569015	3189.403669	5082.313203
76.034500	0.290643	0.152050	0.301937	0.389637	3845.753505	9271.155862	3187.154880	5075.420828
76.535500	0.297924	0.153183	0.301570	0.395717	3847.981628	9201.118524	3184.282108	5046.894227
77.038500	0.287637	0.151411	0.300602	0.392862	3834.284765	9216.377288	3185.118336	5060.238323
77.536000	0.291915	0.151113	0.321654	0.395857	3836.634335	9170.092672	3193.307787	5046.245868
78.036000	0.289982	0.154285	0.297185	0.400384	3824.883918	9151.155347	3180.321048	5025.273504
78.536500	0.294256	0.156303	0.305008	0.404651	3824.895578	9119.824788	3181.867275	5005.702927
79.037000	0.289441	0.153611	0.289039	0.402805	3819.554327	9108.097256	3175.799868	5014.146138
79.537000	0.288748	0.156325	0.292861	0.406424	3811.860394	9095.557774	3175.885748	4997.628865
80.034500	0.290981	0.154711	0.315954	0.407903	3813.198226	9052.923904	3185.256735	4990.916433
80.534500	0.287148	0.152720	0.298075	0.407968	3806.296705	9024.762246	3177.444076	4990.622155
81.035000	0.297526	0.155744	0.296164	0.411483	3818.490563	9018.047207	3175.144712	4974.768791
81.536000	0.290340	0.153996	0.303715	0.410786	3806.957445	9003.722526	3178.651605	4977.902832
82.035500	0.302041	0.159967	0.330913	0.417733	3815.390825	8990.443731	3187.550160	4946.892442
82.536000	0.296150	0.155478	0.279712	0.414864	3810.019237	8968.464783	3166.979309	4959.638596
83.035500	0.289174	0.153854	0.286868	0.421526	3786.237072	8857.330208	3167.178180	4930.167884
83.536500	0.297906	0.153122	0.294670	0.416698	3809.880893	8912.007743	3172.340761	4951.480460
84.036000	0.290759	0.153635	0.297535	0.416565	3797.560105	8920.680431	3173.588415	4952.072116
84.537000	0.294038	0.154385	0.311265	0.420375	3796.635080	8879.716825	3177.778333	4935.227296
85.034000	0.295652	0.157205	0.307449	0.427638	3786.866338	8820.774348	3173.104640	4903.524028
85.535500	0.299261	0.156881	0.313400	0.423841	3799.698207	8866.808181	3177.210777	4920.033900
86.035500	0.293122	0.155369	0.322278	0.423559	3789.532665	8850.465644	3181.153592	4921.266575
86.538500	0.297784	0.155086	0.296492	0.423383	3797.921232	8849.045175	3170.335254	4922.035586
87.035500	0.289437	0.155231	0.294685	0.430497	3771.439784	8757.340592	3166.714010	4891.192926
87.536000	0.294622	0.155536	0.298298	0.427234	3785.790963	8804.098557	3169.498424	4905.274780
88.036500	0.287819	0.153478	0.314616	0.425409	3777.301059	8801.032050	3177.060674	4913.199732
88.536500	0.292838	0.149925	0.299599	0.421837	3792.016675	8801.290505	3172.253384	4928.804720
89.037000	0.293750	0.153871	0.298125	0.428387	3782.325108	8767.124189	3168.957997	4900.285939
89.537500	0.299840	0.155869	0.306569	0.430584	3789.002957	8764.528119	3171.518511	4890.817819
90.035000	0.291977	0.156837	0.282764	0.429986	3776.589726	8785.033900	3162.189457	4893.389624
90.535000	0.286891	0.151213	0.293029	0.430566	3767.052610	8704.239643	3166.022344	4890.895127
91.038000	0.291722	0.154456	0.291646	0.437701	3763.211152	8654.130567	3162.646861	4860.472002
91.535500	0.294064	0.151649	0.305928	0.431269	3777.953942	8700.793097	3170.972009	4887.876536
92.035500	0.301030	0.152928	0.296038	0.432979	3786.930766	8695.224875	3166.260961	4880.551482
92.536500	0.295962	0.152468	0.300113	0.433966	3776.599162	8676.560910	3167.502453	4876.332645
93.036500	0.292482	0.150314	0.286312	0.436672	3766.192310	8614.379238	3160.965920	4864.828248
93.534000	0.302076	0.156222	0.318201	0.436624	3782.476644	8690.686903	3173.841457	4865.029186
94.037000	0.300756	0.151548	0.290351	0.435507	3782.132020	8644.991286	3162.999985	4869.773744
94.534500	0.295260	0.152052	0.295644	0.436359	3771.374565	8640.541444	3164.755307	4866.156157
95.035000	0.293189	0.154750	0.313088	0.443363	3756.264768	8585.752378	3168.952437	4836.678495
95.535500	0.304110	0.153961	0.316469	0.440248	3779.767578	8615.280581	3171.615958	4849.731292
96.035500	0.299087	0.152242	0.306386	0.438461	3774.280671	8616.136422	3168.221472	4857.257736
