sample name	sample
index	536
start time	 03-11-2021  05:03:51 PM
880	0.510527
Peak Time (s)	90.537
Peak Height 	0.5105
calc peak height	90,93
Baseline Time (s)	11.035
Baseline Value 	-0.004566
subtract baseline	10,4
Abs	0.331961
Peak Time (s)	90.537
Peak Height 	0.332
calc peak height	90,93
Baseline Time (s)	9.537
Baseline Value 	0.004401
subtract baseline	10,3
PK_550	0.171310
Peak Time (s)	90.037
Peak Height 	0.1713
calc peak height	90,93
Baseline Time (s)	11.035
Baseline Value 	5.4704E-4
subtract baseline	10,2
PK_880	0.321159
Peak Time (s)	91.54
Peak Height 	0.3212
calc peak height	90,93
Baseline Time (s)	10.04
Baseline Value 	0.001718
subtract baseline	10,1


Time (s)	A880-A510	A880-A775	A880-A975	A880	I510	I775	I975	I880	
0.034500	0.002087	0.000891	-0.001057	0.002489	7023.406564	45058.668097	3978.559301	23899.219857
0.537500	0.000144	-0.000356	-0.006885	0.004175	6989.184886	44775.214455	3959.738367	23817.881359
1.040500	-0.001693	-0.000832	-0.006399	0.005629	6958.398282	44589.694269	3957.337425	23747.966759
1.535000	0.000551	-0.000846	-0.003113	0.000815	7024.710601	45052.591259	3977.595123	23980.293106
2.035500	0.000647	-0.000434	-0.000906	0.000686	7026.845689	45105.137779	3983.509860	23986.590303
2.535500	0.000317	-0.000562	-0.002747	0.000334	7027.049745	45126.842983	3979.735121	24003.646953
3.036500	-0.001388	0.000364	-0.000325	0.005100	6966.181645	44755.404956	3973.822260	23773.371867
3.577500	0.001772	-0.000350	-0.002410	0.000721	7037.177687	45109.788325	3979.610408	23984.862771
4.036500	-0.000251	-0.000733	-0.005454	0.000387	7021.177897	45105.156273	3972.779192	24001.107998
4.540000	0.000453	0.000052	0.000802	0.000451	7027.234434	45175.207838	3988.453878	23998.001872
5.040000	-0.003834	0.000244	-0.000475	0.005198	6942.500322	44734.474222	3973.197986	23768.657630
5.540500	-0.000488	0.000217	-0.002577	0.000723	7015.756307	45164.728747	3979.184246	23984.787272
6.134000	0.001465	-0.000401	-0.003790	0.000059	7040.560388	45169.269209	3977.796248	24017.048385
6.535500	-0.000165	-0.000030	0.001583	0.000349	7022.340181	45177.075600	3990.704252	24002.934042
7.036000	0.000071	-0.001204	-0.006264	-0.000682	7034.353105	45163.220001	3973.429390	24053.092464
7.536000	-0.001714	-0.000615	-0.004986	0.000082	7010.225772	45146.210682	3974.722059	24015.916992
8.095000	0.000413	-0.000329	0.000141	-0.000134	7032.395345	45194.948306	3988.255747	24026.389263
8.536500	0.000246	0.000251	-0.003828	0.000213	7027.530144	45217.720527	3977.311870	24009.550156
9.037000	0.000355	0.000025	-0.002671	0.000108	7029.560090	45205.961538	3980.500721	24014.658058
9.536500	-0.001477	-0.000399	0.000000	-0.000260	7015.698104	45200.447259	3988.220374	24032.555764
10.040500	0.000000	-0.000009	0.002738	-0.000112	7028.270381	45223.979483	3994.840910	24025.328167
10.537500	0.000054	0.000092	-0.003101	0.000294	7024.934520	45194.235727	3978.940293	24005.584086
11.035000	-0.001469	0.000000	0.001747	0.000000	7013.310391	45213.970500	3992.015545	24019.894373
11.538000	-0.000887	-0.000607	0.002156	-0.000194	7020.646904	45173.746261	3993.559362	24029.318150
12.075000	0.001015	0.000012	0.001213	0.000199	7034.956284	45195.779849	3990.142790	24010.226399
12.536000	0.001008	0.000636	0.004985	0.000581	7031.262656	45219.381105	3998.832766	23991.670169
13.036000	-0.000654	-0.000182	-0.001482	-0.001015	7030.632006	45295.143477	3986.369257	24069.303849
13.545500	-0.000442	-0.000451	-0.004034	-0.001285	7035.211379	45295.254770	3980.575567	24082.469270
14.036500	-0.000008	-0.000372	-0.000962	0.001478	7013.158115	45034.310482	3981.359947	23948.165972
14.540000	-0.001657	-0.000631	-0.002718	0.003461	6978.998395	44817.541511	3971.927644	23852.305571
15.052000	0.000049	-0.000409	-0.000792	-0.000697	7034.289665	45241.990581	3987.315704	24053.817107
15.538500	0.003594	-0.000402	-0.000728	-0.001059	7071.543489	45278.013856	3988.399638	24071.443425
16.035000	-0.000635	0.000087	-0.001802	-0.000737	7028.178679	45294.226350	3984.848196	24055.760227
16.538000	-0.001445	-0.000639	-0.001996	0.003419	6981.377412	44820.871399	3973.848632	23854.335410
17.044000	0.003642	0.000069	-0.003136	-0.002969	7090.341775	45510.757904	3987.131172	24164.747304
17.535500	0.002486	0.000185	0.000157	-0.002400	7073.771415	45466.290990	3994.089270	24136.881785
18.036000	0.001922	0.000248	-0.000605	0.001363	7032.505871	45105.581813	3982.554100	23953.720241
18.537000	-0.001277	-0.000383	-0.000807	0.002422	6992.306858	44941.797811	3979.360584	23902.450849
19.040000	0.000471	-0.000041	-0.000397	0.001101	7021.249292	45102.975379	3983.746601	23966.430330
19.565500	0.003068	0.000285	-0.003022	0.001236	7044.610300	45121.445086	3976.762355	23959.873233
20.034500	0.000559	0.000081	-0.003328	0.001194	7021.198204	45105.746975	3976.097645	23961.913183
20.535000	-0.002793	-0.000354	0.004197	0.002071	6981.376078	44978.600151	3992.987986	23919.458046
21.035500	-0.000639	0.000319	-0.004042	0.001074	7011.009045	45140.480922	3974.599359	23967.728186
21.562500	-0.000578	-0.000248	-0.003489	0.000925	7012.993189	45099.986143	3976.369330	23974.967661
22.036000	0.001359	-0.000190	-0.003768	0.000584	7034.562943	45138.657069	3976.525614	23991.522954
22.536000	-0.000874	0.000479	-0.001139	0.001257	7007.065608	45138.395849	3981.471061	23958.889719
23.036500	0.000643	-0.000212	0.000664	0.001022	7023.616846	45093.980863	3986.644247	23970.259290
23.545000	0.000486	0.000461	0.001860	0.001383	7018.719777	45124.309371	3988.773418	23952.770265
24.036500	0.001130	0.000638	0.002097	0.001581	7022.947658	45122.352819	3988.873120	23943.184380
24.535000	-0.001751	-0.000344	-0.002737	0.003010	6982.333219	44888.773346	3973.013609	23874.046794
25.034500	-0.000237	0.000393	0.000619	0.001167	7013.919449	45138.638428	3986.161882	23963.208090
25.535000	0.000716	-0.000619	-0.002634	0.000829	7026.138802	45073.256928	3978.769223	23979.621705
26.035500	0.000629	0.000292	-0.000865	0.001188	7021.919122	45126.866017	3982.339668	23962.201625
26.536000	-0.001014	-0.000755	-0.006657	0.000546	7012.456761	45087.523840	3969.358489	23993.363171
27.036000	-0.000440	0.000391	-0.000647	0.001449	7009.348970	45111.093950	3982.228846	23949.546703
27.536000	0.002495	0.000334	0.001089	-0.001883	7068.915948	45430.339365	3995.155784	24111.659811
28.039500	0.002089	-0.000291	0.002714	-0.000548	7052.278047	45238.966060	3995.897491	24046.542499
28.537000	-0.004199	-0.000917	-0.003556	0.004825	6942.570878	44658.689271	3966.412610	23786.593929
29.039500	-0.001649	-0.000045	-0.001863	0.003947	6974.518778	44827.152274	3972.854777	23828.868849
29.535000	0.000689	-0.000200	-0.002066	-0.000891	7042.212211	45281.216485	3984.566596	24063.238210
30.035000	0.001243	0.001096	-0.000227	-0.000032	7039.309316	45323.932277	3987.058823	24021.437358
30.548500	-0.000290	-0.000217	-0.002526	0.004378	6983.211652	44769.090595	3970.109732	23808.118961
31.036000	-0.001671	0.000209	-0.002586	0.003908	6974.675353	44855.474517	3971.136791	23830.737158
31.546500	0.001562	0.000427	0.001053	-0.000258	7044.496315	45280.777761	3990.903501	24032.458599
32.036000	0.002126	0.000230	0.003401	-0.000683	7053.920038	45303.014707	3998.011273	24053.146401
32.539000	-0.002073	-0.001337	-0.004500	0.003785	6972.064660	44718.306533	3966.649730	23836.645745
33.036500	-0.000223	0.000593	-0.004696	0.005427	6974.012786	44746.081891	3962.068682	23757.687287
33.537000	0.001479	-0.000366	0.001695	-0.002039	7060.687711	45377.125219	3997.110201	24119.267443
34.037500	-0.000122	0.000564	0.001421	0.001230	7014.417783	45149.103512	3988.041557	23960.152983
34.535000	-0.001633	-0.000007	0.000031	0.001025	7002.100750	45113.609177	3985.027013	23970.113640
35.035000	-0.002746	-0.001022	-0.002680	0.001717	6985.139273	44948.271167	3976.414568	23936.594769
35.535500	0.000770	0.000872	-0.000121	0.001778	7017.672911	45125.877021	3982.731935	23933.639074
36.036000	-0.000288	0.000114	-0.000555	0.001134	7013.758526	45114.817591	3983.262068	23964.817285
36.536000	0.000719	0.000268	0.000387	0.001172	7022.923893	45126.142214	3985.561208	23963.012628
37.039000	0.000468	0.000301	-0.005654	0.001234	7019.956273	45123.264344	3970.148652	23959.995060
37.537000	0.001021	0.000171	-0.002434	0.001484	7022.821024	45086.333793	3977.621047	23947.845222
38.036500	0.000904	0.000197	-0.003188	0.001414	7022.379659	45095.661032	3975.894419	23951.252156
38.537500	-0.001378	-0.000383	-0.002906	0.002315	6992.360565	44952.146677	3974.337073	23907.653590
39.037500	0.000374	-0.000255	0.005895	0.001303	7018.416557	45062.602586	3999.317299	23956.645852
39.535000	-0.000921	-0.000180	0.000555	0.000818	7010.769166	45116.956516	3986.887064	23980.171522
40.035500	0.001037	-0.000458	0.002772	0.000813	7029.327920	45090.341268	3992.556419	23980.379800
40.536000	-0.001366	-0.000546	-0.008647	0.002260	6992.992005	44941.752914	3960.120565	23910.320933
41.035500	-0.000784	0.000408	-0.001480	0.001448	7006.109801	45112.831487	3980.122500	23949.590108
41.539000	-0.001315	-0.000652	0.002930	0.000831	7006.918865	45069.798188	3992.914500	23979.506919
42.036500	-0.000513	0.000380	-0.001195	0.001385	7009.266112	45116.240147	3981.004413	23952.671450
42.536500	-0.000992	0.000295	-0.003576	0.003385	6985.937664	44914.289130	3969.966909	23855.960606
43.039500	-0.001397	0.000254	0.001111	0.001956	6995.558676	45048.607716	3985.405837	23925.004402
43.537500	0.000936	-0.000307	-0.002802	-0.001107	7046.614158	45291.832705	3983.246816	24073.764478
44.034500	0.001331	0.000160	0.001549	-0.002946	7067.940921	45517.393420	3999.068233	24163.616484
44.535000	-0.000195	0.000774	0.005430	0.005152	6976.852142	44789.901377	3988.264097	23770.874660
45.035000	-0.001155	-0.000030	-0.002148	0.003115	6986.945300	44908.898283	3974.229624	23868.972672
45.535000	-0.000244	-0.000768	-0.002242	-0.001405	7038.226827	45276.089477	3985.427767	24088.326570
46.118000	0.000748	-0.000274	0.002634	-0.001020	7044.006034	45286.619545	3996.904721	24069.554363
46.536000	-0.001425	-0.000058	-0.005147	0.004257	6973.719152	44796.045929	3963.858483	23813.943862
47.039000	-0.000141	0.000257	-0.006127	0.002520	7002.068931	44994.283229	3965.747092	23897.740462
47.539000	-0.001848	-0.000452	-0.000075	0.001632	6994.363979	45011.650577	3983.218345	23940.706129
48.039500	0.002616	0.000366	-0.003087	-0.000068	7052.718128	45256.168905	3979.891095	24023.178035
48.537000	-0.001456	-0.000293	-0.005765	0.004959	6966.863087	44705.812113	3960.573011	23780.154566
49.053500	-0.001313	0.000207	0.001919	0.001199	7003.473168	45117.461396	3989.392890	23961.661432
49.553500	0.002537	0.000436	0.002035	-0.000462	7055.733229	45301.506768	3993.936154	24042.389927
50.076500	0.002421	0.000585	-0.001556	-0.001461	7064.167252	45413.613109	3987.316462	24091.070612
50.612500	-0.006809	-0.002834	-0.004986	0.004780	6918.840393	44479.306989	3962.956137	23788.774412
51.115500	-0.030498	-0.007485	-0.007032	0.396094	4452.684459	19631.104854	3318.509696	11386.672548
51.536500	-0.033589	-0.011135	-0.008609	0.046272	6335.898231	39979.494645	3856.225429	21885.849438
52.037000	-0.022506	-0.009480	-0.001506	-0.060836	7406.959090	50520.473771	4149.502672	27194.893209
52.533500	-0.010763	-0.019048	0.009081	-0.147238	8546.838611	59729.021120	4466.861392	32541.692858
53.040000	0.016532	-0.008484	0.031614	-0.102488	8324.833689	55430.253507	4387.785036	29639.928726
53.535000	0.022921	0.004065	0.045502	-0.015699	7409.970881	47182.194186	4154.980953	24797.131381
54.035000	0.049275	0.018557	0.062225	0.020086	7313.344155	45065.424224	4100.285044	23065.578486
54.535000	0.074711	0.030529	0.086645	0.030258	7470.797528	45240.415093	4140.938907	22598.847132
55.038000	0.106801	0.050759	0.115578	0.052059	7580.098905	45087.544367	4161.796539	21634.595793
55.538500	0.144246	0.070349	0.146194	0.098785	7481.384524	42534.692689	4115.164523	19724.052930
56.044000	0.166802	0.087216	0.178047	0.175529	6945.334045	37435.171240	3993.988897	16999.692431
56.551500	0.186332	0.099109	0.192355	0.225401	6673.130185	34546.662012	3906.499190	15470.564173
57.045000	0.208029	0.112063	0.214138	0.256261	6594.592882	33269.980832	3885.291894	14608.631364
57.533500	0.221235	0.121556	0.235410	0.290230	6422.652160	31607.903504	3856.363225	13728.068935
58.039500	0.236999	0.130471	0.247683	0.321916	6296.262820	30143.467264	3813.732171	12966.505044
58.540500	0.246387	0.138046	0.252588	0.347715	6170.744156	29025.563633	3769.932061	12386.189874
59.035000	0.257786	0.145449	0.265074	0.386676	5970.331221	27197.264769	3717.377200	11572.641639
59.538000	0.264271	0.149016	0.277964	0.398757	5931.171021	26726.335196	3718.934547	11334.828103
60.036000	0.272475	0.155690	0.286097	0.394533	6018.827148	27330.787261	3743.111235	11417.215454
60.536000	0.278058	0.159978	0.288047	0.419525	5883.013788	26195.250429	3698.574445	10941.175140
61.036500	0.281778	0.161543	0.293140	0.422540	5887.845589	26117.716755	3702.495311	10885.574951
61.537000	0.280907	0.161968	0.301288	0.431600	5820.558392	25661.474524	3700.772970	10720.812913
62.037000	0.293611	0.169804	0.295727	0.463958	5691.848485	24414.027953	3632.254094	10159.620870
62.552500	0.300733	0.172436	0.304441	0.450934	5823.856357	25202.289841	3670.800561	10380.472478
63.040500	0.294828	0.169640	0.304717	0.448431	5801.130248	25187.262194	3675.867951	10423.683419
63.537500	0.298100	0.171510	0.305641	0.450458	5809.429237	25179.272751	3673.854249	10388.686354
64.038500	0.301811	0.174292	0.310428	0.456245	5795.609248	25025.913751	3672.031827	10289.615414
64.535000	0.301642	0.173345	0.308880	0.459969	5769.871101	24789.572332	3662.489168	10226.551982
65.038500	0.304275	0.172581	0.308000	0.465355	5751.811917	24482.364046	3651.298100	10136.314399
65.539500	0.303989	0.175556	0.307659	0.473154	5699.425617	24244.398780	3637.000291	10007.610072
66.036500	0.302434	0.174413	0.305203	0.477133	5664.118140	23994.621223	3625.883605	9942.821904
66.537000	0.304941	0.174993	0.309844	0.481597	5651.742854	23807.158292	3626.185861	9870.848526
67.037000	0.305272	0.176120	0.310115	0.486495	5623.083630	23626.747865	3618.292504	9792.730039
67.534500	0.309386	0.177292	0.312036	0.489959	5627.148167	23517.880719	3615.678490	9738.012111
68.035000	0.306481	0.174872	0.302225	0.490754	5604.104164	23366.077285	3597.958773	9725.506573
68.537500	0.302035	0.173870	0.308331	0.499211	5525.288196	22926.009628	3594.091097	9593.975239
69.035500	0.307880	0.176662	0.307156	0.499412	5559.475732	23045.587055	3591.835095	9590.879699
69.535500	0.308195	0.175662	0.318285	0.501185	5550.603358	22917.630167	3607.310533	9563.639466
70.036000	0.309140	0.174671	0.311869	0.503836	5540.253077	22750.763142	3592.307080	9523.105460
70.536000	0.302942	0.174612	0.314372	0.511532	5457.489424	22400.190976	3583.857064	9406.863596
71.036500	0.309835	0.176242	0.315917	0.510228	5505.997061	22532.097588	3588.481406	9426.413749
71.537000	0.308127	0.175101	0.304797	0.511160	5490.273217	22438.775750	3569.124091	9412.430467
72.037500	0.311376	0.173816	0.316990	0.512384	5502.327545	22326.471104	3586.719094	9394.118465
72.534500	0.301894	0.173773	0.311831	0.518387	5411.577065	22058.425990	3568.818150	9305.035707
73.037500	0.308266	0.175492	0.315149	0.516975	5456.785403	22196.732568	3576.346214	9325.865370
73.535000	0.310548	0.175264	0.311781	0.517272	5468.448169	22173.521641	3570.506684	9321.488908
74.035000	0.307179	0.173201	0.310911	0.516992	5450.327965	22094.678808	3569.570754	9325.622226
74.535500	0.308086	0.174332	0.310367	0.524754	5410.570713	21804.477736	3556.531048	9211.885238
75.036000	0.312390	0.174316	0.315886	0.519467	5466.371779	22034.775314	3573.544002	9289.130094
75.536500	0.312086	0.175207	0.314705	0.519707	5463.175546	22063.451264	3571.283559	9285.608734
76.036500	0.310751	0.172697	0.315558	0.517442	5468.642196	22052.681601	3576.255756	9318.976906
76.537500	0.311794	0.175408	0.316492	0.519257	5464.102795	22092.157153	3574.846189	9292.223587
77.037000	0.313831	0.173321	0.314509	0.519152	5476.715290	22004.898622	3571.853506	9293.757819
77.540000	0.313380	0.174488	0.317972	0.518042	5480.619299	22105.148268	3579.164056	9310.121499
78.035500	0.314101	0.174305	0.320922	0.518344	5483.097973	22083.730323	3583.432194	9305.660511
78.535500	0.310684	0.173070	0.319186	0.521119	5446.694270	21907.819726	3576.177157	9264.896330
79.038500	0.312944	0.173423	0.320095	0.515730	5491.738177	22160.248121	3586.327050	9344.301003
79.536000	0.313999	0.173909	0.316013	0.516371	5494.197532	22153.410712	3578.700421	9334.807166
80.038500	0.313077	0.170948	0.316313	0.513163	5507.831301	22164.337463	3584.358277	9382.488452
80.539500	0.311530	0.172905	0.319705	0.520300	5456.425710	21936.368784	3578.320100	9276.891430
81.051500	0.316072	0.173272	0.321565	0.513406	5524.331303	22256.653659	3592.513542	9378.855735
81.546000	0.316837	0.174038	0.325824	0.513067	5530.981779	22305.848813	3600.084949	9383.911205
82.097000	0.315213	0.174042	0.322876	0.512331	5525.632820	22338.902572	3596.433134	9394.901735
82.534500	0.315623	0.172715	0.321459	0.510700	5537.948025	22352.495138	3596.785879	9419.332167
83.035000	0.312601	0.170444	0.321260	0.509018	5529.852944	22326.184945	3599.232799	9444.603534
83.535000	0.315487	0.172321	0.324068	0.508789	5548.702417	22420.416420	3604.271941	9448.057362
84.038000	0.312000	0.171670	0.324897	0.507458	5535.643318	22450.918696	3607.876349	9468.134314
84.557000	0.315486	0.171734	0.321847	0.508143	5552.621100	22423.071121	3601.653795	9457.791723
85.061000	0.316833	0.171008	0.327602	0.506919	5568.308284	22445.418681	3613.324214	9476.292092
85.536000	0.316623	0.171513	0.322562	0.506382	5570.301816	22492.281054	3605.771811	9484.417471
86.109000	0.313503	0.170804	0.329328	0.504742	5561.262490	22534.216975	3619.933252	9509.312439
86.596000	0.314650	0.171790	0.322739	0.508236	5546.976876	22421.398770	3602.979737	9456.388041
87.052000	0.314628	0.171094	0.320797	0.505485	5563.598373	22513.836311	3604.327386	9498.032925
87.535000	0.316424	0.170069	0.320096	0.503640	5585.921656	22550.789806	3606.233278	9526.098931
88.035500	0.312935	0.170783	0.320292	0.503820	5563.424258	22574.960304	3606.261525	9523.356693
88.540500	0.310182	0.169071	0.319531	0.508111	5520.755564	22305.401391	3597.876354	9458.283724
89.054500	0.315497	0.169042	0.329643	0.502414	5587.760786	22559.800582	3624.443311	9544.818499
89.544500	0.313752	0.169899	0.322076	0.503547	5570.084764	22547.352305	3609.702523	9527.517506
90.036500	0.320412	0.171310	0.323219	0.504100	5607.731831	22586.098342	3610.692849	9519.079619
90.537000	0.316738	0.170810	0.331961	0.510527	5545.748384	22275.217117	3614.590270	9421.916001
91.039500	0.313933	0.168700	0.328915	0.502709	5576.327671	22531.039908	3622.693394	9540.303910
91.540000	0.321159	0.171081	0.326554	0.505291	5604.979731	22521.963689	3614.302662	9500.965126
92.035000	0.316192	0.169394	0.324124	0.503645	5584.464551	22520.118742	3612.981609	9526.026320
92.535000	0.314079	0.168339	0.319794	0.509598	5535.276559	22206.727672	3595.859640	9435.882618
93.072500	0.321223	0.169605	0.330619	0.505168	5606.138754	22461.030347	3621.405769	9502.836048
93.543500	0.321617	0.171354	0.322635	0.506433	5600.737669	22482.791746	3605.809079	9483.642083
94.047000	0.320614	0.170102	0.329413	0.506545	5593.845931	22421.566020	3617.016602	9481.955220
94.644500	0.317816	0.168443	0.326690	0.510948	5549.738413	22151.481993	3605.042205	9415.605446
95.189000	0.316653	0.168068	0.327392	0.505177	5577.878701	22391.702164	3615.911100	9502.701198
95.542000	0.320681	0.168056	0.328090	0.506266	5595.983588	22342.426535	3615.251210	9486.179052
96.034000	0.321516	0.168966	0.326652	0.507170	5595.557786	22342.728423	3611.303593	9472.499106
96.537500	0.316330	0.168202	0.324220	0.512952	5528.619759	22052.415803	3597.624361	9385.626763
97.040500	0.318520	0.167368	0.322403	0.506832	5579.183627	22286.512883	3604.758953	9477.614616
97.535500	0.320394	0.168588	0.325859	0.508853	5578.279996	22250.852928	3607.152527	9447.091080
