sample name	sample
index	1278
start time	 04-29-2021  02:34:13 PM


Wavelength (nm)	Absorbance
494.344910	-0.186409
494.563924	-0.186409
494.782919	-0.186409
495.001897	-0.505064
495.220856	-0.084464
495.439797	-0.033864
495.658719	-0.040538
495.877624	-0.125686
496.096510	-0.078513
496.315378	0.010720
496.534227	-0.056251
496.753059	-0.115527
496.971872	-0.069933
497.190667	0.162131
497.409444	0.186220
497.628203	0.197661
497.846943	0.204520
498.065665	0.204308
498.284369	0.203978
498.503055	0.204304
498.721723	0.205656
498.940372	0.206407
499.159003	0.207644
499.377616	0.207943
499.596210	0.208388
499.814787	0.209825
500.033345	0.208831
500.251885	0.207796
500.470406	0.207987
500.688910	0.208114
500.907395	0.209391
501.125862	0.209782
501.344311	0.208453
501.562742	0.208207
501.781154	0.206943
501.999548	0.208157
502.217924	0.209532
502.436282	0.209150
502.654621	0.208469
502.872942	0.207366
503.091245	0.206567
503.309530	0.209154
503.527797	0.209524
503.746045	0.209254
503.964275	0.211330
504.182487	0.210912
504.400681	0.211270
504.618856	0.212206
504.837013	0.211872
505.055152	0.211248
505.273273	0.210236
505.491376	0.208919
505.709460	0.208979
505.927526	0.208554
506.145574	0.208500
506.363604	0.209469
506.581615	0.209393
506.799608	0.210546
507.017583	0.211994
507.235540	0.212229
507.453478	0.212671
507.671399	0.212479
507.889301	0.211778
508.107185	0.211921
508.325050	0.211482
508.542898	0.211083
508.760727	0.210331
508.978538	0.209757
509.196330	0.209339
509.414105	0.209840
509.631861	0.210230
509.849599	0.209279
510.067319	0.209683
510.285021	0.210130
510.502704	0.210292
510.720369	0.211266
510.938016	0.212173
511.155645	0.212114
511.373255	0.213218
511.590848	0.214056
511.808422	0.215567
512.025977	0.216297
512.243515	0.216753
512.461034	0.217308
512.678536	0.217134
512.896018	0.216435
513.113483	0.217463
513.330930	0.215969
513.548358	0.215700
513.765768	0.216072
513.983160	0.215371
514.200533	0.214600
514.417889	0.214694
514.635226	0.214306
514.852545	0.214239
515.069845	0.213749
515.287128	0.214777
515.504392	0.215015
515.721638	0.215843
515.938866	0.216320
516.156075	0.216455
516.373267	0.216619
516.590440	0.217389
516.807594	0.217820
517.024731	0.218146
517.241850	0.217712
517.458950	0.217837
517.676032	0.217472
517.893095	0.217358
518.110141	0.216881
518.327168	0.216661
518.544177	0.216426
518.761168	0.216122
518.978141	0.216135
519.195095	0.218174
519.412031	0.218375
519.628949	0.217558
519.845849	0.218678
520.062731	0.219793
520.279594	0.220524
520.496439	0.220550
520.713266	0.221190
520.930074	0.222106
521.146865	0.220406
521.363637	0.220636
521.580391	0.220999
521.797127	0.220640
522.013844	0.220463
522.230543	0.220023
522.447224	0.221114
522.663887	0.221467
522.880532	0.221383
523.097158	0.222311
523.313766	0.222320
523.530356	0.223187
523.746928	0.224234
523.963481	0.224444
524.180017	0.225198
524.396534	0.224395
524.613032	0.224605
524.829513	0.224826
525.045975	0.224905
525.262420	0.225167
525.478845	0.225760
525.695253	0.225952
525.911643	0.226447
526.128014	0.226194
526.344367	0.227275
526.560702	0.228074
526.777018	0.228612
526.993316	0.229239
527.209597	0.229854
527.425858	0.229396
527.642102	0.228756
527.858328	0.229591
528.074535	0.229867
528.290724	0.230284
528.506894	0.229782
528.723047	0.230529
528.939181	0.230893
529.155297	0.231113
529.371395	0.231463
529.587475	0.232390
529.803536	0.232682
530.019579	0.233046
530.235604	0.232921
530.451611	0.233545
530.667600	0.232638
530.883570	0.232681
531.099522	0.232846
531.315456	0.233787
531.531372	0.233528
531.747269	0.232646
531.963148	0.233092
532.179009	0.233916
532.394852	0.234438
532.610676	0.234891
532.826482	0.234943
533.042271	0.234865
533.258040	0.234298
533.473792	0.234654
533.689525	0.236132
533.905240	0.236797
534.120937	0.236740
534.336616	0.236436
534.552277	0.237695
534.767919	0.237677
534.983543	0.237321
535.199149	0.237794
535.414736	0.237864
535.630306	0.237536
535.845857	0.237642
536.061390	0.237951
536.276904	0.238359
536.492401	0.238284
536.707879	0.239046
536.923339	0.239959
537.138781	0.239822
537.354204	0.240084
537.569610	0.240529
537.784997	0.240472
538.000366	0.239734
538.215716	0.239826
538.431049	0.239708
538.646363	0.239506
538.861659	0.240010
539.076937	0.240839
539.292196	0.241339
539.507438	0.241964
539.722661	0.242730
539.937866	0.243981
540.153052	0.244597
540.368221	0.244394
540.583371	0.244529
540.798503	0.245003
541.013617	0.244645
541.228712	0.244119
541.443789	0.244097
541.658848	0.243783
541.873889	0.243872
542.088912	0.243805
542.303916	0.244337
542.518902	0.244770
542.733870	0.244324
542.948820	0.243909
543.163752	0.244675
543.378665	0.244158
543.593560	0.244384
543.808437	0.244276
544.023295	0.244733
544.238136	0.244874
544.452958	0.245044
544.667762	0.245573
544.882548	0.246601
545.097315	0.247005
545.312064	0.247603
545.526795	0.247683
545.741508	0.248402
545.956203	0.249045
546.170879	0.249546
546.385537	0.249811
546.600177	0.250143
546.814799	0.250861
547.029402	0.250789
547.243988	0.250814
547.458555	0.251839
547.673103	0.251450
547.887634	0.250925
548.102146	0.250711
548.316640	0.251216
548.531116	0.251778
548.745574	0.251470
548.960013	0.251926
549.174435	0.252712
549.388838	0.252394
549.603222	0.252865
549.817589	0.253158
550.031937	0.253913
550.246267	0.253686
550.460579	0.253431
550.674873	0.254128
550.889148	0.254261
551.103405	0.254580
551.317644	0.255051
551.531865	0.255639
551.746068	0.255603
551.960252	0.255066
552.174418	0.255643
552.388566	0.255746
552.602696	0.255526
552.816807	0.255778
553.030900	0.255477
553.244975	0.255578
553.459032	0.255647
553.673070	0.256377
553.887091	0.257375
554.101093	0.257093
554.315077	0.257621
554.529042	0.257866
554.742990	0.258255
554.956919	0.258995
555.170830	0.259379
555.384722	0.259233
555.598597	0.259501
555.812453	0.259393
556.026291	0.259724
556.240111	0.259683
556.453913	0.259937
556.667696	0.259911
556.881461	0.259722
557.095208	0.259710
557.308937	0.259820
557.522647	0.260073
557.736339	0.260256
557.950013	0.260611
558.163669	0.260809
558.377307	0.261111
558.590926	0.261129
558.804527	0.261435
559.018110	0.261383
559.231675	0.261738
559.445221	0.261758
559.658749	0.262099
559.872259	0.262184
560.085751	0.262519
560.299225	0.262818
560.512680	0.263073
560.726117	0.263500
560.939536	0.264105
561.152937	0.264147
561.366319	0.264386
561.579683	0.264419
561.793029	0.264674
562.006357	0.264200
562.219667	0.264272
562.432958	0.264579
562.646231	0.264087
562.859486	0.264332
563.072723	0.264812
563.285941	0.264441
563.499141	0.264951
563.712323	0.264966
563.925487	0.265324
564.138632	0.265720
564.351760	0.265143
564.564869	0.265423
564.777960	0.265715
564.991032	0.265590
565.204087	0.265883
565.417123	0.265393
565.630141	0.265382
565.843140	0.265802
566.056122	0.265719
566.269085	0.266571
566.482030	0.266908
566.694957	0.266458
566.907866	0.266645
567.120756	0.267017
567.333628	0.267327
567.546482	0.267621
567.759318	0.268124
567.972135	0.268349
568.184935	0.268051
568.397716	0.268070
568.610478	0.268103
568.823223	0.268582
569.035949	0.268692
569.248657	0.269086
569.461347	0.269234
569.674019	0.268335
569.886672	0.268274
570.099308	0.268587
570.311925	0.268865
570.524523	0.269282
570.737104	0.269096
570.949666	0.269434
571.162210	0.269394
571.374736	0.269563
571.587244	0.270399
571.799733	0.270794
572.012205	0.270934
572.224658	0.270679
572.437092	0.270763
572.649509	0.270877
572.861907	0.270853
573.074287	0.270993
573.286649	0.271258
573.498993	0.271551
573.711318	0.271482
573.923625	0.271474
574.135914	0.271745
574.348185	0.272014
574.560438	0.272186
574.772672	0.272230
574.984888	0.272400
575.197086	0.272762
575.409266	0.272840
575.621427	0.273118
575.833570	0.273572
576.045695	0.273784
576.257802	0.274240
576.469890	0.274478
576.681961	0.274996
576.894013	0.275132
577.106046	0.275240
577.318062	0.275117
577.530059	0.275205
577.742039	0.274860
577.954000	0.275249
578.165942	0.275041
578.377867	0.275286
578.589773	0.275246
578.801661	0.275119
579.013531	0.274978
579.225382	0.275325
579.437216	0.275579
579.649031	0.276407
579.860828	0.276388
580.072606	0.276440
580.284367	0.276760
580.496109	0.277296
580.707833	0.277745
580.919539	0.278093
581.131227	0.278520
581.342896	0.278431
581.554547	0.277977
581.766180	0.278472
581.977795	0.278612
582.189391	0.278647
582.400969	0.278033
582.612529	0.278084
582.824071	0.278022
583.035595	0.277650
583.247100	0.278136
583.458587	0.278611
583.670056	0.278452
583.881506	0.279053
584.092939	0.278662
584.304353	0.279317
584.515749	0.279545
584.727127	0.279727
584.938486	0.280067
585.149828	0.279879
585.361151	0.280054
585.572456	0.280324
585.783742	0.280169
585.995011	0.280437
586.206261	0.280251
586.417493	0.280147
586.628706	0.280210
586.839902	0.280370
587.051079	0.280404
587.262238	0.280316
587.473379	0.280395
587.684502	0.280466
587.895606	0.280841
588.106692	0.280965
588.317760	0.281138
588.528810	0.281469
588.739841	0.281630
588.950855	0.281783
589.161850	0.282111
589.372827	0.282199
589.583785	0.282368
589.794726	0.282681
590.005648	0.283116
590.216552	0.283270
590.427437	0.283365
590.638305	0.283827
590.849154	0.284429
591.059985	0.284847
591.270798	0.285177
591.481592	0.285315
591.692369	0.285165
591.903127	0.285318
592.113867	0.285660
592.324588	0.285884
592.535292	0.285868
592.745977	0.285597
592.956644	0.285661
593.167293	0.285666
593.377923	0.285379
593.588536	0.285773
593.799130	0.285904
594.009706	0.286101
594.220263	0.286290
594.430803	0.286451
594.641324	0.286579
594.851827	0.287358
595.062312	0.287454
595.272778	0.288249
595.483227	0.288126
595.693657	0.288230
595.904069	0.288345
596.114462	0.288400
596.324838	0.288454
596.535195	0.289028
596.745534	0.288209
596.955855	0.288518
597.166157	0.288838
597.376441	0.288866
597.586707	0.288674
597.796955	0.288582
598.007185	0.288928
598.217396	0.288709
598.427589	0.288244
598.637764	0.288441
598.847921	0.288416
599.058060	0.288073
599.268180	0.288675
599.478282	0.289022
599.688366	0.289266
599.898431	0.289173
600.108479	0.289602
600.318508	0.289906
600.528519	0.290291
600.738511	0.290552
600.948486	0.290655
601.158442	0.290381
601.368380	0.289940
601.578300	0.290303
601.788202	0.290492
601.998085	0.290557
602.207950	0.290685
602.417797	0.290725
602.627626	0.290753
602.837436	0.291015
603.047228	0.291348
603.257002	0.291963
603.466758	0.292020
603.676496	0.292382
603.886215	0.292455
604.095916	0.292684
604.305599	0.292887
604.515264	0.293268
604.724910	0.293230
604.934538	0.293092
605.144148	0.293283
605.353740	0.293327
605.563314	0.293053
605.772869	0.293286
605.982406	0.293056
606.191925	0.293168
606.401425	0.292914
606.610908	0.293220
606.820372	0.293659
607.029818	0.293634
607.239246	0.293826
607.448655	0.293705
607.658047	0.293448
607.867420	0.293464
608.076775	0.293387
608.286111	0.293179
608.495430	0.293206
608.704730	0.293245
608.914012	0.293343
609.123275	0.293399
609.332521	0.293861
609.541748	0.294673
609.750957	0.294944
609.960148	0.295050
610.169321	0.295406
610.378475	0.295472
610.587611	0.295469
610.796729	0.295498
611.005829	0.295685
611.214910	0.295842
611.423974	0.295509
611.633019	0.295786
611.842045	0.296114
612.051054	0.296215
612.260044	0.296364
612.469017	0.296608
612.677970	0.297099
612.886906	0.296971
613.095824	0.296921
613.304723	0.297021
613.513604	0.297076
613.722467	0.297169
613.931311	0.297264
614.140138	0.297219
614.348946	0.297702
614.557736	0.297842
614.766507	0.297867
614.975261	0.297929
615.183996	0.298246
615.392713	0.298252
615.601412	0.298114
615.810092	0.298227
616.018754	0.298373
616.227399	0.298123
616.436024	0.298187
616.644632	0.298576
616.853222	0.298498
617.061793	0.298599
617.270346	0.298776
617.478880	0.298950
617.687397	0.298815
617.895895	0.298754
618.104375	0.298621
618.312837	0.298504
618.521281	0.298605
618.729706	0.298787
618.938113	0.298957
619.146502	0.299217
619.354873	0.299318
619.563226	0.299767
619.771560	0.299852
619.979876	0.300112
620.188174	0.300426
620.396453	0.300666
620.604715	0.300824
620.812958	0.301193
621.021183	0.301560
621.229390	0.302134
621.437578	0.302704
621.645748	0.302960
621.853900	0.303157
622.062034	0.302939
622.270150	0.302936
622.478247	0.303249
622.686326	0.302696
622.894387	0.302427
623.102430	0.302137
623.310454	0.301454
623.518461	0.301585
623.726449	0.301806
623.934418	0.301905
624.142370	0.301986
624.350303	0.302178
624.558218	0.302670
624.766115	0.302664
624.973994	0.302761
625.181855	0.303332
625.389697	0.303640
625.597521	0.303757
625.805327	0.304065
626.013114	0.304238
626.220883	0.304267
626.428634	0.304619
626.636367	0.305006
626.844082	0.305064
627.051778	0.305326
627.259457	0.305148
627.467117	0.305214
627.674758	0.305195
627.882382	0.305484
628.089987	0.305385
628.297574	0.305041
628.505143	0.305224
628.712694	0.305830
628.920226	0.305714
629.127740	0.306151
629.335236	0.306345
629.542714	0.306404
629.750174	0.306298
629.957615	0.306497
630.165038	0.306637
630.372443	0.306511
630.579829	0.306227
630.787198	0.306383
630.994548	0.306471
631.201880	0.306452
631.409194	0.306551
631.616489	0.306528
631.823766	0.306821
632.031025	0.307012
632.238266	0.307201
632.445489	0.307265
632.652693	0.307110
632.859879	0.307034
633.067047	0.307040
633.274197	0.307274
633.481329	0.307408
633.688442	0.307371
633.895537	0.307475
634.102614	0.307750
634.309672	0.307938
634.516713	0.308267
634.723735	0.308529
634.930739	0.308851
635.137724	0.309157
635.344692	0.309396
635.551641	0.309929
635.758572	0.310242
635.965485	0.310447
636.172379	0.310743
636.379256	0.311221
636.586114	0.311236
636.792954	0.311420
636.999775	0.311614
637.206579	0.311973
637.413364	0.311724
637.620131	0.311564
637.826880	0.311791
638.033610	0.311758
638.240323	0.311447
638.447017	0.311856
638.653692	0.311735
638.860350	0.311729
639.066990	0.311854
639.273611	0.312087
639.480214	0.312648
639.686798	0.312402
639.893365	0.312501
640.099913	0.312808
640.306443	0.312941
640.512955	0.313248
640.719449	0.313467
640.925924	0.313401
641.132381	0.313677
641.338820	0.313605
641.545241	0.313886
641.751644	0.314066
641.958028	0.314237
642.164394	0.314197
642.370742	0.314385
642.577071	0.314559
642.783383	0.314610
642.989676	0.314872
643.195951	0.314742
643.402207	0.314940
643.608446	0.315224
643.814666	0.315200
644.020868	0.315202
644.227052	0.315260
644.433218	0.315207
644.639365	0.315569
644.845494	0.315469
645.051605	0.315909
645.257698	0.316007
645.463772	0.315988
645.669828	0.316333
645.875866	0.316422
646.081886	0.316714
646.287888	0.317054
646.493871	0.317196
646.699836	0.317512
646.905783	0.317720
647.111712	0.317833
647.317622	0.317905
647.523514	0.317994
647.729388	0.318502
647.935244	0.318597
648.141082	0.318678
648.346901	0.318855
648.552702	0.318812
648.758485	0.319129
648.964250	0.319322
649.169996	0.319690
649.375724	0.319729
649.581434	0.319602
649.787126	0.319662
649.992800	0.319860
650.198455	0.319991
650.404092	0.320259
650.609711	0.320475
650.815311	0.320594
651.020894	0.320884
651.226458	0.321320
651.432004	0.321822
651.637532	0.322073
651.843041	0.322170
652.048532	0.322497
652.254006	0.322757
652.459460	0.322709
652.664897	0.323152
652.870315	0.323168
653.075716	0.323501
653.281097	0.323767
653.486461	0.324054
653.691807	0.324410
653.897134	0.324668
654.102443	0.324724
654.307734	0.324931
654.513006	0.325419
654.718261	0.325713
654.923497	0.325983
655.128715	0.326209
655.333915	0.326285
655.539096	0.326465
655.744259	0.326308
655.949404	0.326645
656.154531	0.326885
656.359640	0.326660
656.564730	0.326644
656.769802	0.326495
656.974856	0.326676
657.179892	0.326973
657.384909	0.327359
657.589908	0.327749
657.794889	0.327790
657.999852	0.328184
658.204797	0.328594
658.409723	0.328876
658.614631	0.329398
658.819521	0.329430
659.024393	0.329451
659.229246	0.329444
659.434081	0.329661
659.638898	0.330140
659.843697	0.329952
660.048478	0.330518
660.253240	0.331062
660.457984	0.331221
660.662710	0.331725
660.867417	0.332191
661.072107	0.332542
661.276778	0.332755
661.481431	0.332985
661.686066	0.333172
661.890682	0.332793
662.095281	0.332853
662.299861	0.332836
662.504422	0.332669
662.708966	0.332845
662.913491	0.333078
663.117999	0.333017
663.322488	0.333077
663.526958	0.333393
663.731411	0.333394
663.935845	0.333240
664.140261	0.333556
664.344659	0.333542
664.549038	0.333441
664.753400	0.333223
664.957743	0.333667
665.162068	0.333847
665.366375	0.333931
665.570663	0.334264
665.774933	0.334839
665.979185	0.335075
666.183419	0.335388
666.387635	0.335779
666.591832	0.336142
666.796011	0.336237
667.000172	0.336211
667.204315	0.336434
667.408439	0.336615
667.612545	0.336827
667.816634	0.336606
668.020703	0.336989
668.224755	0.337014
668.428788	0.337077
668.632803	0.337093
668.836800	0.337307
669.040779	0.337411
669.244739	0.337741
669.448681	0.337571
669.652605	0.337780
669.856511	0.337874
670.060399	0.338177
670.264268	0.338625
670.468119	0.338792
670.671952	0.339305
670.875767	0.339540
671.079563	0.339561
671.283341	0.340099
671.487101	0.340585
671.690843	0.340657
671.894567	0.340779
672.098272	0.340867
672.301959	0.341143
672.505628	0.341006
672.709278	0.341357
672.912911	0.341658
673.116525	0.341642
673.320121	0.341829
673.523699	0.342081
673.727258	0.342249
673.930799	0.342086
674.134322	0.342416
674.337827	0.342569
674.541314	0.342775
674.744782	0.343040
674.948232	0.343275
675.151664	0.343190
675.355078	0.343771
675.558474	0.344161
675.761851	0.344676
675.965210	0.344899
676.168551	0.345318
676.371873	0.345348
676.575178	0.345614
676.778464	0.345861
676.981732	0.346276
677.184981	0.346183
677.388213	0.346178
677.591426	0.346365
677.794621	0.346674
677.997798	0.346864
678.200956	0.346916
678.404097	0.347164
678.607219	0.347356
678.810323	0.347611
679.013408	0.347874
679.216476	0.348219
679.419525	0.348344
679.622556	0.348413
679.825569	0.348564
680.028563	0.348841
680.231540	0.348911
680.434498	0.349024
680.637438	0.349298
680.840359	0.349399
681.043263	0.349375
681.246148	0.349566
681.449015	0.349475
681.651864	0.349696
681.854694	0.349750
682.057506	0.349783
682.260301	0.349992
682.463076	0.349957
682.665834	0.349828
682.868573	0.349995
683.071295	0.350231
683.273998	0.350594
683.476682	0.350607
683.679349	0.350888
683.881997	0.351009
684.084627	0.351324
684.287239	0.351464
684.489833	0.351994
684.692408	0.352185
684.894965	0.352474
685.097504	0.352382
685.300025	0.352384
685.502527	0.352767
685.705012	0.352865
685.907478	0.352688
686.109925	0.352876
686.312355	0.352980
686.514766	0.353347
686.717159	0.353398
686.919534	0.353861
687.121891	0.354269
687.324230	0.354384
687.526550	0.354562
687.728852	0.354784
687.931136	0.354792
688.133401	0.354977
688.335649	0.354938
688.537878	0.355100
688.740089	0.355039
688.942281	0.355077
689.144456	0.355051
689.346612	0.355110
689.548750	0.355438
689.750870	0.355664
689.952971	0.355517
690.155055	0.355688
690.357120	0.355525
690.559167	0.355989
690.761195	0.356066
690.963206	0.356233
691.165198	0.356112
691.367172	0.356242
691.569128	0.356557
691.771065	0.356851
691.972984	0.356959
692.174885	0.357212
692.376768	0.357320
692.578633	0.357538
692.780479	0.357883
692.982308	0.358491
693.184118	0.358644
693.385909	0.358673
693.587683	0.359015
693.789438	0.359344
693.991175	0.359568
694.192894	0.359759
694.394595	0.359941
694.596277	0.359837
694.797941	0.360025
694.999587	0.360032
695.201215	0.359967
695.402824	0.359822
695.604416	0.359922
695.805989	0.360116
696.007543	0.359929
696.209080	0.360297
696.410598	0.360396
696.612099	0.360565
696.813580	0.360710
697.015044	0.361126
697.216490	0.361384
697.417917	0.361656
697.619326	0.361815
697.820717	0.361965
698.022089	0.361945
698.223444	0.362365
698.424780	0.362281
698.626098	0.362390
698.827397	0.362576
699.028679	0.362777
699.229942	0.362557
699.431187	0.362568
699.632414	0.362966
699.833622	0.363070
700.034813	0.363213
700.235985	0.363357
700.437139	0.363516
700.638274	0.363617
700.839392	0.363772
701.040491	0.364119
701.241572	0.364331
701.442635	0.364311
701.643679	0.364254
701.844706	0.364577
702.045714	0.364552
702.246704	0.364788
702.447675	0.364750
702.648629	0.364774
702.849564	0.364662
703.050481	0.364639
703.251380	0.364488
703.452260	0.364891
703.653122	0.364695
703.853966	0.364897
704.054792	0.364905
704.255600	0.364800
704.456389	0.364676
704.657160	0.364722
704.857913	0.364648
705.058648	0.364742
705.259365	0.364574
705.460063	0.364264
705.660743	0.364199
705.861405	0.364109
706.062048	0.364296
706.262674	0.364344
706.463281	0.364444
706.663870	0.364619
706.864441	0.364691
707.064993	0.364880
707.265527	0.365148
707.466043	0.365530
707.666541	0.365581
707.867021	0.365728
708.067482	0.365673
708.267925	0.365949
708.468350	0.365929
708.668757	0.366098
708.869145	0.366088
709.069516	0.365989
709.269868	0.365763
709.470201	0.365572
709.670517	0.365405
709.870814	0.365366
710.071093	0.365162
710.271354	0.365172
710.471597	0.365104
710.671821	0.365059
710.872028	0.365166
711.072216	0.365080
711.272385	0.365335
711.472537	0.365288
711.672670	0.365527
711.872785	0.365456
712.072882	0.365474
712.272961	0.365391
712.473021	0.365072
712.673063	0.365197
712.873087	0.365386
713.073093	0.365303
713.273081	0.365228
713.473050	0.365139
713.673001	0.365078
713.872934	0.365152
714.072849	0.365182
714.272745	0.365190
714.472623	0.364837
714.672483	0.364452
714.872325	0.364428
715.072148	0.364672
715.271954	0.364514
715.471741	0.364731
715.671509	0.364815
715.871260	0.364776
716.070992	0.364555
716.270707	0.364715
716.470403	0.365049
716.670080	0.365144
716.869740	0.365149
717.069381	0.365150
717.269004	0.364882
717.468609	0.364516
717.668195	0.364616
717.867764	0.364998
718.067314	0.365001
718.266846	0.364936
718.466360	0.365012
718.665855	0.364770
718.865332	0.364706
719.064791	0.364734
719.264232	0.364799
719.463655	0.364731
719.663059	0.364559
719.862445	0.364460
720.061813	0.364325
720.261163	0.364061
720.460494	0.364290
720.659807	0.364396
720.859102	0.364395
721.058379	0.364526
721.257638	0.364430
721.456878	0.364238
721.656100	0.364171
721.855304	0.364085
722.054490	0.364018
722.253657	0.363669
722.452806	0.363811
722.651937	0.363642
722.851050	0.363317
723.050145	0.363085
723.249221	0.363204
723.448279	0.362996
723.647319	0.362779
723.846340	0.362424
724.045344	0.362054
724.244329	0.361786
724.443296	0.361386
724.642245	0.361390
724.841175	0.361405
725.040088	0.361360
725.238982	0.361307
725.437857	0.361248
725.636715	0.361285
725.835554	0.361369
726.034376	0.361117
726.233179	0.361133
726.431963	0.360747
726.630730	0.360591
726.829478	0.360038
727.028208	0.359929
727.226920	0.360139
727.425614	0.360225
727.624289	0.360228
727.822946	0.360070
728.021585	0.359975
728.220206	0.359797
728.418808	0.359597
728.617392	0.359832
728.815958	0.359884
729.014506	0.359510
729.213036	0.359328
729.411547	0.359227
729.610040	0.359242
729.808515	0.359144
730.006972	0.359446
730.205410	0.359087
730.403831	0.358978
730.602233	0.358729
730.800616	0.358405
730.998982	0.358198
731.197329	0.357662
731.395658	0.357613
731.593969	0.357567
731.792262	0.357370
731.990536	0.357473
732.188793	0.357526
732.387031	0.357461
732.585250	0.357449
732.783452	0.357155
732.981635	0.357290
733.179800	0.357121
733.377947	0.357056
733.576076	0.356790
733.774186	0.356537
733.972278	0.356075
734.170352	0.355881
734.368408	0.355744
734.566446	0.355720
734.764465	0.355773
734.962466	0.355540
735.160449	0.355227
735.358413	0.354909
735.556360	0.354669
735.754288	0.354294
735.952198	0.353694
736.150090	0.353561
736.347963	0.353215
736.545818	0.352634
736.743655	0.352118
736.941474	0.351662
737.139275	0.351458
737.337057	0.351361
737.534821	0.351220
737.732567	0.351074
737.930295	0.350786
738.128005	0.350331
738.325696	0.350017
738.523369	0.349774
738.721024	0.349934
738.918660	0.349680
739.116279	0.349432
739.313879	0.349239
739.511461	0.349367
739.709024	0.349113
739.906570	0.349276
740.104097	0.349516
740.301606	0.349231
740.499097	0.348794
740.696569	0.348747
740.894024	0.348570
741.091460	0.348725
741.288878	0.348395
741.486277	0.348048
741.683659	0.347860
741.881022	0.347535
742.078367	0.347491
742.275694	0.347719
742.473002	0.347528
742.670293	0.347375
742.867565	0.346835
743.064819	0.346715
743.262054	0.346806
743.459272	0.346382
743.656471	0.346093
743.853652	0.346330
744.050815	0.345909
744.247959	0.345542
744.445085	0.345418
744.642194	0.345505
744.839283	0.345279
745.036355	0.344928
745.233408	0.344933
745.430444	0.344904
745.627461	0.344630
745.824459	0.344411
746.021440	0.344669
746.218402	0.344530
746.415346	0.344029
746.612272	0.343990
746.809180	0.343770
747.006069	0.343444
747.202940	0.342995
747.399793	0.342858
747.596628	0.342678
747.793444	0.342199
747.990243	0.342044
748.187023	0.342174
748.383784	0.341791
748.580528	0.341738
748.777253	0.341639
748.973960	0.341665
749.170649	0.341051
749.367320	0.340692
749.563973	0.340229
749.760607	0.339944
749.957223	0.339651
750.153821	0.339525
750.350400	0.339391
750.546962	0.339175
750.743505	0.338911
750.940030	0.338797
751.136536	0.338766
751.333025	0.338732
751.529495	0.338352
751.725947	0.337913
751.922381	0.337560
752.118796	0.337374
752.315194	0.337008
752.511573	0.336676
752.707934	0.336492
752.904276	0.336410
753.100601	0.336449
753.296907	0.336422
753.493195	0.336523
753.689465	0.336453
753.885716	0.335998
754.081949	0.336258
754.278164	0.336139
754.474361	0.336036
754.670540	0.335724
754.866700	0.335750
755.062843	0.335610
755.258967	0.335492
755.455072	0.335389
755.651160	0.335426
755.847229	0.335052
756.043280	0.334693
756.239313	0.334444
756.435328	0.334236
756.631324	0.333764
756.827302	0.333404
757.023262	0.333247
757.219204	0.333012
757.415127	0.333157
757.611033	0.333011
757.806920	0.333250
758.002788	0.333501
758.198639	0.333657
758.394471	0.333773
758.590286	0.333894
758.786081	0.333707
758.981859	0.333797
759.177619	0.333314
759.373360	0.333176
759.569083	0.333097
759.764788	0.332967
759.960474	0.332480
760.156143	0.332022
760.351793	0.331644
760.547425	0.331668
760.743038	0.331456
760.938634	0.331458
761.134211	0.331271
761.329770	0.330895
761.525311	0.330593
761.720833	0.330581
761.916338	0.330529
762.111824	0.330601
762.307292	0.330455
762.502741	0.330326
762.698173	0.330307
762.893586	0.330249
763.088981	0.330170
763.284358	0.329847
763.479716	0.329841
763.675057	0.330238
763.870379	0.330104
764.065683	0.329821
764.260968	0.329785
764.456236	0.329727
764.651485	0.329642
764.846716	0.329700
765.041929	0.329682
765.237123	0.329380
765.432299	0.328892
765.627457	0.328788
765.822597	0.328690
766.017719	0.328338
766.212822	0.328075
766.407907	0.327962
766.602974	0.327719
766.798023	0.327455
766.993054	0.327471
767.188066	0.327440
767.383060	0.327470
767.578036	0.327181
767.772993	0.327244
767.967933	0.327269
768.162854	0.327572
768.357757	0.327734
768.552642	0.328045
768.747508	0.328118
768.942356	0.328235
769.137186	0.328178
769.331998	0.328388
769.526792	0.328420
769.721567	0.328259
769.916324	0.327983
770.111063	0.327726
770.305784	0.327744
770.500486	0.327679
770.695171	0.327345
770.889837	0.327056
771.084484	0.327124
771.279114	0.327131
771.473725	0.326863
771.668318	0.326734
771.862893	0.326758
772.057450	0.326508
772.251988	0.326455
772.446509	0.326490
772.641011	0.326911
772.835494	0.326672
773.029960	0.326560
773.224407	0.326716
773.418836	0.326815
773.613247	0.326835
773.807640	0.326805
774.002014	0.326761
774.196370	0.326773
774.390708	0.326185
774.585028	0.326086
774.779330	0.325896
774.973613	0.325874
775.167878	0.325457
775.362125	0.325542
775.556354	0.325696
775.750564	0.325736
775.944756	0.325584
776.138930	0.326009
776.333086	0.326140
776.527223	0.326109
776.721343	0.326134
776.915444	0.326455
777.109526	0.326319
777.303591	0.325868
777.497637	0.325848
777.691666	0.325811
777.885676	0.325708
778.079667	0.325779
778.273641	0.325532
778.467596	0.325524
778.661533	0.325532
778.855452	0.325346
779.049352	0.325705
779.243235	0.325682
779.437099	0.325721
779.630945	0.325711
779.824773	0.325537
780.018582	0.325924
780.212373	0.326111
780.406146	0.325991
780.599901	0.325682
780.793638	0.325731
780.987356	0.325595
781.181056	0.325780
781.374738	0.325841
781.568402	0.325913
781.762047	0.325995
781.955674	0.325758
782.149283	0.325872
782.342874	0.326542
782.536447	0.326592
782.730001	0.326764
782.923537	0.326826
783.117055	0.326919
783.310555	0.327147
783.504036	0.327402
783.697499	0.327569
783.890944	0.327764
784.084371	0.327802
784.277780	0.327927
784.471170	0.327787
784.664542	0.327670
784.857896	0.327637
785.051231	0.327706
785.244549	0.327573
785.437848	0.327629
785.631129	0.327453
785.824392	0.327334
786.017636	0.327520
786.210863	0.327840
786.404071	0.328029
786.597260	0.328255
786.790432	0.328156
786.983585	0.328264
787.176721	0.328324
787.369838	0.328785
787.562936	0.329204
787.756017	0.329080
787.949079	0.329226
788.142123	0.329277
788.335149	0.329334
788.528156	0.329139
788.721146	0.329251
788.914117	0.329318
789.107070	0.329305
789.300005	0.329195
789.492921	0.329259
789.685819	0.329312
789.878699	0.329744
790.071561	0.329765
790.264405	0.330392
790.457230	0.330348
790.650037	0.330448
790.842826	0.330364
791.035597	0.330442
791.228349	0.330587
791.421084	0.330463
791.613800	0.330085
791.806497	0.330252
791.999177	0.330292
792.191838	0.330706
792.384481	0.330634
792.577106	0.330854
792.769713	0.330904
792.962301	0.331466
793.154871	0.332019
793.347423	0.332329
793.539957	0.332348
793.732473	0.332453
793.924970	0.332438
794.117449	0.332817
794.309910	0.332832
794.502353	0.333171
794.694777	0.333165
794.887183	0.333043
795.079571	0.333647
795.271941	0.333720
795.464293	0.333742
795.656626	0.334182
795.848941	0.334228
796.041238	0.334430
796.233516	0.334705
796.425777	0.334601
796.618019	0.334866
796.810243	0.334636
797.002449	0.335056
797.194636	0.335183
797.386805	0.335066
797.578956	0.335561
797.771089	0.335901
797.963204	0.336354
798.155300	0.336770
798.347378	0.337076
798.539438	0.337360
798.731480	0.337215
798.923503	0.337569
799.115509	0.337963
799.307496	0.338104
799.499465	0.338295
799.691415	0.338262
799.883348	0.338202
800.075262	0.338416
800.267158	0.338548
800.459035	0.339127
800.650895	0.339357
800.842736	0.339263
801.034559	0.339410
801.226364	0.339724
801.418150	0.339942
801.609919	0.340116
801.801669	0.340432
801.993401	0.340845
802.185114	0.341222
802.376810	0.341462
802.568487	0.341797
802.760146	0.341715
802.951787	0.342198
803.143409	0.342377
803.335014	0.342886
803.526600	0.342791
803.718168	0.342744
803.909717	0.342697
804.101249	0.343051
804.292762	0.343437
804.484257	0.344049
804.675734	0.343938
804.867192	0.343891
805.058632	0.344087
805.250054	0.344488
805.441458	0.344988
805.632844	0.345297
805.824211	0.345188
806.015561	0.345220
806.206891	0.345359
806.398204	0.345469
806.589499	0.345933
806.780775	0.346081
806.972033	0.346083
807.163273	0.346241
807.354495	0.346416
807.545698	0.346813
807.736883	0.347140
807.928050	0.347337
808.119199	0.347792
808.310329	0.348081
808.501441	0.348320
808.692535	0.348872
808.883611	0.349189
809.074669	0.349365
809.265708	0.349853
809.456729	0.350085
809.647732	0.350679
809.838717	0.350957
810.029683	0.351400
810.220632	0.351643
810.411562	0.351811
810.602474	0.352268
810.793367	0.352501
810.984242	0.352551
811.175100	0.352956
811.365938	0.352867
811.556759	0.353259
811.747562	0.353533
811.938346	0.353829
812.129112	0.354242
812.319860	0.354294
812.510589	0.355011
812.701300	0.355396
812.891994	0.355815
813.082668	0.356526
813.273325	0.356611
813.463964	0.356553
813.654584	0.356876
813.845186	0.356838
814.035769	0.357243
814.226335	0.357616
814.416882	0.357921
814.607411	0.358124
814.797922	0.358255
814.988415	0.358774
815.178889	0.359231
815.369345	0.359529
815.559783	0.360258
815.750203	0.360831
815.940605	0.360753
816.130988	0.361061
816.321353	0.361495
816.511700	0.362187
816.702028	0.362734
816.892339	0.363219
817.082631	0.363634
817.272905	0.363785
817.463161	0.363860
817.653398	0.364404
817.843617	0.364892
818.033819	0.365513
818.224001	0.365390
818.414166	0.365661
818.604312	0.366042
818.794440	0.366714
818.984550	0.367110
819.174642	0.367235
819.364716	0.367697
819.554771	0.368198
819.744808	0.368532
819.934827	0.368970
820.124827	0.369087
820.314810	0.369507
820.504774	0.369762
820.694720	0.369931
820.884647	0.370536
821.074557	0.370752
821.264448	0.371017
821.454321	0.370750
821.644176	0.371441
821.834012	0.371724
822.023831	0.372100
822.213631	0.372613
822.403413	0.373292
822.593176	0.373874
822.782922	0.374229
822.972649	0.374775
823.162358	0.375304
823.352049	0.375364
823.541721	0.375523
823.731376	0.375754
823.921012	0.375818
824.110629	0.376034
824.300229	0.376136
824.489811	0.376507
824.679374	0.376478
824.868919	0.377001
825.058445	0.377563
825.247954	0.378514
825.437444	0.378681
825.626916	0.379154
825.816370	0.379601
826.005806	0.380174
826.195223	0.380502
826.384622	0.381684
826.574003	0.382086
826.763366	0.382232
826.952711	0.382348
827.142037	0.383176
827.331345	0.383293
827.520635	0.383657
827.709906	0.384033
827.899160	0.384511
828.088395	0.384015
828.277612	0.384142
828.466810	0.384696
828.655991	0.385138
828.845153	0.385476
829.034297	0.386106
829.223423	0.386633
829.412531	0.386792
829.601620	0.387284
829.790691	0.388135
829.979744	0.388954
830.168779	0.389654
830.357795	0.390108
830.546793	0.390612
830.735773	0.390899
830.924735	0.391033
831.113679	0.391613
831.302604	0.392367
831.491511	0.392838
831.680400	0.393185
831.869271	0.393497
832.058123	0.394114
832.246957	0.394276
832.435773	0.395195
832.624571	0.395924
832.813351	0.396409
833.002112	0.396551
833.190855	0.396919
833.379580	0.397387
833.568287	0.397664
833.756975	0.398030
833.945645	0.398399
834.134297	0.398583
834.322931	0.399053
834.511547	0.399666
834.700144	0.400230
834.888723	0.400844
835.077284	0.401123
835.265826	0.401404
835.454351	0.401694
835.642857	0.402114
835.831345	0.402642
836.019815	0.403444
836.208266	0.404006
836.396699	0.404505
836.585114	0.404809
836.773511	0.405645
836.961890	0.406368
837.150250	0.406886
837.338592	0.407641
837.526916	0.407970
837.715222	0.408056
837.903510	0.407992
838.091779	0.408247
838.280030	0.408499
838.468263	0.409310
838.656477	0.409704
838.844674	0.410424
839.032852	0.410952
839.221012	0.411621
839.409153	0.412485
839.597277	0.413516
839.785382	0.414117
839.973469	0.415073
840.161538	0.414954
840.349589	0.415494
840.537621	0.415864
840.725635	0.416282
840.913631	0.416406
841.101609	0.416659
841.289568	0.417285
841.477509	0.417827
841.665432	0.417935
841.853337	0.418481
842.041224	0.418921
842.229092	0.419280
842.416942	0.420006
842.604774	0.421173
842.792588	0.421615
842.980383	0.421666
843.168160	0.421951
843.355919	0.422297
843.543660	0.422715
843.731382	0.422955
843.919087	0.423364
844.106773	0.423345
844.294441	0.423164
844.482090	0.423383
844.669722	0.423940
844.857335	0.424412
845.044930	0.424872
845.232507	0.425204
845.420065	0.426064
845.607605	0.426649
845.795127	0.427165
845.982631	0.427914
846.170117	0.428464
846.357584	0.428843
846.545033	0.429652
846.732464	0.430701
846.919877	0.431507
847.107272	0.431786
847.294648	0.432454
847.482006	0.433175
847.669346	0.433564
847.856667	0.434334
848.043971	0.434937
848.231256	0.435253
848.418523	0.435553
848.605771	0.436076
848.793002	0.436602
848.980214	0.436838
849.167408	0.437570
849.354584	0.438335
849.541742	0.438956
849.728881	0.439511
849.916002	0.440053
850.103105	0.440689
850.290190	0.440728
850.477256	0.441681
850.664304	0.441956
850.851334	0.442469
851.038346	0.442903
851.225340	0.442970
851.412315	0.443390
851.599272	0.443675
851.786211	0.443641
851.973132	0.444372
852.160034	0.444115
852.346918	0.445092
852.533784	0.445149
852.720632	0.445034
852.907462	0.445833
853.094273	0.446323
853.281066	0.446737
853.467841	0.447516
853.654598	0.447830
853.841336	0.448358
854.028056	0.448614
854.214758	0.449243
854.401442	0.450165
854.588107	0.450447
854.774755	0.450281
854.961384	0.450641
855.147995	0.450356
855.334587	0.450663
855.521162	0.451343
855.707718	0.451937
855.894256	0.452336
856.080775	0.452698
856.267277	0.453234
856.453760	0.454506
856.640225	0.455072
856.826672	0.456128
857.013101	0.457104
857.199511	0.457513
857.385903	0.458153
857.572277	0.459009
857.758633	0.459413
857.944970	0.459610
858.131290	0.459493
858.317591	0.459923
858.503873	0.460877
858.690138	0.461160
858.876384	0.461439
859.062612	0.461386
859.248822	0.461429
859.435014	0.461701
859.621188	0.462278
859.807343	0.462775
859.993480	0.463152
860.179599	0.463079
860.365699	0.463551
860.551781	0.464177
860.737846	0.464766
860.923891	0.465148
861.109919	0.465840
861.295929	0.465958
861.481920	0.466215
861.667893	0.466665
861.853848	0.466891
862.039784	0.467227
862.225702	0.467738
862.411603	0.467994
862.597484	0.467784
862.783348	0.467737
862.969193	0.468399
863.155021	0.468564
863.340830	0.469117
863.526620	0.469420
863.712393	0.469384
863.898147	0.469447
864.083883	0.469514
864.269601	0.470183
864.455301	0.470920
864.640982	0.471145
864.826645	0.471510
865.012290	0.471905
865.197917	0.472444
865.383526	0.473152
865.569116	0.473535
865.754688	0.473842
865.940242	0.474406
866.125777	0.474978
866.311295	0.475667
866.496794	0.476606
866.682275	0.476778
866.867737	0.477015
867.053182	0.477362
867.238608	0.477732
867.424016	0.478065
867.609406	0.478828
867.794778	0.479176
867.980131	0.479402
868.165466	0.479658
868.350783	0.479873
868.536082	0.480298
868.721362	0.480799
868.906625	0.481435
869.091869	0.481922
869.277094	0.481629
869.462302	0.481723
869.647491	0.481604
869.832662	0.482225
870.017815	0.482402
870.202950	0.483091
870.388066	0.482950
870.573165	0.483620
870.758245	0.484037
870.943306	0.484656
871.128350	0.485062
871.313375	0.486090
871.498382	0.485795
871.683371	0.486651
871.868342	0.487007
872.053294	0.487306
872.238229	0.487152
872.423144	0.487662
872.608042	0.487691
872.792922	0.487851
872.977783	0.487657
873.162626	0.488625
873.347451	0.488799
873.532258	0.488952
873.717046	0.489724
873.901816	0.490109
874.086568	0.490445
874.271302	0.491030
874.456017	0.491308
874.640715	0.491511
874.825394	0.491528
875.010055	0.491969
875.194697	0.492230
875.379322	0.491898
875.563928	0.491993
875.748516	0.492220
875.933085	0.492066
876.117637	0.492555
876.302170	0.493117
876.486685	0.492927
876.671182	0.493003
876.855661	0.493581
877.040121	0.494491
877.224563	0.494655
877.408987	0.494503
877.593393	0.495119
877.777780	0.494418
877.962150	0.494126
878.146501	0.494180
878.330833	0.494228
878.515148	0.494158
878.699444	0.494059
878.883722	0.494409
879.067982	0.494837
879.252224	0.494695
879.436447	0.495522
879.620653	0.495990
879.804840	0.497071
879.989008	0.497162
880.173159	0.497061
880.357291	0.496737
880.541405	0.496774
880.725501	0.497118
880.909579	0.497509
881.093638	0.497339
881.277680	0.497585
881.461703	0.496905
881.645707	0.497275
881.829694	0.497481
882.013662	0.497853
882.197612	0.497123
882.381544	0.496811
882.565458	0.496773
882.749353	0.497599
882.933230	0.497425
883.117089	0.497866
883.300930	0.497681
883.484753	0.497385
883.668557	0.497672
883.852343	0.498458
884.036111	0.499165
884.219861	0.499521
884.403592	0.498536
884.587305	0.498631
884.771000	0.498955
884.954677	0.498844
885.138335	0.499188
885.321976	0.498942
885.505598	0.499253
885.689201	0.498940
885.872787	0.498436
886.056354	0.499109
886.239904	0.499653
886.423434	0.498825
886.606947	0.498867
886.790442	0.498964
886.973918	0.499536
887.157376	0.498576
887.340816	0.499302
887.524237	0.499622
887.707641	0.499490
887.891026	0.498918
888.074393	0.499849
888.257741	0.499979
888.441072	0.499320
888.624384	0.498907
888.807678	0.499921
888.990954	0.498703
889.174211	0.498489
889.357451	0.498478
889.540672	0.498773
889.723875	0.498184
889.907059	0.498223
890.090226	0.498859
890.273374	0.498954
890.456504	0.498196
890.639616	0.498454
890.822709	0.498451
891.005785	0.498662
891.188842	0.498329
891.371881	0.498558
891.554901	0.498854
891.737904	0.498423
891.920888	0.498275
892.103854	0.498628
892.286802	0.498264
892.469731	0.498534
892.652643	0.498070
892.835536	0.498041
893.018410	0.498326
893.201267	0.498325
893.384106	0.498711
893.566926	0.499082
893.749728	0.499142
893.932511	0.499644
894.115277	0.499408
894.298024	0.498746
894.480753	0.498626
894.663464	0.497870
894.846157	0.496988
895.028831	0.496150
895.211487	0.494901
895.394125	0.494589
895.576745	0.494213
895.759346	0.494402
895.941930	0.494832
896.124495	0.495074
896.307041	0.495063
896.489570	0.494793
896.672080	0.495085
896.854573	0.495309
897.037046	0.495236
897.219502	0.494456
897.401940	0.493962
897.584359	0.494458
897.766760	0.494520
897.949143	0.494204
898.131507	0.494511
898.313854	0.494027
898.496182	0.494030
898.678492	0.493685
898.860783	0.494324
899.043057	0.494513
899.225312	0.494442
899.407549	0.493629
899.589768	0.493197
899.771968	0.492943
899.954151	0.493201
900.136315	0.493192
900.318461	0.493029
900.500588	0.492554
900.682698	0.491429
900.864789	0.490233
901.046862	0.489981
901.228917	0.489081
901.410953	0.488880
901.592971	0.488311
901.774972	0.487378
901.956953	0.487386
902.138917	0.486767
902.320862	0.487007
902.502790	0.486820
902.684699	0.486309
902.866589	0.487088
903.048462	0.486755
903.230316	0.486517
903.412152	0.487124
903.593970	0.486537
903.775770	0.486463
903.957551	0.486190
904.139314	0.486300
904.321059	0.486990
904.502786	0.486491
904.684494	0.486286
904.866185	0.486978
905.047857	0.486242
905.229510	0.486637
905.411146	0.487080
905.592763	0.486646
905.774363	0.486043
905.955943	0.485571
906.137506	0.485429
906.319051	0.484953
906.500577	0.483446
906.682085	0.483282
906.863575	0.482070
907.045046	0.481546
907.226500	0.481464
907.407935	0.481390
907.589352	0.480144
907.770750	0.479871
907.952131	0.479745
908.133493	0.479545
908.314837	0.479988
908.496163	0.480021
908.677470	0.479443
908.858760	0.478174
909.040031	0.477300
909.221284	0.477708
909.402518	0.477216
909.583735	0.476086
909.764933	0.475048
909.946113	0.473638
910.127275	0.473419
910.308418	0.472630
910.489544	0.472361
910.670651	0.472099
910.851740	0.470763
911.032810	0.469778
911.213863	0.469651
911.394897	0.469142
911.575913	0.468468
911.756911	0.467789
911.937890	0.466944
912.118851	0.466398
912.299794	0.465572
912.480719	0.465325
912.661626	0.464785
912.842514	0.464235
913.023384	0.464232
913.204236	0.462938
913.385070	0.462175
913.565886	0.461724
913.746683	0.460925
913.927462	0.460147
914.108223	0.459195
914.288965	0.458759
914.469690	0.458287
914.650396	0.457177
914.831084	0.457431
915.011754	0.456435
915.192405	0.455958
915.373038	0.455111
915.553653	0.454783
915.734250	0.454138
915.914829	0.453070
916.095389	0.451979
916.275931	0.451551
916.456455	0.451267
916.636961	0.450356
916.817448	0.449975
916.997917	0.449947
917.178368	0.448830
917.358801	0.448175
917.539216	0.447754
917.719612	0.447824
917.899990	0.447245
918.080350	0.445797
918.260692	0.445597
918.441015	0.444079
918.621320	0.443353
918.801607	0.443199
918.981876	0.442356
919.162127	0.441972
919.342359	0.440977
919.522573	0.440695
919.702769	0.440112
919.882947	0.438770
920.063106	0.438809
920.243247	0.438240
920.423370	0.437512
920.603475	0.437039
920.783562	0.436194
920.963630	0.434772
921.143680	0.433324
921.323712	0.433217
921.503725	0.432972
921.683721	0.432079
921.863698	0.431208
922.043657	0.430482
922.223598	0.430034
922.403520	0.429356
922.583424	0.428773
922.763311	0.427885
922.943178	0.426011
923.123028	0.424919
923.302859	0.424370
923.482673	0.423804
923.662467	0.423113
923.842244	0.421943
924.022003	0.420857
924.201743	0.420325
924.381465	0.418822
924.561169	0.418727
924.740854	0.417965
924.920522	0.416844
925.100171	0.416252
925.279802	0.415206
925.459414	0.414200
925.639009	0.414031
925.818585	0.414016
925.998143	0.413959
926.177683	0.412848
926.357205	0.411795
926.536708	0.410194
926.716193	0.409387
926.895660	0.409441
927.075109	0.409317
927.254539	0.408231
927.433951	0.406644
927.613345	0.406078
927.792721	0.405001
927.972079	0.404525
928.151418	0.404211
928.330739	0.402537
928.510042	0.400537
928.689327	0.398852
928.868593	0.396969
929.047841	0.396119
929.227071	0.395443
929.406283	0.395078
929.585476	0.394408
929.764652	0.393003
929.943809	0.391576
930.122948	0.390703
930.302068	0.390003
930.481171	0.389846
930.660255	0.389027
930.839321	0.388373
931.018369	0.386441
931.197398	0.383674
931.376409	0.384895
931.555402	0.384662
931.734377	0.383972
931.913334	0.381924
932.092272	0.381493
932.271192	0.379781
932.450094	0.378047
932.628978	0.378021
932.807844	0.378249
932.986691	0.375544
933.165520	0.374458
933.344331	0.372743
933.523123	0.373492
933.701898	0.371772
933.880654	0.371271
934.059392	0.370637
934.238111	0.369782
934.416813	0.368624
934.595496	0.367309
934.774161	0.366772
934.952808	0.366613
935.131437	0.365375
935.310047	0.364387
935.488639	0.363169
935.667213	0.361510
935.845769	0.359556
936.024306	0.359219
936.202825	0.357857
936.381326	0.355771
936.559809	0.354289
936.738274	0.352777
936.916720	0.351626
937.095148	0.349744
937.273558	0.348343
937.451950	0.347645
937.630323	0.345760
937.808678	0.344782
937.987015	0.343106
938.165334	0.342550
938.343635	0.341305
938.521917	0.339791
938.700181	0.339207
938.878427	0.339582
939.056655	0.339366
939.234864	0.338718
939.413055	0.338892
939.591228	0.338192
939.769383	0.336390
939.947519	0.334892
940.125638	0.333931
940.303738	0.332450
940.481820	0.330325
940.659883	0.328111
940.837929	0.325820
941.015956	0.324326
941.193965	0.323493
941.371955	0.322401
941.549928	0.323188
941.727882	0.322272
941.905818	0.321719
942.083736	0.320188
942.261636	0.321147
942.439517	0.320292
942.617380	0.318918
942.795225	0.316658
942.973052	0.315728
943.150860	0.313447
943.328651	0.312644
943.506423	0.312847
943.684176	0.313447
943.861912	0.311442
944.039629	0.311547
944.217328	0.309616
944.395009	0.310275
944.572672	0.309387
944.750317	0.307282
944.927943	0.305226
945.105551	0.301194
945.283141	0.299032
945.460712	0.296915
945.638265	0.295992
945.815801	0.294673
945.993317	0.293765
946.170816	0.291317
946.348297	0.288335
946.525759	0.286933
946.703203	0.287219
946.880629	0.286845
947.058036	0.284874
947.235425	0.284021
947.412797	0.284773
947.590149	0.284885
947.767484	0.283248
947.944800	0.285498
948.122099	0.286240
948.299379	0.285190
948.476640	0.281665
948.653884	0.279932
948.831109	0.280490
949.008316	0.277077
949.185505	0.272815
949.362676	0.271246
949.539828	0.268512
949.716962	0.267853
949.894078	0.265833
950.071176	0.266843
950.248256	0.267802
950.425317	0.266285
950.602360	0.264852
950.779385	0.265680
950.956391	0.267225
951.133380	0.267332
951.310350	0.262523
951.487302	0.262837
951.664235	0.260965
951.841151	0.258833
952.018048	0.256005
952.194927	0.254843
952.371788	0.254100
952.548631	0.251876
952.725455	0.248657
952.902261	0.249426
953.079049	0.248355
953.255819	0.246017
953.432570	0.242699
953.609303	0.241996
953.786018	0.241330
953.962715	0.238636
954.139394	0.236951
954.316054	0.236140
954.492696	0.235508
954.669320	0.235889
954.845926	0.235636
955.022513	0.235692
955.199083	0.234710
955.375634	0.233197
955.552166	0.235020
955.728681	0.235100
955.905177	0.236683
956.081655	0.236544
956.258115	0.232866
956.434557	0.233715
956.610980	0.233098
956.787385	0.230679
956.963772	0.234330
957.140141	0.231180
957.316492	0.229072
957.492824	0.225827
957.669138	0.224832
957.845434	0.223938
958.021712	0.224603
958.197971	0.223290
958.374212	0.223983
958.550435	0.220413
958.726640	0.219965
958.902826	0.219905
959.078995	0.220860
959.255145	0.220226
959.431277	0.222649
959.607390	0.218787
959.783486	0.219489
959.959563	0.217116
960.135622	0.216237
960.311662	0.215551
960.487685	0.217383
960.663689	0.216231
960.839675	0.216217
961.015643	0.213686
961.191593	0.215197
961.367524	0.213179
961.543437	0.215627
961.719332	0.216237
961.895209	0.217298
962.071067	0.214010
962.246907	0.214538
962.422730	0.211219
962.598533	0.209522
962.774319	0.208764
962.950086	0.211117
963.125835	0.209346
963.301566	0.208519
963.477279	0.205994
963.652973	0.206478
963.828650	0.203165
964.004308	0.203075
964.179947	0.203000
964.355569	0.200836
964.531172	0.200514
964.706757	0.201723
964.882324	0.204588
965.057873	0.207939
965.233403	0.205133
965.408916	0.206308
965.584410	0.208644
965.759885	0.210043
965.935343	0.208818
966.110782	0.209073
966.286203	0.205133
966.461606	0.200956
966.636991	0.196766
966.812357	0.202806
966.987705	0.203519
967.163035	0.202874
967.338347	0.201638
967.513641	0.197329
967.688916	0.199942
967.864173	0.200862
968.039412	0.199866
968.214632	0.200824
968.389835	0.196542
968.565019	0.194950
968.740185	0.192022
968.915333	0.193588
969.090462	0.198129
969.265573	0.194648
969.440667	0.193883
969.615741	0.194584
969.790798	0.195120
969.965836	0.196259
970.140856	0.199148
970.315858	0.200529
970.490842	0.198570
970.665808	0.197224
970.840755	0.195690
971.015684	0.198386
971.190595	0.200145
971.365487	0.200889
971.540362	0.199604
971.715218	0.197761
971.890056	0.199129
972.064875	0.197234
972.239677	0.197727
972.414460	0.198758
972.589225	0.198034
972.763972	0.193119
972.938700	0.191541
973.113411	0.193661
973.288103	0.194551
973.462777	0.193998
973.637432	0.197214
973.812070	0.197531
973.986689	0.197418
974.161290	0.195656
974.335873	0.198203
974.510437	0.198967
974.684984	0.195426
974.859512	0.193973
975.034022	0.193827
975.208513	0.192624
975.382987	0.194523
975.557442	0.194500
975.731879	0.197691
975.906298	0.198269
976.080698	0.195286
976.255080	0.199077
976.429445	0.198555
976.603790	0.195566
976.778118	0.197176
976.952427	0.195154
977.126719	0.197853
977.300992	0.195358
977.475246	0.193728
977.649483	0.196030
977.823701	0.193500
977.997901	0.196319
978.172083	0.196446
978.346247	0.192024
978.520392	0.194475
978.694519	0.194359
978.868628	0.193024
979.042719	0.195945
979.216791	0.197048
979.390845	0.196201
979.564882	0.199034
979.738899	0.201406
979.912899	0.204714
980.086880	0.204839
980.260843	0.201298
980.434788	0.203059
980.608715	0.203094
980.782623	0.202101
980.956514	0.202404
981.130386	0.195582
981.304240	0.195044
981.478075	0.194329
981.651892	0.193722
981.825692	0.195952
981.999472	0.197732
982.173235	0.197038
982.346980	0.194772
982.520706	0.195661
982.694414	0.198076
982.868104	0.198807
983.041775	0.200496
983.215428	0.199087
983.389064	0.197872
983.562680	0.194808
983.736279	0.194939
983.909860	0.195791
984.083422	0.195508
984.256966	0.195288
984.430491	0.198914
984.603999	0.196069
984.777488	0.195864
984.950959	0.197187
985.124412	0.197956
985.297847	0.198150
985.471263	0.198770
985.644661	0.196445
985.818041	0.195817
985.991403	0.191876
986.164747	0.192148
986.338072	0.194537
986.511379	0.194623
986.684668	0.195819
986.857938	0.195058
987.031191	0.195352
987.204425	0.198022
987.377641	0.199354
987.550839	0.200581
987.724018	0.199951
987.897179	0.198080
988.070322	0.197098
988.243447	0.195489
988.416554	0.194445
988.589642	0.196126
988.762712	0.196663
988.935764	0.197729
989.108798	0.197677
989.281813	0.197944
989.454811	0.198408
989.627790	0.202365
989.800751	0.201576
989.973693	0.203685
990.146617	0.203301
990.319524	0.202222
990.492412	0.202630
990.665281	0.202878
990.838133	0.203520
991.010966	0.203515
991.183781	0.200402
991.356578	0.200091
991.529356	0.200992
991.702117	0.199777
991.874859	0.199813
992.047583	0.199862
992.220288	0.198174
992.392976	0.197528
992.565645	0.198783
992.738296	0.199309
992.910929	0.201382
993.083543	0.200326
993.256139	0.201184
993.428718	0.202410
993.601277	0.199248
993.773819	0.199743
993.946342	0.201436
994.118848	0.199831
994.291335	0.199664
994.463803	0.200159
994.636254	0.200808
994.808686	0.200355
994.981100	0.199510
995.153496	0.200463
995.325874	0.200312
995.498233	0.199856
995.670574	0.200704
995.842897	0.199067
996.015202	0.198260
996.187488	0.200008
996.359757	0.199985
996.532007	0.198369
996.704239	0.199024
996.876452	0.198722
997.048648	0.196969
997.220825	0.193056
997.392984	0.191576
997.565124	0.190821
997.737247	0.187283
997.909351	0.186660
998.081437	0.185321
998.253505	0.183023
998.425554	0.183656
998.597586	0.184995
998.769599	0.188848
998.941594	0.189838
999.113571	0.192347
999.285529	0.190000
999.457469	0.189437
999.629391	0.190774
999.801295	0.194193
999.973181	0.195272
1000.145048	0.194838
1000.316897	0.193024
1000.488728	0.194742
1000.660541	0.192107
1000.832335	0.195619
1001.004111	0.196237
1001.175869	0.197719
1001.347609	0.197478
1001.519331	0.196493
1001.691034	0.198266
1001.862719	0.199100
1002.034386	0.197127
1002.206035	0.198634
1002.377665	0.198301
1002.549277	0.197745
1002.720871	0.196920
1002.892447	0.195415
1003.064004	0.195083
1003.235544	0.195556
1003.407065	0.195902
1003.578568	0.197472
1003.750052	0.195808
1003.921519	0.197337
1004.092967	0.199331
1004.264397	0.201666
1004.435809	0.201155
1004.607202	0.201800
1004.778577	0.199572
1004.949934	0.199700
1005.121273	0.199408
1005.292594	0.201412
1005.463896	0.199014
1005.635180	0.197320
1005.806446	0.198129
1005.977694	0.199997
1006.148923	0.197394
1006.320135	0.196936
1006.491328	0.196599
1006.662503	0.196414
1006.833659	0.194904
1007.004798	0.195898
1007.175918	0.195401
1007.347020	0.192814
1007.518103	0.191800
1007.689169	0.193326
1007.860216	0.194718
1008.031245	0.192725
1008.202256	0.191704
1008.373248	0.191345
1008.544223	0.190389
1008.715179	0.189771
1008.886117	0.190807
1009.057036	0.191097
1009.227938	0.191610
1009.398821	0.192220
1009.569686	0.194196
1009.740533	0.195370
1009.911361	0.195675
1010.082172	0.196979
1010.252964	0.197710
1010.423738	0.196548
1010.594493	0.194759
1010.765231	0.194104
1010.935950	0.192610
1011.106651	0.193482
1011.277334	0.190668
1011.447998	0.191618
1011.618645	0.190952
1011.789273	0.189558
1011.959882	0.192317
1012.130474	0.193806
1012.301048	0.192589
1012.471603	0.191955
1012.642140	0.190989
1012.812658	0.193217
1012.983159	0.193449
1013.153641	0.191559
1013.324105	0.194158
1013.494551	0.192311
1013.664979	0.190099
1013.835388	0.189499
1014.005779	0.190103
1014.176152	0.188049
1014.346507	0.184861
1014.516843	0.184498
1014.687162	0.184462
1014.857462	0.183150
1015.027744	0.183118
1015.198007	0.187552
1015.368252	0.188966
1015.538480	0.190028
1015.708689	0.191029
1015.878879	0.195057
1016.049052	0.195288
1016.219206	0.195664
1016.389342	0.195635
1016.559460	0.194310
1016.729559	0.194516
1016.899641	0.195646
1017.069704	0.194699
1017.239749	0.196939
1017.409775	0.196525
1017.579784	0.194761
1017.749774	0.197451
1017.919746	0.199122
1018.089700	0.199255
1018.259635	0.197101
1018.429553	0.196586
1018.599452	0.195810
1018.769333	0.195696
1018.939195	0.194935
1019.109040	0.194322
1019.278866	0.193708
1019.448674	0.194118
1019.618464	0.194069
1019.788235	0.195150
1019.957989	0.195756
1020.127724	0.194788
1020.297441	0.192523
1020.467139	0.192205
1020.636820	0.194803
1020.806482	0.193394
1020.976126	0.190735
1021.145752	0.192033
1021.315359	0.191187
1021.484948	0.191979
1021.654519	0.196074
1021.824072	0.196086
1021.993607	0.195747
1022.163123	0.192503
1022.332621	0.194618
1022.502101	0.195863
1022.671563	0.193851
1022.841007	0.190780
1023.010432	0.188808
1023.179839	0.185075
1023.349228	0.186767
1023.518598	0.187498
1023.687951	0.189357
1023.857285	0.187840
1024.026601	0.187699
1024.195899	0.189665
1024.365178	0.192457
1024.534439	0.194989
1024.703682	0.198066
1024.872907	0.197902
1025.042114	0.197451
1025.211302	0.198893
1025.380472	0.197275
1025.549624	0.195913
1025.718758	0.194866
1025.887873	0.193086
1026.056970	0.186934
1026.226049	0.186040
1026.395110	0.186827
1026.564153	0.187858
1026.733177	0.185240
1026.902183	0.185742
1027.071171	0.187327
1027.240141	0.187371
1027.409092	0.187632
1027.578026	0.190102
1027.746940	0.189231
1027.915837	0.186957
1028.084716	0.187476
1028.253576	0.189303
1028.422418	0.190670
1028.591242	0.192361
1028.760048	0.193938
1028.928835	0.196923
1029.097604	0.197994
1029.266355	0.198059
1029.435088	0.198008
1029.603803	0.197420
1029.772499	0.196238
1029.941177	0.194093
1030.109837	0.190940
1030.278478	0.189834
1030.447102	0.187383
1030.615707	0.187139
1030.784294	0.187051
1030.952863	0.188421
1031.121413	0.188174
1031.289945	0.189889
1031.458460	0.192357
1031.626955	0.194149
1031.795433	0.193767
1031.963892	0.193667
1032.132334	0.193039
1032.300756	0.191987
1032.469161	0.190852
1032.637548	0.188761
1032.805916	0.186977
1032.974266	0.185387
1033.142598	0.183592
1033.310911	0.182992
1033.479207	0.184021
1033.647484	0.185506
1033.815743	0.187149
1033.983983	0.187817
1034.152206	0.191814
1034.320410	0.192320
1034.488596	0.189873
1034.656764	0.189661
1034.824914	0.191285
1034.993045	0.189840
1035.161158	0.191513
1035.329253	0.190327
1035.497330	0.187368
1035.665388	0.185540
1035.833428	0.185448
1036.001450	0.188672
1036.169454	0.188426
1036.337440	0.187085
1036.505407	0.188578
1036.673356	0.184378
1036.841287	0.184289
1037.009200	0.187761
1037.177094	0.188015
1037.344970	0.188129
1037.512828	0.187658
1037.680668	0.188106
1037.848489	0.187695
1038.016293	0.186833
1038.184078	0.187568
1038.351845	0.189115
1038.519593	0.189303
1038.687324	0.187972
1038.855036	0.188840
1039.022730	0.188679
1039.190406	0.190696
1039.358063	0.192403
1039.525702	0.192838
1039.693323	0.195808
1039.860926	0.194147
1040.028511	0.194296
1040.196077	0.193651
1040.363625	0.193534
1040.531155	0.194272
1040.698667	0.196173
1040.866161	0.194135
1041.033636	0.193561
1041.201093	0.193294
1041.368532	0.193887
1041.535952	0.193066
1041.703355	0.195564
1041.870739	0.194934
1042.038105	0.195302
1042.205452	0.193327
1042.372782	0.193270
1042.540093	0.195068
1042.707386	0.194757
1042.874661	0.193779
1043.041918	0.193217
1043.209156	0.192453
1043.376376	0.194494
1043.543578	0.193675
1043.710762	0.194361
1043.877927	0.194944
1044.045074	0.191731
1044.212203	0.191168
1044.379314	0.193166
1044.546407	0.192007
1044.713481	0.190215
1044.880537	0.187129
1045.047575	0.188354
1045.214595	0.187779
1045.381596	0.187447
1045.548579	0.189882
1045.715544	0.190208
1045.882491	0.188838
1046.049420	0.189711
1046.216330	0.190592
1046.383222	0.193744
1046.550096	0.191874
1046.716951	0.193147
1046.883789	0.194210
1047.050608	0.191821
1047.217409	0.191295
1047.384192	0.190750
1047.550956	0.189431
1047.717703	0.190617
1047.884431	0.188815
1048.051140	0.188644
1048.217832	0.187535
1048.384505	0.186751
1048.551161	0.188035
1048.717798	0.186659
1048.884416	0.186401
1049.051017	0.187204
1049.217599	0.186656
1049.384163	0.186719
1049.550709	0.186201
1049.717237	0.184037
1049.883746	0.185301
1050.050237	0.186453
1050.216710	0.187326
1050.383165	0.190722
1050.549601	0.191531
1050.716019	0.192086
1050.882420	0.192712
1051.048801	0.194137
1051.215165	0.194759
1051.381510	0.194522
1051.547837	0.194903
1051.714146	0.193650
1051.880437	0.189802
1052.046709	0.191316
1052.212964	0.192018
1052.379200	0.192140
1052.545417	0.192926
1052.711617	0.194641
1052.877798	0.194155
1053.043961	0.192591
1053.210106	0.194033
1053.376233	0.196390
1053.542341	0.197807
1053.708432	0.196283
1053.874504	0.197638
1054.040557	0.199090
1054.206593	0.200403
1054.372610	0.202856
1054.538609	0.203693
1054.704590	0.204494
1054.870553	0.205010
1055.036497	0.201956
1055.202424	0.201834
1055.368331	0.201315
1055.534221	0.197806
1055.700093	0.198067
1055.865946	0.199040
1056.031781	0.197518
1056.197598	0.198818
1056.363397	0.198781
1056.529177	0.198491
1056.694939	0.200852
1056.860683	0.200318
1057.026409	0.202048
1057.192116	0.200382
1057.357806	0.197486
1057.523477	0.200345
1057.689130	0.200192
1057.854764	0.200930
1058.020381	0.202911
1058.185979	0.202664
1058.351559	0.201820
1058.517120	0.201382
1058.682664	0.201457
1058.848189	0.198749
1059.013696	0.197391
1059.179185	0.196559
1059.344656	0.195926
1059.510108	0.192289
1059.675542	0.190371
1059.840958	0.188628
1060.006356	0.189836
1060.171735	0.187766
1060.337096	0.191183
1060.502439	0.190825
1060.667764	0.188861
1060.833071	0.184739
1060.998359	0.187529
1061.163629	0.188907
1061.328881	0.188501
1061.494115	0.186008
1061.659330	0.187695
1061.824527	0.186294
1061.989706	0.186639
1062.154867	0.185121
1062.320010	0.188837
1062.485134	0.190653
1062.650240	0.189083
1062.815328	0.193451
1062.980398	0.195355
1063.145449	0.194829
1063.310482	0.196779
1063.475497	0.196768
1063.640494	0.201150
1063.805473	0.200547
1063.970433	0.197965
1064.135375	0.202531
1064.300299	0.199770
1064.465204	0.200959
1064.630092	0.203401
1064.794961	0.202838
1064.959812	0.202138
1065.124645	0.202054
1065.289459	0.202599
1065.454256	0.202652
1065.619034	0.199060
1065.783793	0.199970
1065.948535	0.196429
1066.113258	0.192107
1066.277964	0.193101
1066.442651	0.193391
1066.607319	0.193032
1066.771970	0.194956
1066.936602	0.194703
1067.101216	0.194458
1067.265812	0.196319
1067.430389	0.200482
1067.594949	0.203061
1067.759490	0.201513
1067.924013	0.200693
1068.088518	0.199888
1068.253004	0.196611
1068.417472	0.196463
1068.581922	0.196457
1068.746354	0.193188
1068.910768	0.188867
1069.075163	0.186840
1069.239540	0.186240
1069.403899	0.186750
1069.568240	0.187086
1069.732562	0.188290
1069.896866	0.189351
1070.061152	0.188627
1070.225420	0.188487
1070.389670	0.188873
1070.553901	0.189353
1070.718114	0.189313
1070.882309	0.189282
1071.046486	0.191384
1071.210644	0.189548
1071.374784	0.193094
1071.538906	0.195554
1071.703010	0.196178
1071.867096	0.197943
1072.031163	0.200374
1072.195212	0.202393
1072.359243	0.205203
1072.523256	0.204747
1072.687250	0.204078
1072.851226	0.198710
1073.015184	0.194955
1073.179124	0.194946
1073.343045	0.197520
1073.506949	0.194561
1073.670834	0.190685
1073.834701	0.189891
1073.998549	0.187965
1074.162380	0.190008
1074.326192	0.192814
1074.489986	0.196214
1074.653761	0.197827
1074.817519	0.196996
1074.981258	0.200984
1075.144979	0.204376
1075.308682	0.202865
1075.472367	0.201742
1075.636033	0.205393
1075.799681	0.204782
1075.963311	0.206716
1076.126923	0.207270
1076.290516	0.204726
1076.454092	0.203493
1076.617649	0.208188
1076.781187	0.209450
1076.944708	0.208242
1077.108210	0.203266
1077.271695	0.202141
1077.435160	0.197236
1077.598608	0.197222
1077.762038	0.198206
1077.925449	0.196350
1078.088842	0.189614
1078.252217	0.190289
1078.415573	0.194220
1078.578912	0.193692
1078.742232	0.194994
1078.905534	0.195901
1079.068817	0.195460
1079.232083	0.195030
1079.395330	0.196766
1079.558559	0.196280
1079.721770	0.192076
1079.884962	0.192987
1080.048136	0.196272
1080.211293	0.198676
1080.374430	0.195285
1080.537550	0.194777
1080.700651	0.194833
1080.863735	0.192238
1081.026800	0.193483
1081.189846	0.198271
1081.352875	0.195957
1081.515885	0.194887
1081.678877	0.192148
1081.841851	0.198190
1082.004807	0.192378
1082.167744	0.194334
1082.330663	0.193650
1082.493564	0.192205
1082.656447	0.190475
1082.819312	0.188476
1082.982158	0.187876
1083.144986	0.185208
1083.307796	0.185064
1083.470587	0.191732
1083.633361	0.189182
1083.796116	0.193568
1083.958853	0.197174
1084.121571	0.196772
1084.284272	0.199876
1084.446954	0.201345
1084.609618	0.206597
1084.772264	0.204339
1084.934892	0.203155
1085.097501	0.204025
1085.260092	0.200774
1085.422665	0.202087
1085.585220	0.201716
1085.747756	0.200695
1085.910274	0.202729
1086.072774	0.200165
1086.235256	0.203073
1086.397720	0.207007
1086.560165	0.210646
1086.722592	0.212780
1086.885001	0.212234
1087.047392	0.213156
1087.209764	0.213098
1087.372119	0.210837
1087.534455	0.211170
1087.696772	0.206350
1087.859072	0.205164
1088.021353	0.205025
1088.183616	0.202894
1088.345861	0.203768
1088.508088	0.206730
1088.670296	0.208979
1088.832486	0.212755
1088.994658	0.213289
1089.156812	0.217906
1089.318948	0.216284
1089.481065	0.210567
1089.643164	0.212233
1089.805245	0.208800
1089.967308	0.209845
1090.129352	0.209297
1090.291378	0.207247
1090.453386	0.204850
1090.615376	0.204391
1090.777347	0.204376
1090.939301	0.204700
1091.101236	0.205179
1091.263153	0.202694
1091.425051	0.199612
1091.586932	0.200755
1091.748794	0.195212
1091.910638	0.200834
1092.072463	0.201273
1092.234271	0.204313
1092.396060	0.207724
1092.557831	0.209536
1092.719584	0.212571
1092.881319	0.215153
1093.043035	0.213196
1093.204733	0.218615
1093.366413	0.214783
1093.528075	0.217608
1093.689718	0.213753
1093.851343	0.212110
1094.012950	0.210943
1094.174539	0.212032
1094.336110	0.208301
1094.497662	0.210046
1094.659196	0.209387
1094.820712	0.213312
1094.982210	0.209303
1095.143689	0.208891
1095.305151	0.208834
1095.466594	0.213428
1095.628018	0.219906
1095.789425	0.222229
1095.950813	0.220231
1096.112183	0.218800
1096.273535	0.214508
1096.434869	0.214755
1096.596184	0.214514
1096.757482	0.217589
1096.918761	0.214663
1097.080021	0.210617
1097.241264	0.211585
1097.402488	0.208605
1097.563694	0.210452
1097.724882	0.211654
1097.886052	0.211941
1098.047203	0.211475
1098.208336	0.209069
1098.369451	0.204994
1098.530548	0.203207
1098.691627	0.201305
1098.852687	0.203212
1099.013729	0.204742
1099.174753	0.201513
1099.335758	0.203662
1099.496746	0.203995
1099.657715	0.204549
1099.818666	0.208376
1099.979599	0.207417
1100.140513	0.204432
1100.301409	0.204180
1100.462287	0.200605
1100.623147	0.204885
1100.783989	0.200874
1100.944812	0.200671
1101.105617	0.205801
1101.266404	0.208343
1101.427173	0.206783
1101.587923	0.212928
1101.748656	0.215603
1101.909370	0.220678
1102.070066	0.219778
1102.230743	0.218523
1102.391403	0.222535
1102.552044	0.221197
1102.712667	0.216129
1102.873271	0.217810
1103.033858	0.215731
1103.194426	0.212431
1103.354976	0.209234
1103.515508	0.206418
1103.676021	0.210118
1103.836517	0.207433
1103.996994	0.205585
1104.157453	0.207665
1104.317893	0.207609
1104.478316	0.203809
1104.638720	0.203821
1104.799106	0.201875
1104.959474	0.202011
1105.119823	0.201567
1105.280155	0.202468
1105.440468	0.204613
1105.600763	0.202082
1105.761039	0.206128
1105.921298	0.205657
1106.081538	0.209065
1106.241760	0.209871
1106.401964	0.215922
1106.562149	0.210758
1106.722316	0.209310
1106.882465	0.207928
1107.042596	0.213587
1107.202709	0.209685
1107.362803	0.212709
1107.522879	0.212242
1107.682937	0.215623
1107.842977	0.207961
1108.002999	0.213561
1108.163002	0.216866
1108.322987	0.219446
1108.482954	0.211435
1108.642902	0.209297
1108.802833	0.206262
1108.962745	0.204604
1109.122639	0.203855
1109.282515	0.213824
1109.442372	0.210007
1109.602211	0.205265
1109.762032	0.198153
1109.921835	0.200715
1110.081620	0.208312
1110.241386	0.214531
1110.401134	0.217850
1110.560864	0.212031
1110.720576	0.212239
1110.880269	0.205213
1111.039945	0.206032
1111.199602	0.205478
1111.359240	0.200919
1111.518861	0.189402
1111.678463	0.189836
1111.838047	0.187175
1111.997613	0.198005
1112.157161	0.192058
1112.316690	0.201107
1112.476202	0.201691
1112.635695	0.207501
1112.795169	0.215576
1112.954626	0.223683
1113.114064	0.217979
1113.273484	0.215984
1113.432886	0.207820
1113.592270	0.215360
1113.751635	0.221700
1113.910983	0.225432
1114.070312	0.222576
1114.229622	0.222056
1114.388915	0.214493
1114.548189	0.224528
1114.707445	0.222018
1114.866683	0.225637
1115.025903	0.221117
1115.185104	0.211943
1115.344287	0.206733
1115.503452	0.206805
1115.662599	0.210502
1115.821727	0.220560
1115.980838	0.214679
1116.139930	0.219283
1116.299004	0.219296
1116.458059	0.211152
1116.617097	0.217414
1116.776116	0.220216
1116.935117	0.222654
1117.094099	0.211970
1117.253064	0.207883
1117.412010	0.210221
1117.570938	0.219591
1117.729848	0.217347
1117.888740	0.223257
1118.047613	0.219413
1118.206468	0.222537
1118.365305	0.217643
1118.524124	0.223334
1118.682924	0.222824
1118.841707	0.224189
1119.000471	0.214250
1119.159216	0.213867
1119.317944	0.213388
1119.476653	0.214171
1119.635344	0.215150
1119.794017	0.221567
1119.952672	0.225014
1120.111308	0.222805
1120.269927	0.214637
1120.428527	0.212232
1120.587108	0.221835
1120.745672	0.225465
1120.904217	0.219618
1121.062744	0.220913
1121.221253	0.212706
1121.379744	0.211216
1121.538216	0.209959
1121.696671	0.211867
1121.855107	0.214592
1122.013524	0.208136
1122.171924	0.209528
1122.330305	0.217409
1122.488668	0.209943
1122.647013	0.220633
1122.805340	0.209167
1122.963648	0.213964
1123.121938	0.213579
1123.280210	0.220873
1123.438464	0.219308
1123.596700	0.219206
1123.754917	0.224136
1123.913116	0.229503
1124.071297	0.230394
1124.229459	0.246347
1124.387604	0.251054
1124.545730	0.255429
1124.703838	0.253226
1124.861928	0.251191
1125.019999	0.258791
1125.178052	0.255828
1125.336088	0.256096
1125.494104	0.258786
1125.652103	0.262020
1125.810083	0.258958
1125.968045	0.249167
1126.125989	0.241869
1126.283915	0.244633
1126.441823	0.227275
1126.599712	0.223603
1126.757583	0.219085
1126.915436	0.214345
1127.073270	0.220994
1127.231087	0.223180
1127.388885	0.231313
1127.546665	0.237613
1127.704426	0.244932
1127.862170	0.245211
1128.019895	0.254549
1128.177602	0.246442
1128.335291	0.233071
1128.492961	0.217400
1128.650614	0.210784
1128.808248	0.205638
1128.965864	0.200295
1129.123461	0.196827
1129.281041	0.199315
1129.438602	0.194831
1129.596145	0.203801
1129.753670	0.206602
1129.911176	0.198956
1130.068665	0.206507
1130.226135	0.206364
1130.383587	0.208277
1130.541020	0.203045
1130.698436	0.203522
1130.855833	0.206492
1131.013212	0.207706
1131.170573	0.217636
1131.327915	0.227631
1131.485239	0.228506
1131.642545	0.234021
1131.799833	0.241353
1131.957103	0.245175
1132.114354	0.244803
1132.271588	0.238159
1132.428803	0.238794
1132.585999	0.235947
1132.743178	0.235067
1132.900338	0.225453
1133.057480	0.231144
1133.214604	0.236106
1133.371710	0.238647
1133.528797	0.249277
1133.685866	0.261509
1133.842917	0.257726
1133.999950	0.251236
1134.156964	0.264004
1134.313960	0.268609
1134.470938	0.269449
1134.627898	0.257958
1134.784840	0.261448
1134.941763	0.245063
1135.098668	0.239424
1135.255555	0.233779
1135.412424	0.241238
1135.569274	0.229630
1135.726107	0.234872
1135.882921	0.226051
1136.039716	0.220684
1136.196494	0.211056
1136.353253	0.222315
1136.509995	0.226457
1136.666717	0.240720
1136.823422	0.246098
1136.980109	0.258697
1137.136777	0.261430
1137.293427	0.259123
1137.450059	0.262875
1137.606672	0.267606
1137.763267	0.255316
1137.919844	0.250446
1138.076403	0.251132
1138.232944	0.256789
1138.389466	0.244948
1138.545971	0.243455
1138.702457	0.227569
1138.858924	0.234519
1139.015374	0.230015
1139.171805	0.236568
1139.328218	0.238062
1139.484613	0.239909
1139.640990	0.215019
1139.797348	0.205859
1139.953688	0.206452
1140.110010	0.213512
1140.266314	0.207954
1140.422600	0.216752
1140.578867	0.204809
1140.735116	0.201676
1140.891347	0.195677
1141.047559	0.210957
1141.203754	0.209506
1141.359930	0.199412
1141.516088	0.212907
1141.672228	0.217442
1141.828349	0.206765
1141.984452	0.213354
1142.140537	0.221664
1142.296604	0.213364
1142.452653	0.206047
1142.608683	0.223825
1142.764695	0.226729
1142.920689	0.227769
1143.076665	0.233667
1143.232622	0.242531
1143.388562	0.235081
1143.544483	0.228013
1143.700385	0.230096
1143.856270	0.226734
1144.012136	0.224703
1144.167985	0.222022
1144.323814	0.212747
1144.479626	0.219267
1144.635420	0.211607
1144.791195	0.241358
1144.946952	0.234909
1145.102691	0.244829
1145.258411	0.258484
1145.414113	0.238913
1145.569798	0.234208
1145.725463	0.249696
1145.881111	0.231143
1146.036741	0.227259
1146.192352	0.206229
1146.347945	0.203185
1146.503519	0.190852
1146.659076	0.180851
1146.814614	0.188744
1146.970134	0.200001
1147.125636	0.198514
1147.281120	0.204279
1147.436585	0.209324
1147.592032	0.215384
1147.747461	0.207019
1147.902872	0.220138
1148.058265	0.231919
1148.213639	0.202740
1148.368995	0.204684
1148.524333	0.211923
1148.679653	0.200727
1148.834954	0.198103
1148.990237	0.200253
1149.145502	0.212979
1149.300749	0.211267
1149.455977	0.208909
1149.611188	0.248115
1149.766380	0.229121
1149.921553	0.210930
1150.076709	0.219546
1150.231846	0.230902
1150.386966	0.238245
1150.542066	0.224483
1150.697149	0.219036
1150.852214	0.218080
1151.007260	0.221802
1151.162288	0.226740
1151.317298	0.231451
1151.472289	0.237980
1151.627263	0.239458
1151.782218	0.230975
1151.937155	0.246650
1152.092073	0.247244
1152.246974	0.247893
1152.401856	0.214562
1152.556720	0.213282
1152.711566	0.216486
1152.866393	0.211980
1153.021203	0.219351
1153.175994	0.229919
1153.330767	0.244439
1153.485521	0.228646
1153.640258	0.233519
1153.794976	0.241528
1153.949676	0.255686
1154.104358	0.261870
1154.259021	0.256386
1154.413667	0.244047
1154.568294	0.217614
1154.722903	0.201937
1154.877493	0.224220
1155.032066	0.220530
1155.186620	0.229339
1155.341156	0.222951
1155.495674	0.207400
1155.650173	0.222706
1155.804654	0.222014
1155.959118	0.241182
1156.113562	0.245093
1156.267989	0.240688
1156.422397	0.241741
1156.576788	0.261958
1156.731160	0.249929
1156.885513	0.268330
1157.039849	0.239698
1157.194166	0.229373
1157.348465	0.215331
1157.502746	0.223136
1157.657009	0.215852
1157.811253	0.206678
1157.965479	0.196406
1158.119687	0.209421
1158.273877	0.183446
1158.428048	0.198995
1158.582201	0.221735
1158.736337	0.235297
1158.890453	0.206970
1159.044552	0.204991
1159.198632	0.209418
1159.352694	0.213955
1159.506738	0.234305
1159.660764	0.254926
1159.814771	0.248387
1159.968761	0.233043
1160.122732	0.212291
1160.276685	0.218460
1160.430619	0.254526
1160.584535	0.245007
1160.738434	0.233407
1160.892313	0.213038
1161.046175	0.201744
1161.200019	0.218354
1161.353844	0.191580
1161.507651	0.192279
1161.661440	0.218160
1161.815210	0.193837
1161.968962	0.208259
1162.122697	0.232428
1162.276412	0.231066
1162.430110	0.251354
1162.583789	0.233757
1162.737451	0.282627
1162.891094	0.291082
1163.044718	0.274475
1163.198325	0.277525
1163.351913	0.257873
1163.505483	0.244078
1163.659035	0.231110
1163.812569	0.226244
1163.966084	0.228242
1164.119581	0.216535
1164.273060	0.220389
1164.426521	0.218649
1164.579964	0.203028
1164.733388	0.213253
1164.886794	0.199272
1165.040182	0.208312
1165.193551	0.193883
1165.346903	0.197789
1165.500236	0.206163
1165.653551	0.211085
1165.806848	0.223312
1165.960126	0.233159
1166.113386	0.233057
1166.266628	0.266818
1166.419852	0.274684
1166.573058	0.275974
1166.726245	0.256154
1166.879414	0.227590
1167.032565	0.236809
1167.185698	0.216014
1167.338812	0.220394
1167.491909	0.231008
1167.644987	0.233029
1167.798046	0.229299
1167.951088	0.239136
1168.104111	0.264186
1168.257117	0.268966
1168.410103	0.245233
1168.563072	0.263320
1168.716023	0.249966
1168.868955	0.234097
1169.021869	0.237206
1169.174765	0.246214
1169.327642	0.234044
1169.480501	0.232855
1169.633343	0.243160
1169.786165	0.271812
1169.938970	0.267411
1170.091757	0.273611
1170.244525	0.268982
1170.397275	0.208436
1170.550007	0.191952
1170.702720	0.202433
1170.855415	0.176278
1171.008092	0.162203
1171.160751	0.140529
1171.313392	0.128556
1171.466014	0.078626
1171.618619	0.129405
1171.771205	0.129405
1171.923772	0.129405
