sample name	sample
index	283
start time	 02-25-2021  12:15:01 PM


Wavelength (nm)	Absorbance
494.344910	0.570017
494.563924	0.570017
494.782919	0.570017
495.001897	0.064548
495.220856	0.171543
495.439797	0.109723
495.658719	0.045872
495.877624	0.000227
496.096510	-0.011504
496.315378	0.017089
496.534227	0.037352
496.753059	0.001553
496.971872	0.063518
497.190667	0.099178
497.409444	0.108553
497.628203	0.112635
497.846943	0.111626
498.065665	0.113968
498.284369	0.115119
498.503055	0.114711
498.721723	0.114730
498.940372	0.115744
499.159003	0.116143
499.377616	0.117625
499.596210	0.116539
499.814787	0.117550
500.033345	0.116473
500.251885	0.116989
500.470406	0.116856
500.688910	0.115587
500.907395	0.115786
501.125862	0.115223
501.344311	0.113692
501.562742	0.114452
501.781154	0.114811
501.999548	0.116124
502.217924	0.115687
502.436282	0.115579
502.654621	0.116674
502.872942	0.116017
503.091245	0.116557
503.309530	0.117272
503.527797	0.117825
503.746045	0.117401
503.964275	0.116798
504.182487	0.116664
504.400681	0.117419
504.618856	0.117763
504.837013	0.117924
505.055152	0.118958
505.273273	0.119860
505.491376	0.120079
505.709460	0.120457
505.927526	0.120366
506.145574	0.120336
506.363604	0.120047
506.581615	0.119840
506.799608	0.119197
507.017583	0.118304
507.235540	0.117520
507.453478	0.117228
507.671399	0.117373
507.889301	0.117824
508.107185	0.118193
508.325050	0.118748
508.542898	0.118839
508.760727	0.119923
508.978538	0.120313
509.196330	0.120529
509.414105	0.121150
509.631861	0.121833
509.849599	0.121104
510.067319	0.121192
510.285021	0.121641
510.502704	0.121332
510.720369	0.121017
510.938016	0.121156
511.155645	0.121055
511.373255	0.120720
511.590848	0.120668
511.808422	0.121874
512.025977	0.121220
512.243515	0.120933
512.461034	0.122528
512.678536	0.122910
512.896018	0.123885
513.113483	0.123690
513.330930	0.124106
513.548358	0.124617
513.765768	0.124738
513.983160	0.126045
514.200533	0.127199
514.417889	0.126729
514.635226	0.127319
514.852545	0.127105
515.069845	0.128169
515.287128	0.128332
515.504392	0.127927
515.721638	0.128837
515.938866	0.128735
516.156075	0.127597
516.373267	0.128121
516.590440	0.128175
516.807594	0.128719
517.024731	0.129015
517.241850	0.129825
517.458950	0.130286
517.676032	0.130200
517.893095	0.131166
518.110141	0.132464
518.327168	0.132691
518.544177	0.132124
518.761168	0.131852
518.978141	0.131877
519.195095	0.132026
519.412031	0.131618
519.628949	0.131468
519.845849	0.130835
520.062731	0.130380
520.279594	0.130516
520.496439	0.132355
520.713266	0.132999
520.930074	0.132714
521.146865	0.131840
521.363637	0.132221
521.580391	0.132036
521.797127	0.132261
522.013844	0.132627
522.230543	0.132799
522.447224	0.131708
522.663887	0.132354
522.880532	0.133123
523.097158	0.134703
523.313766	0.135048
523.530356	0.135459
523.746928	0.136215
523.963481	0.136610
524.180017	0.137314
524.396534	0.138129
524.613032	0.137757
524.829513	0.137664
525.045975	0.137546
525.262420	0.137961
525.478845	0.138617
525.695253	0.138277
525.911643	0.138287
526.128014	0.138159
526.344367	0.138271
526.560702	0.138835
526.777018	0.140005
526.993316	0.139874
527.209597	0.140645
527.425858	0.140922
527.642102	0.141017
527.858328	0.141095
528.074535	0.141054
528.290724	0.141252
528.506894	0.141188
528.723047	0.141383
528.939181	0.141700
529.155297	0.141533
529.371395	0.141571
529.587475	0.142049
529.803536	0.142817
530.019579	0.143735
530.235604	0.144065
530.451611	0.144903
530.667600	0.144299
530.883570	0.144941
531.099522	0.145587
531.315456	0.146042
531.531372	0.146910
531.747269	0.146931
531.963148	0.146903
532.179009	0.147777
532.394852	0.147276
532.610676	0.148007
532.826482	0.148131
533.042271	0.148352
533.258040	0.148140
533.473792	0.148253
533.689525	0.148761
533.905240	0.149381
534.120937	0.148976
534.336616	0.150323
534.552277	0.150938
534.767919	0.150889
534.983543	0.151150
535.199149	0.152042
535.414736	0.152016
535.630306	0.152293
535.845857	0.152808
536.061390	0.153552
536.276904	0.153239
536.492401	0.153686
536.707879	0.154440
536.923339	0.155006
537.138781	0.154722
537.354204	0.155471
537.569610	0.155689
537.784997	0.155202
538.000366	0.155452
538.215716	0.155824
538.431049	0.155693
538.646363	0.156359
538.861659	0.156626
539.076937	0.157534
539.292196	0.157310
539.507438	0.157726
539.722661	0.158033
539.937866	0.158483
540.153052	0.158567
540.368221	0.159358
540.583371	0.159347
540.798503	0.159171
541.013617	0.159322
541.228712	0.160049
541.443789	0.160608
541.658848	0.160419
541.873889	0.160301
542.088912	0.160369
542.303916	0.160070
542.518902	0.160151
542.733870	0.160706
542.948820	0.161484
543.163752	0.161468
543.378665	0.161350
543.593560	0.162633
543.808437	0.162971
544.023295	0.163877
544.238136	0.164008
544.452958	0.164514
544.667762	0.164714
544.882548	0.164761
545.097315	0.165719
545.312064	0.166204
545.526795	0.166123
545.741508	0.166588
545.956203	0.166601
546.170879	0.167134
546.385537	0.167415
546.600177	0.167566
546.814799	0.167573
547.029402	0.167608
547.243988	0.167902
547.458555	0.168163
547.673103	0.168382
547.887634	0.168292
548.102146	0.168480
548.316640	0.168574
548.531116	0.168954
548.745574	0.169280
548.960013	0.169301
549.174435	0.169383
549.388838	0.169603
549.603222	0.169768
549.817589	0.170121
550.031937	0.170293
550.246267	0.170449
550.460579	0.170270
550.674873	0.170768
550.889148	0.170755
551.103405	0.171153
551.317644	0.171690
551.531865	0.172202
551.746068	0.172448
551.960252	0.172631
552.174418	0.173077
552.388566	0.173616
552.602696	0.173305
552.816807	0.173793
553.030900	0.173613
553.244975	0.173460
553.459032	0.173624
553.673070	0.173937
553.887091	0.174609
554.101093	0.174618
554.315077	0.174472
554.529042	0.174805
554.742990	0.174826
554.956919	0.175413
555.170830	0.175525
555.384722	0.175637
555.598597	0.176193
555.812453	0.176032
556.026291	0.175966
556.240111	0.176529
556.453913	0.176558
556.667696	0.177091
556.881461	0.177373
557.095208	0.178100
557.308937	0.178088
557.522647	0.178028
557.736339	0.178251
557.950013	0.178894
558.163669	0.179208
558.377307	0.179723
558.590926	0.179489
558.804527	0.179262
559.018110	0.179141
559.231675	0.179409
559.445221	0.179399
559.658749	0.179770
559.872259	0.179711
560.085751	0.179654
560.299225	0.179762
560.512680	0.179997
560.726117	0.180444
560.939536	0.180451
561.152937	0.180703
561.366319	0.180848
561.579683	0.180901
561.793029	0.181242
562.006357	0.181268
562.219667	0.181490
562.432958	0.181814
562.646231	0.182151
562.859486	0.182466
563.072723	0.182230
563.285941	0.182456
563.499141	0.182616
563.712323	0.182766
563.925487	0.183407
564.138632	0.183521
564.351760	0.183660
564.564869	0.183570
564.777960	0.183602
564.991032	0.183898
565.204087	0.184161
565.417123	0.184515
565.630141	0.184923
565.843140	0.185100
566.056122	0.185536
566.269085	0.185572
566.482030	0.185805
566.694957	0.186305
566.907866	0.186707
567.120756	0.186846
567.333628	0.186478
567.546482	0.186265
567.759318	0.186623
567.972135	0.186657
568.184935	0.187149
568.397716	0.187183
568.610478	0.187030
568.823223	0.187206
569.035949	0.187663
569.248657	0.188373
569.461347	0.188533
569.674019	0.188223
569.886672	0.188313
570.099308	0.188350
570.311925	0.188603
570.524523	0.189050
570.737104	0.189244
570.949666	0.189074
571.162210	0.188927
571.374736	0.189103
571.587244	0.189584
571.799733	0.189588
572.012205	0.189603
572.224658	0.189608
572.437092	0.189387
572.649509	0.189562
572.861907	0.189953
573.074287	0.190287
573.286649	0.190622
573.498993	0.190252
573.711318	0.190898
573.923625	0.191340
574.135914	0.191616
574.348185	0.191896
574.560438	0.192155
574.772672	0.192351
574.984888	0.192817
575.197086	0.192826
575.409266	0.193668
575.621427	0.193552
575.833570	0.193399
576.045695	0.193735
576.257802	0.194267
576.469890	0.194238
576.681961	0.194256
576.894013	0.194108
577.106046	0.194862
577.318062	0.194730
577.530059	0.194973
577.742039	0.195374
577.954000	0.195553
578.165942	0.195681
578.377867	0.195680
578.589773	0.196063
578.801661	0.196343
579.013531	0.196199
579.225382	0.196656
579.437216	0.196763
579.649031	0.196806
579.860828	0.197437
580.072606	0.197424
580.284367	0.197721
580.496109	0.197790
580.707833	0.198241
580.919539	0.198409
581.131227	0.198295
581.342896	0.198735
581.554547	0.199399
581.766180	0.199529
581.977795	0.200055
582.189391	0.200247
582.400969	0.200149
582.612529	0.200126
582.824071	0.200475
583.035595	0.200617
583.247100	0.200473
583.458587	0.200302
583.670056	0.200538
583.881506	0.200438
584.092939	0.201042
584.304353	0.201204
584.515749	0.200920
584.727127	0.200695
584.938486	0.200891
585.149828	0.201490
585.361151	0.201982
585.572456	0.201857
585.783742	0.202075
585.995011	0.201940
586.206261	0.202650
586.417493	0.202973
586.628706	0.203302
586.839902	0.203750
587.051079	0.203666
587.262238	0.203581
587.473379	0.203654
587.684502	0.203730
587.895606	0.203898
588.106692	0.203828
588.317760	0.204064
588.528810	0.204431
588.739841	0.204340
588.950855	0.204293
589.161850	0.204649
589.372827	0.204941
589.583785	0.204967
589.794726	0.205035
590.005648	0.205077
590.216552	0.205375
590.427437	0.205379
590.638305	0.205569
590.849154	0.205931
591.059985	0.205887
591.270798	0.205707
591.481592	0.206194
591.692369	0.206474
591.903127	0.206821
592.113867	0.206865
592.324588	0.207154
592.535292	0.207614
592.745977	0.207917
592.956644	0.207991
593.167293	0.208355
593.377923	0.208372
593.588536	0.208882
593.799130	0.209120
594.009706	0.209473
594.220263	0.210035
594.430803	0.209914
594.641324	0.210018
594.851827	0.210182
595.062312	0.210571
595.272778	0.210758
595.483227	0.210352
595.693657	0.210704
595.904069	0.211048
596.114462	0.210807
596.324838	0.211204
596.535195	0.211394
596.745534	0.211645
596.955855	0.211610
597.166157	0.211929
597.376441	0.212213
597.586707	0.211917
597.796955	0.211921
598.007185	0.212264
598.217396	0.212486
598.427589	0.212416
598.637764	0.212656
598.847921	0.212745
599.058060	0.212941
599.268180	0.213376
599.478282	0.213804
599.688366	0.213981
599.898431	0.213943
600.108479	0.213976
600.318508	0.214194
600.528519	0.214532
600.738511	0.214796
600.948486	0.214742
601.158442	0.214947
601.368380	0.215098
601.578300	0.215344
601.788202	0.215467
601.998085	0.215519
602.207950	0.215723
602.417797	0.215499
602.627626	0.215584
602.837436	0.215744
603.047228	0.215776
603.257002	0.215938
603.466758	0.216137
603.676496	0.216338
603.886215	0.216607
604.095916	0.216726
604.305599	0.217312
604.515264	0.217544
604.724910	0.218046
604.934538	0.218364
605.144148	0.218281
605.353740	0.218284
605.563314	0.218438
605.772869	0.218587
605.982406	0.218850
606.191925	0.219058
606.401425	0.218967
606.610908	0.218991
606.820372	0.219240
607.029818	0.219746
607.239246	0.219930
607.448655	0.219961
607.658047	0.219823
607.867420	0.219988
608.076775	0.219958
608.286111	0.220332
608.495430	0.220163
608.704730	0.219892
608.914012	0.219458
609.123275	0.219717
609.332521	0.220085
609.541748	0.220425
609.750957	0.220577
609.960148	0.220788
610.169321	0.220937
610.378475	0.221490
610.587611	0.221590
610.796729	0.221978
611.005829	0.221891
611.214910	0.221855
611.423974	0.222110
611.633019	0.221947
611.842045	0.221934
612.051054	0.221810
612.260044	0.221829
612.469017	0.222201
612.677970	0.222608
612.886906	0.222830
613.095824	0.222986
613.304723	0.223141
613.513604	0.223706
613.722467	0.224077
613.931311	0.224652
614.140138	0.224929
614.348946	0.225089
614.557736	0.225133
614.766507	0.225570
614.975261	0.225908
615.183996	0.226180
615.392713	0.226144
615.601412	0.225866
615.810092	0.225817
616.018754	0.226005
616.227399	0.226007
616.436024	0.226454
616.644632	0.226423
616.853222	0.226261
617.061793	0.226225
617.270346	0.226195
617.478880	0.226744
617.687397	0.227219
617.895895	0.227169
618.104375	0.227542
618.312837	0.227515
618.521281	0.227725
618.729706	0.228276
618.938113	0.228452
619.146502	0.229130
619.354873	0.229263
619.563226	0.229077
619.771560	0.229324
619.979876	0.229383
620.188174	0.229625
620.396453	0.229866
620.604715	0.229972
620.812958	0.230083
621.021183	0.230088
621.229390	0.230336
621.437578	0.230723
621.645748	0.231003
621.853900	0.231211
622.062034	0.231504
622.270150	0.231473
622.478247	0.231310
622.686326	0.231770
622.894387	0.231952
623.102430	0.232065
623.310454	0.232277
623.518461	0.232411
623.726449	0.232642
623.934418	0.232682
624.142370	0.233008
624.350303	0.233467
624.558218	0.233592
624.766115	0.233502
624.973994	0.233692
625.181855	0.233583
625.389697	0.233582
625.597521	0.233855
625.805327	0.234173
626.013114	0.234282
626.220883	0.234323
626.428634	0.234366
626.636367	0.234982
626.844082	0.235263
627.051778	0.235927
627.259457	0.236223
627.467117	0.236364
627.674758	0.236249
627.882382	0.236134
628.089987	0.236393
628.297574	0.236407
628.505143	0.236355
628.712694	0.236175
628.920226	0.236092
629.127740	0.236346
629.335236	0.236428
629.542714	0.236949
629.750174	0.237354
629.957615	0.237617
630.165038	0.237934
630.372443	0.238098
630.579829	0.238470
630.787198	0.238708
630.994548	0.238759
631.201880	0.238829
631.409194	0.238469
631.616489	0.238694
631.823766	0.238813
632.031025	0.238967
632.238266	0.239129
632.445489	0.239226
632.652693	0.239130
632.859879	0.239300
633.067047	0.239587
633.274197	0.240032
633.481329	0.240105
633.688442	0.239871
633.895537	0.240145
634.102614	0.240212
634.309672	0.240278
634.516713	0.240493
634.723735	0.240547
634.930739	0.240479
635.137724	0.240287
635.344692	0.240145
635.551641	0.240489
635.758572	0.240563
635.965485	0.240618
636.172379	0.240789
636.379256	0.240975
636.586114	0.241306
636.792954	0.241611
636.999775	0.242163
637.206579	0.242778
637.413364	0.242947
637.620131	0.243119
637.826880	0.243651
638.033610	0.243847
638.240323	0.244080
638.447017	0.244319
638.653692	0.244550
638.860350	0.244765
639.066990	0.244613
639.273611	0.245178
639.480214	0.245384
639.686798	0.245191
639.893365	0.245292
640.099913	0.245292
640.306443	0.245291
640.512955	0.245448
640.719449	0.245699
640.925924	0.246157
641.132381	0.245964
641.338820	0.245979
641.545241	0.246398
641.751644	0.246836
641.958028	0.247152
642.164394	0.247160
642.370742	0.247127
642.577071	0.247243
642.783383	0.247196
642.989676	0.247418
643.195951	0.247895
643.402207	0.247927
643.608446	0.248050
643.814666	0.248456
644.020868	0.248941
644.227052	0.249299
644.433218	0.249431
644.639365	0.249778
644.845494	0.249887
645.051605	0.249830
645.257698	0.250300
645.463772	0.250225
645.669828	0.250307
645.875866	0.250282
646.081886	0.250477
646.287888	0.250813
646.493871	0.250694
646.699836	0.251405
646.905783	0.251469
647.111712	0.251504
647.317622	0.252044
647.523514	0.252043
647.729388	0.252333
647.935244	0.252587
648.141082	0.252582
648.346901	0.252929
648.552702	0.252857
648.758485	0.253140
648.964250	0.253330
649.169996	0.253325
649.375724	0.253720
649.581434	0.254127
649.787126	0.254416
649.992800	0.254406
650.198455	0.254834
650.404092	0.254833
650.609711	0.254946
650.815311	0.255058
651.020894	0.255456
651.226458	0.255561
651.432004	0.255550
651.637532	0.255323
651.843041	0.255546
652.048532	0.255484
652.254006	0.255765
652.459460	0.256144
652.664897	0.256357
652.870315	0.256261
653.075716	0.256359
653.281097	0.256542
653.486461	0.256961
653.691807	0.257220
653.897134	0.257574
654.102443	0.257827
654.307734	0.257903
654.513006	0.258131
654.718261	0.258456
654.923497	0.258835
655.128715	0.259067
655.333915	0.259288
655.539096	0.259556
655.744259	0.259610
655.949404	0.259779
656.154531	0.260153
656.359640	0.260372
656.564730	0.260729
656.769802	0.260846
656.974856	0.261084
657.179892	0.261360
657.384909	0.261503
657.589908	0.261858
657.794889	0.261941
657.999852	0.262351
658.204797	0.262376
658.409723	0.262324
658.614631	0.262546
658.819521	0.262624
659.024393	0.262907
659.229246	0.263285
659.434081	0.263674
659.638898	0.264085
659.843697	0.263904
660.048478	0.264367
660.253240	0.264680
660.457984	0.264827
660.662710	0.265281
660.867417	0.265465
661.072107	0.265341
661.276778	0.265306
661.481431	0.265449
661.686066	0.265992
661.890682	0.266091
662.095281	0.266256
662.299861	0.266281
662.504422	0.266445
662.708966	0.266610
662.913491	0.267277
663.117999	0.267569
663.322488	0.267847
663.526958	0.267868
663.731411	0.268209
663.935845	0.268442
664.140261	0.268965
664.344659	0.268999
664.549038	0.269109
664.753400	0.269110
664.957743	0.269454
665.162068	0.269603
665.366375	0.269398
665.570663	0.269498
665.774933	0.269878
665.979185	0.269848
666.183419	0.269977
666.387635	0.270265
666.591832	0.270105
666.796011	0.270106
667.000172	0.270230
667.204315	0.270744
667.408439	0.271023
667.612545	0.271065
667.816634	0.271524
668.020703	0.271749
668.224755	0.271938
668.428788	0.272444
668.632803	0.272694
668.836800	0.272982
669.040779	0.272943
669.244739	0.272993
669.448681	0.273080
669.652605	0.273059
669.856511	0.273362
670.060399	0.273594
670.264268	0.274065
670.468119	0.274319
670.671952	0.274409
670.875767	0.274823
671.079563	0.274988
671.283341	0.275294
671.487101	0.275621
671.690843	0.275918
671.894567	0.275981
672.098272	0.276090
672.301959	0.276173
672.505628	0.276193
672.709278	0.276654
672.912911	0.276868
673.116525	0.276901
673.320121	0.277106
673.523699	0.277426
673.727258	0.277862
673.930799	0.277943
674.134322	0.278527
674.337827	0.279155
674.541314	0.279416
674.744782	0.280034
674.948232	0.280750
675.151664	0.280905
675.355078	0.281144
675.558474	0.281249
675.761851	0.281750
675.965210	0.281909
676.168551	0.281904
676.371873	0.281922
676.575178	0.281975
676.778464	0.281872
676.981732	0.282189
677.184981	0.282235
677.388213	0.282453
677.591426	0.282615
677.794621	0.282910
677.997798	0.283298
678.200956	0.283642
678.404097	0.284099
678.607219	0.284698
678.810323	0.285204
679.013408	0.285644
679.216476	0.286062
679.419525	0.286304
679.622556	0.286409
679.825569	0.286797
680.028563	0.287250
680.231540	0.287221
680.434498	0.287201
680.637438	0.287211
680.840359	0.287142
681.043263	0.287295
681.246148	0.287189
681.449015	0.287334
681.651864	0.287368
681.854694	0.287355
682.057506	0.287683
682.260301	0.287802
682.463076	0.288078
682.665834	0.288409
682.868573	0.288570
683.071295	0.289001
683.273998	0.288872
683.476682	0.288982
683.679349	0.288908
683.881997	0.288918
684.084627	0.288978
684.287239	0.288784
684.489833	0.288774
684.692408	0.288966
684.894965	0.288949
685.097504	0.289509
685.300025	0.289582
685.502527	0.289726
685.705012	0.289806
685.907478	0.289956
686.109925	0.290169
686.312355	0.290410
686.514766	0.290593
686.717159	0.290679
686.919534	0.290663
687.121891	0.291029
687.324230	0.291341
687.526550	0.291525
687.728852	0.291786
687.931136	0.291888
688.133401	0.292221
688.335649	0.292252
688.537878	0.292534
688.740089	0.292722
688.942281	0.293171
689.144456	0.293460
689.346612	0.293909
689.548750	0.294034
689.750870	0.294551
689.952971	0.294313
690.155055	0.294589
690.357120	0.294960
690.559167	0.295326
690.761195	0.295097
690.963206	0.295306
691.165198	0.295263
691.367172	0.295587
691.569128	0.295654
691.771065	0.296096
691.972984	0.296144
692.174885	0.296234
692.376768	0.296378
692.578633	0.296527
692.780479	0.296563
692.982308	0.296607
693.184118	0.296713
693.385909	0.296971
693.587683	0.297051
693.789438	0.297382
693.991175	0.297496
694.192894	0.297361
694.394595	0.297784
694.596277	0.297657
694.797941	0.297817
694.999587	0.298161
695.201215	0.298211
695.402824	0.298482
695.604416	0.298594
695.805989	0.298791
696.007543	0.299102
696.209080	0.299109
696.410598	0.299525
696.612099	0.299710
696.813580	0.299393
697.015044	0.299562
697.216490	0.299766
697.417917	0.299711
697.619326	0.299722
697.820717	0.299840
698.022089	0.299714
698.223444	0.300009
698.424780	0.300179
698.626098	0.300640
698.827397	0.300773
699.028679	0.300984
699.229942	0.301264
699.431187	0.301458
699.632414	0.301690
699.833622	0.302117
700.034813	0.302160
700.235985	0.302492
700.437139	0.302660
700.638274	0.302790
700.839392	0.303041
701.040491	0.303368
701.241572	0.303745
701.442635	0.303931
701.643679	0.304199
701.844706	0.304282
702.045714	0.304325
702.246704	0.304440
702.447675	0.304765
702.648629	0.304567
702.849564	0.304392
703.050481	0.304328
703.251380	0.304259
703.452260	0.304275
703.653122	0.304562
703.853966	0.304446
704.054792	0.304583
704.255600	0.304405
704.456389	0.304612
704.657160	0.305107
704.857913	0.304967
705.058648	0.305226
705.259365	0.305003
705.460063	0.304596
705.660743	0.304768
705.861405	0.304694
706.062048	0.304689
706.262674	0.304610
706.463281	0.304189
706.663870	0.304315
706.864441	0.304036
707.064993	0.304292
707.265527	0.304742
707.466043	0.304823
707.666541	0.305005
707.867021	0.305332
708.067482	0.305656
708.267925	0.305799
708.468350	0.305983
708.668757	0.306490
708.869145	0.306771
709.069516	0.306795
709.269868	0.306927
709.470201	0.306969
709.670517	0.307100
709.870814	0.306820
710.071093	0.306982
710.271354	0.306782
710.471597	0.306717
710.671821	0.306848
710.872028	0.306829
711.072216	0.306799
711.272385	0.306830
711.472537	0.306771
711.672670	0.306742
711.872785	0.306915
712.072882	0.307213
712.272961	0.306842
712.473021	0.306525
712.673063	0.306375
712.873087	0.306411
713.073093	0.306361
713.273081	0.306273
713.473050	0.306400
713.673001	0.305997
713.872934	0.305943
714.072849	0.306341
714.272745	0.306565
714.472623	0.306686
714.672483	0.306503
714.872325	0.306450
715.072148	0.306263
715.271954	0.306321
715.471741	0.306614
715.671509	0.306760
715.871260	0.306455
716.070992	0.306131
716.270707	0.306203
716.470403	0.306255
716.670080	0.306233
716.869740	0.306305
717.069381	0.306257
717.269004	0.306148
717.468609	0.305783
717.668195	0.305874
717.867764	0.305772
718.067314	0.305310
718.266846	0.305240
718.466360	0.305122
718.665855	0.305009
718.865332	0.304760
719.064791	0.304376
719.264232	0.304195
719.463655	0.304055
719.663059	0.304219
719.862445	0.304508
720.061813	0.304532
720.261163	0.304498
720.460494	0.304289
720.659807	0.304386
720.859102	0.304515
721.058379	0.304706
721.257638	0.304488
721.456878	0.304170
721.656100	0.304056
721.855304	0.303994
722.054490	0.304106
722.253657	0.304052
722.452806	0.303869
722.651937	0.303791
722.851050	0.303747
723.050145	0.303841
723.249221	0.303946
723.448279	0.304055
723.647319	0.303906
723.846340	0.303833
724.045344	0.304117
724.244329	0.303959
724.443296	0.304014
724.642245	0.303918
724.841175	0.303961
725.040088	0.304013
725.238982	0.303762
725.437857	0.303540
725.636715	0.303444
725.835554	0.303416
726.034376	0.303726
726.233179	0.303787
726.431963	0.303774
726.630730	0.303457
726.829478	0.303401
727.028208	0.303470
727.226920	0.303713
727.425614	0.303578
727.624289	0.303185
727.822946	0.303197
728.021585	0.303170
728.220206	0.302898
728.418808	0.303050
728.617392	0.302503
728.815958	0.302380
729.014506	0.302250
729.213036	0.301946
729.411547	0.301874
729.610040	0.301621
729.808515	0.301425
730.006972	0.301353
730.205410	0.301185
730.403831	0.301220
730.602233	0.300807
730.800616	0.300414
730.998982	0.300467
731.197329	0.300412
731.395658	0.300255
731.593969	0.299949
731.792262	0.299708
731.990536	0.299465
732.188793	0.299348
732.387031	0.299226
732.585250	0.299339
732.783452	0.298997
732.981635	0.298664
733.179800	0.298439
733.377947	0.298318
733.576076	0.298332
733.774186	0.298551
733.972278	0.298504
734.170352	0.298384
734.368408	0.297979
734.566446	0.297746
734.764465	0.297765
734.962466	0.297748
735.160449	0.297769
735.358413	0.297509
735.556360	0.296869
735.754288	0.296538
735.952198	0.296506
736.150090	0.296466
736.347963	0.296602
736.545818	0.296425
736.743655	0.296007
736.941474	0.295779
737.139275	0.295680
737.337057	0.295840
737.534821	0.295864
737.732567	0.295764
737.930295	0.295687
738.128005	0.295455
738.325696	0.295171
738.523369	0.295224
738.721024	0.294901
738.918660	0.294875
739.116279	0.294769
739.313879	0.294764
739.511461	0.294519
739.709024	0.294135
739.906570	0.294054
740.104097	0.293976
740.301606	0.293767
740.499097	0.293694
740.696569	0.293238
740.894024	0.292729
741.091460	0.292427
741.288878	0.292220
741.486277	0.292099
741.683659	0.291667
741.881022	0.291326
742.078367	0.291091
742.275694	0.291012
742.473002	0.290991
742.670293	0.291047
742.867565	0.290998
743.064819	0.290886
743.262054	0.290777
743.459272	0.290690
743.656471	0.290854
743.853652	0.290665
744.050815	0.290311
744.247959	0.290215
744.445085	0.289874
744.642194	0.289559
744.839283	0.289543
745.036355	0.289264
745.233408	0.289157
745.430444	0.288775
745.627461	0.288600
745.824459	0.288335
746.021440	0.288353
746.218402	0.288341
746.415346	0.288198
746.612272	0.288042
746.809180	0.287986
747.006069	0.287880
747.202940	0.287797
747.399793	0.287614
747.596628	0.287597
747.793444	0.287264
747.990243	0.287004
748.187023	0.286575
748.383784	0.286370
748.580528	0.286184
748.777253	0.285823
748.973960	0.285505
749.170649	0.285284
749.367320	0.285233
749.563973	0.285074
749.760607	0.284869
749.957223	0.284869
750.153821	0.284576
750.350400	0.284632
750.546962	0.284891
750.743505	0.284962
750.940030	0.284902
751.136536	0.284558
751.333025	0.284456
751.529495	0.284461
751.725947	0.284374
751.922381	0.284283
752.118796	0.284149
752.315194	0.283871
752.511573	0.283950
752.707934	0.283785
752.904276	0.283721
753.100601	0.283527
753.296907	0.283371
753.493195	0.283196
753.689465	0.282987
753.885716	0.282711
754.081949	0.282469
754.278164	0.281976
754.474361	0.281959
754.670540	0.281853
754.866700	0.281637
755.062843	0.281559
755.258967	0.281300
755.455072	0.281348
755.651160	0.281059
755.847229	0.280734
756.043280	0.280522
756.239313	0.280087
756.435328	0.279527
756.631324	0.279140
756.827302	0.278901
757.023262	0.279009
757.219204	0.278618
757.415127	0.278209
757.611033	0.278174
757.806920	0.277979
758.002788	0.277884
758.198639	0.278029
758.394471	0.277952
758.590286	0.277674
758.786081	0.277393
758.981859	0.277035
759.177619	0.277390
759.373360	0.277207
759.569083	0.277046
759.764788	0.277052
759.960474	0.276975
760.156143	0.276917
760.351793	0.276752
760.547425	0.276522
760.743038	0.276543
760.938634	0.276022
761.134211	0.275817
761.329770	0.275776
761.525311	0.275398
761.720833	0.275214
761.916338	0.275003
762.111824	0.274767
762.307292	0.274642
762.502741	0.274659
762.698173	0.274842
762.893586	0.274884
763.088981	0.274555
763.284358	0.274331
763.479716	0.274061
763.675057	0.274013
763.870379	0.273815
764.065683	0.273980
764.260968	0.273707
764.456236	0.273453
764.651485	0.273237
764.846716	0.273346
765.041929	0.273270
765.237123	0.273200
765.432299	0.272936
765.627457	0.273029
765.822597	0.272797
766.017719	0.272803
766.212822	0.272697
766.407907	0.272421
766.602974	0.272295
766.798023	0.272479
766.993054	0.272343
767.188066	0.272344
767.383060	0.272346
767.578036	0.272035
767.772993	0.271903
767.967933	0.271900
768.162854	0.271977
768.357757	0.271949
768.552642	0.271754
768.747508	0.271764
768.942356	0.271602
769.137186	0.271268
769.331998	0.271138
769.526792	0.271074
769.721567	0.270924
769.916324	0.270718
770.111063	0.270411
770.305784	0.270295
770.500486	0.270322
770.695171	0.270306
770.889837	0.270450
771.084484	0.270347
771.279114	0.270013
771.473725	0.269611
771.668318	0.269457
771.862893	0.269436
772.057450	0.269254
772.251988	0.268943
772.446509	0.268749
772.641011	0.268513
772.835494	0.268520
773.029960	0.268491
773.224407	0.268622
773.418836	0.268946
773.613247	0.269122
773.807640	0.269103
774.002014	0.269116
774.196370	0.268908
774.390708	0.268793
774.585028	0.268524
774.779330	0.268686
774.973613	0.268569
775.167878	0.268266
775.362125	0.267937
775.556354	0.267789
775.750564	0.267680
775.944756	0.267935
776.138930	0.267975
776.333086	0.267905
776.527223	0.267507
776.721343	0.267504
776.915444	0.267474
777.109526	0.267613
777.303591	0.267559
777.497637	0.267539
777.691666	0.267349
777.885676	0.267514
778.079667	0.267676
778.273641	0.267960
778.467596	0.267905
778.661533	0.267900
778.855452	0.267698
779.049352	0.267642
779.243235	0.267804
779.437099	0.268070
779.630945	0.267927
779.824773	0.267759
780.018582	0.267428
780.212373	0.267310
780.406146	0.267209
780.599901	0.267282
780.793638	0.267382
780.987356	0.267160
781.181056	0.266813
781.374738	0.266567
781.568402	0.266526
781.762047	0.266451
781.955674	0.266572
782.149283	0.266418
782.342874	0.266279
782.536447	0.266079
782.730001	0.266100
782.923537	0.266080
783.117055	0.266108
783.310555	0.266100
783.504036	0.266499
783.697499	0.266376
783.890944	0.266537
784.084371	0.266491
784.277780	0.266714
784.471170	0.266779
784.664542	0.266541
784.857896	0.266413
785.051231	0.266534
785.244549	0.266320
785.437848	0.266306
785.631129	0.266256
785.824392	0.266504
786.017636	0.266399
786.210863	0.266256
786.404071	0.266594
786.597260	0.266972
786.790432	0.267085
786.983585	0.267196
787.176721	0.267348
787.369838	0.267532
787.562936	0.267383
787.756017	0.267380
787.949079	0.267441
788.142123	0.267303
788.335149	0.267056
788.528156	0.267005
788.721146	0.266798
788.914117	0.266701
789.107070	0.266710
789.300005	0.266381
789.492921	0.266782
789.685819	0.267007
789.878699	0.267283
790.071561	0.267348
790.264405	0.267325
790.457230	0.267520
790.650037	0.267972
790.842826	0.267812
791.035597	0.268187
791.228349	0.267913
791.421084	0.267943
791.613800	0.268094
791.806497	0.268394
791.999177	0.268600
792.191838	0.268681
792.384481	0.268854
792.577106	0.269220
792.769713	0.269612
792.962301	0.269886
793.154871	0.270227
793.347423	0.270635
793.539957	0.270832
793.732473	0.271165
793.924970	0.271597
794.117449	0.271574
794.309910	0.271646
794.502353	0.271688
794.694777	0.271752
794.887183	0.271764
795.079571	0.271513
795.271941	0.271696
795.464293	0.271658
795.656626	0.271613
795.848941	0.271395
796.041238	0.271476
796.233516	0.271485
796.425777	0.271626
796.618019	0.271587
796.810243	0.271697
797.002449	0.271672
797.194636	0.271864
797.386805	0.271894
797.578956	0.272335
797.771089	0.272308
797.963204	0.272563
798.155300	0.272696
798.347378	0.272620
798.539438	0.272795
798.731480	0.272800
798.923503	0.272747
799.115509	0.272768
799.307496	0.272671
799.499465	0.272912
799.691415	0.272997
799.883348	0.273019
800.075262	0.273437
800.267158	0.273506
800.459035	0.273669
800.650895	0.274092
800.842736	0.274432
801.034559	0.274827
801.226364	0.274842
801.418150	0.275133
801.609919	0.275325
801.801669	0.275421
801.993401	0.275433
802.185114	0.275805
802.376810	0.275608
802.568487	0.275786
802.760146	0.275814
802.951787	0.276161
803.143409	0.276240
803.335014	0.276395
803.526600	0.276405
803.718168	0.276819
803.909717	0.276690
804.101249	0.277274
804.292762	0.277178
804.484257	0.277128
804.675734	0.277157
804.867192	0.277462
805.058632	0.277855
805.250054	0.278348
805.441458	0.278363
805.632844	0.278631
805.824211	0.278734
806.015561	0.279134
806.206891	0.279414
806.398204	0.279884
806.589499	0.279984
806.780775	0.280065
806.972033	0.280024
807.163273	0.280370
807.354495	0.280405
807.545698	0.280513
807.736883	0.280782
807.928050	0.281028
808.119199	0.280919
808.310329	0.281118
808.501441	0.281208
808.692535	0.281504
808.883611	0.281609
809.074669	0.281929
809.265708	0.282168
809.456729	0.282463
809.647732	0.282643
809.838717	0.283037
810.029683	0.283068
810.220632	0.283642
810.411562	0.284008
810.602474	0.284265
810.793367	0.284605
810.984242	0.284651
811.175100	0.284780
811.365938	0.285074
811.556759	0.285287
811.747562	0.285466
811.938346	0.285357
812.129112	0.285345
812.319860	0.285672
812.510589	0.285841
812.701300	0.286088
812.891994	0.286443
813.082668	0.286793
813.273325	0.287075
813.463964	0.287373
813.654584	0.287900
813.845186	0.287894
814.035769	0.288346
814.226335	0.288738
814.416882	0.289164
814.607411	0.289389
814.797922	0.289572
814.988415	0.289832
815.178889	0.290079
815.369345	0.290289
815.559783	0.290676
815.750203	0.290719
815.940605	0.291106
816.130988	0.291329
816.321353	0.291364
816.511700	0.291277
816.702028	0.291402
816.892339	0.291759
817.082631	0.291946
817.272905	0.292389
817.463161	0.292343
817.653398	0.292422
817.843617	0.292406
818.033819	0.292854
818.224001	0.293118
818.414166	0.293587
818.604312	0.293935
818.794440	0.294314
818.984550	0.294375
819.174642	0.294976
819.364716	0.295179
819.554771	0.295641
819.744808	0.295848
819.934827	0.296526
820.124827	0.296627
820.314810	0.296807
820.504774	0.296934
820.694720	0.297481
820.884647	0.297429
821.074557	0.297578
821.264448	0.297959
821.454321	0.298365
821.644176	0.298670
821.834012	0.299124
822.023831	0.299494
822.213631	0.300084
822.403413	0.300576
822.593176	0.301233
822.782922	0.301606
822.972649	0.301868
823.162358	0.302057
823.352049	0.302364
823.541721	0.302784
823.731376	0.303176
823.921012	0.303082
824.110629	0.303367
824.300229	0.303564
824.489811	0.303901
824.679374	0.303914
824.868919	0.304371
825.058445	0.304409
825.247954	0.304708
825.437444	0.305094
825.626916	0.305541
825.816370	0.305652
826.005806	0.306041
826.195223	0.306213
826.384622	0.306856
826.574003	0.306925
826.763366	0.307337
826.952711	0.307423
827.142037	0.307554
827.331345	0.307879
827.520635	0.308359
827.709906	0.308584
827.899160	0.308958
828.088395	0.309071
828.277612	0.309903
828.466810	0.310524
828.655991	0.310798
828.845153	0.311297
829.034297	0.311541
829.223423	0.311982
829.412531	0.312366
829.601620	0.313157
829.790691	0.313627
829.979744	0.313697
830.168779	0.314061
830.357795	0.314408
830.546793	0.314625
830.735773	0.315214
830.924735	0.315275
831.113679	0.315840
831.302604	0.315961
831.491511	0.316346
831.680400	0.316650
831.869271	0.316768
832.058123	0.317240
832.246957	0.317899
832.435773	0.318258
832.624571	0.318503
832.813351	0.318811
833.002112	0.319359
833.190855	0.319848
833.379580	0.320213
833.568287	0.320511
833.756975	0.320891
833.945645	0.321120
834.134297	0.321283
834.322931	0.321702
834.511547	0.322170
834.700144	0.322525
834.888723	0.322768
835.077284	0.323176
835.265826	0.323490
835.454351	0.323754
835.642857	0.323785
835.831345	0.324262
836.019815	0.324863
836.208266	0.325073
836.396699	0.325236
836.585114	0.325776
836.773511	0.326055
836.961890	0.326762
837.150250	0.327381
837.338592	0.327991
837.526916	0.328098
837.715222	0.328155
837.903510	0.328506
838.091779	0.329043
838.280030	0.329533
838.468263	0.330180
838.656477	0.330782
838.844674	0.330985
839.032852	0.331537
839.221012	0.332074
839.409153	0.332841
839.597277	0.333415
839.785382	0.333825
839.973469	0.334079
840.161538	0.334260
840.349589	0.334354
840.537621	0.334779
840.725635	0.334997
840.913631	0.335627
841.101609	0.336000
841.289568	0.336138
841.477509	0.336478
841.665432	0.336744
841.853337	0.337190
842.041224	0.337616
842.229092	0.338050
842.416942	0.338490
842.604774	0.338929
842.792588	0.339640
842.980383	0.340243
843.168160	0.340748
843.355919	0.341328
843.543660	0.341366
843.731382	0.341647
843.919087	0.342469
844.106773	0.342948
844.294441	0.343199
844.482090	0.343584
844.669722	0.343905
844.857335	0.344281
845.044930	0.344838
845.232507	0.346066
845.420065	0.346581
845.607605	0.346577
845.795127	0.346970
845.982631	0.347346
846.170117	0.347652
846.357584	0.348390
846.545033	0.348853
846.732464	0.349188
846.919877	0.349174
847.107272	0.349715
847.294648	0.350434
847.482006	0.351005
847.669346	0.351394
847.856667	0.351607
848.043971	0.352022
848.231256	0.352625
848.418523	0.353041
848.605771	0.353466
848.793002	0.353605
848.980214	0.353861
849.167408	0.353935
849.354584	0.354560
849.541742	0.354599
849.728881	0.354607
849.916002	0.354462
850.103105	0.354643
850.290190	0.355197
850.477256	0.355866
850.664304	0.356029
850.851334	0.356173
851.038346	0.356247
851.225340	0.357100
851.412315	0.357832
851.599272	0.358514
851.786211	0.358915
851.973132	0.358811
852.160034	0.359344
852.346918	0.359484
852.533784	0.359946
852.720632	0.360514
852.907462	0.361197
853.094273	0.361478
853.281066	0.361629
853.467841	0.361689
853.654598	0.362451
853.841336	0.362397
854.028056	0.363037
854.214758	0.363385
854.401442	0.363483
854.588107	0.363307
854.774755	0.363339
854.961384	0.363617
855.147995	0.364245
855.334587	0.364455
855.521162	0.365220
855.707718	0.365756
855.894256	0.366057
856.080775	0.366628
856.267277	0.366901
856.453760	0.367364
856.640225	0.367669
856.826672	0.368155
857.013101	0.368593
857.199511	0.368330
857.385903	0.368932
857.572277	0.369756
857.758633	0.370003
857.944970	0.370189
858.131290	0.370471
858.317591	0.371228
858.503873	0.371584
858.690138	0.371984
858.876384	0.372377
859.062612	0.372683
859.248822	0.372709
859.435014	0.373201
859.621188	0.373709
859.807343	0.374247
859.993480	0.374085
860.179599	0.374622
860.365699	0.374540
860.551781	0.375118
860.737846	0.375312
860.923891	0.376141
861.109919	0.376441
861.295929	0.376792
861.481920	0.377110
861.667893	0.377612
861.853848	0.377645
862.039784	0.378300
862.225702	0.378940
862.411603	0.379149
862.597484	0.378980
862.783348	0.379221
862.969193	0.379688
863.155021	0.379752
863.340830	0.380113
863.526620	0.380050
863.712393	0.380524
863.898147	0.380844
864.083883	0.381242
864.269601	0.381936
864.455301	0.382505
864.640982	0.382211
864.826645	0.382791
865.012290	0.382902
865.197917	0.383614
865.383526	0.383768
865.569116	0.383846
865.754688	0.383831
865.940242	0.383872
866.125777	0.383633
866.311295	0.384400
866.496794	0.384616
866.682275	0.385005
866.867737	0.385334
867.053182	0.385366
867.238608	0.385588
867.424016	0.385874
867.609406	0.386205
867.794778	0.386881
867.980131	0.387376
868.165466	0.387560
868.350783	0.388366
868.536082	0.388612
868.721362	0.389406
868.906625	0.389801
869.091869	0.390372
869.277094	0.390488
869.462302	0.390627
869.647491	0.390878
869.832662	0.391046
870.017815	0.390825
870.202950	0.391275
870.388066	0.391154
870.573165	0.391870
870.758245	0.392045
870.943306	0.392542
871.128350	0.392814
871.313375	0.392827
871.498382	0.393141
871.683371	0.393592
871.868342	0.393409
872.053294	0.393917
872.238229	0.393659
872.423144	0.393459
872.608042	0.393266
872.792922	0.393402
872.977783	0.393634
873.162626	0.393991
873.347451	0.394215
873.532258	0.394800
873.717046	0.394868
873.901816	0.394785
874.086568	0.395401
874.271302	0.396149
874.456017	0.396310
874.640715	0.396632
874.825394	0.396863
875.010055	0.397029
875.194697	0.397078
875.379322	0.397132
875.563928	0.397309
875.748516	0.397133
875.933085	0.396888
876.117637	0.397003
876.302170	0.397261
876.486685	0.397400
876.671182	0.397483
876.855661	0.397216
877.040121	0.397427
877.224563	0.398055
877.408987	0.397878
877.593393	0.398169
877.777780	0.398815
877.962150	0.398951
878.146501	0.399116
878.330833	0.399355
878.515148	0.399882
878.699444	0.399873
878.883722	0.399613
879.067982	0.400309
879.252224	0.400586
879.436447	0.400726
879.620653	0.400936
879.804840	0.400802
879.989008	0.400586
880.173159	0.400959
880.357291	0.401370
880.541405	0.401501
880.725501	0.401493
880.909579	0.401933
881.093638	0.401946
881.277680	0.401816
881.461703	0.401873
881.645707	0.402571
881.829694	0.402470
882.013662	0.402229
882.197612	0.402611
882.381544	0.403171
882.565458	0.402807
882.749353	0.403097
882.933230	0.403484
883.117089	0.404039
883.300930	0.403768
883.484753	0.404024
883.668557	0.404114
883.852343	0.404077
884.036111	0.404033
884.219861	0.404283
884.403592	0.403863
884.587305	0.403558
884.771000	0.403497
884.954677	0.403377
885.138335	0.403276
885.321976	0.403955
885.505598	0.404062
885.689201	0.403913
885.872787	0.404168
886.056354	0.404447
886.239904	0.404868
886.423434	0.404695
886.606947	0.405244
886.790442	0.405281
886.973918	0.405041
887.157376	0.405117
887.340816	0.405423
887.524237	0.405160
887.707641	0.405375
887.891026	0.405381
888.074393	0.405672
888.257741	0.405081
888.441072	0.405052
888.624384	0.404805
888.807678	0.404994
888.990954	0.404473
889.174211	0.404266
889.357451	0.403712
889.540672	0.403483
889.723875	0.403021
889.907059	0.403531
890.090226	0.403567
890.273374	0.403504
890.456504	0.403443
890.639616	0.403764
890.822709	0.403698
891.005785	0.404032
891.188842	0.403826
891.371881	0.404146
891.554901	0.404129
891.737904	0.403745
891.920888	0.403838
892.103854	0.403596
892.286802	0.403579
892.469731	0.403209
892.652643	0.403154
892.835536	0.403471
893.018410	0.403225
893.201267	0.403138
893.384106	0.403372
893.566926	0.402804
893.749728	0.402777
893.932511	0.402607
894.115277	0.403160
894.298024	0.403108
894.480753	0.402893
894.663464	0.402777
894.846157	0.402359
895.028831	0.401939
895.211487	0.402524
895.394125	0.402189
895.576745	0.402107
895.759346	0.401605
895.941930	0.401470
896.124495	0.401020
896.307041	0.400675
896.489570	0.400389
896.672080	0.400444
896.854573	0.399975
897.037046	0.400032
897.219502	0.399504
897.401940	0.399144
897.584359	0.398558
897.766760	0.398489
897.949143	0.398532
898.131507	0.398509
898.313854	0.398176
898.496182	0.397818
898.678492	0.397839
898.860783	0.397510
899.043057	0.397353
899.225312	0.397441
899.407549	0.397367
899.589768	0.397379
899.771968	0.396932
899.954151	0.396294
900.136315	0.395564
900.318461	0.394695
900.500588	0.394862
900.682698	0.394769
900.864789	0.394434
901.046862	0.394033
901.228917	0.393651
901.410953	0.393436
901.592971	0.393801
901.774972	0.393979
901.956953	0.393729
902.138917	0.393250
902.320862	0.392738
902.502790	0.392187
902.684699	0.392019
902.866589	0.391304
903.048462	0.390710
903.230316	0.390200
903.412152	0.389563
903.593970	0.389463
903.775770	0.389016
903.957551	0.389026
904.139314	0.388708
904.321059	0.388159
904.502786	0.388146
904.684494	0.388341
904.866185	0.387906
905.047857	0.388203
905.229510	0.387855
905.411146	0.387945
905.592763	0.387867
905.774363	0.387574
905.955943	0.387273
906.137506	0.386707
906.319051	0.386258
906.500577	0.385877
906.682085	0.385400
906.863575	0.384542
907.045046	0.383702
907.226500	0.382967
907.407935	0.382722
907.589352	0.382412
907.770750	0.382029
907.952131	0.381820
908.133493	0.381179
908.314837	0.380465
908.496163	0.380588
908.677470	0.380561
908.858760	0.379963
909.040031	0.379728
909.221284	0.379075
909.402518	0.378451
909.583735	0.377380
909.764933	0.377292
909.946113	0.376704
910.127275	0.375916
910.308418	0.375079
910.489544	0.374827
910.670651	0.374055
910.851740	0.373725
911.032810	0.373584
911.213863	0.373705
911.394897	0.372966
911.575913	0.372242
911.756911	0.372119
911.937890	0.371132
912.118851	0.370095
912.299794	0.369773
912.480719	0.368901
912.661626	0.368179
912.842514	0.366989
913.023384	0.366592
913.204236	0.366501
913.385070	0.365510
913.565886	0.365690
913.746683	0.365029
913.927462	0.364102
914.108223	0.363925
914.288965	0.363381
914.469690	0.363232
914.650396	0.362781
914.831084	0.362543
915.011754	0.362036
915.192405	0.361140
915.373038	0.361249
915.553653	0.360699
915.734250	0.359592
915.914829	0.358450
916.095389	0.357489
916.275931	0.357124
916.456455	0.355877
916.636961	0.355189
916.817448	0.354688
916.997917	0.354290
917.178368	0.353728
917.358801	0.353461
917.539216	0.353163
917.719612	0.352814
917.899990	0.351355
918.080350	0.351004
918.260692	0.350587
918.441015	0.350530
918.621320	0.349517
918.801607	0.348496
918.981876	0.348414
919.162127	0.348181
919.342359	0.347690
919.522573	0.347391
919.702769	0.346447
919.882947	0.345922
920.063106	0.344288
920.243247	0.343134
920.423370	0.342323
920.603475	0.340702
920.783562	0.339782
920.963630	0.338680
921.143680	0.338189
921.323712	0.337868
921.503725	0.337027
921.683721	0.336749
921.863698	0.336398
922.043657	0.335363
922.223598	0.335179
922.403520	0.334584
922.583424	0.333991
922.763311	0.333187
922.943178	0.331884
923.123028	0.331783
923.302859	0.330973
923.482673	0.330402
923.662467	0.330052
923.842244	0.328884
924.022003	0.328141
924.201743	0.327096
924.381465	0.326440
924.561169	0.325871
924.740854	0.324439
924.920522	0.323378
925.100171	0.322495
925.279802	0.322284
925.459414	0.321476
925.639009	0.320870
925.818585	0.320392
925.998143	0.318560
926.177683	0.318602
926.357205	0.317177
926.536708	0.316669
926.716193	0.315707
926.895660	0.314185
927.075109	0.313072
927.254539	0.312633
927.433951	0.312435
927.613345	0.311903
927.792721	0.310314
927.972079	0.309763
928.151418	0.308595
928.330739	0.307686
928.510042	0.306685
928.689327	0.305577
928.868593	0.303511
929.047841	0.301774
929.227071	0.301374
929.406283	0.300586
929.585476	0.299739
929.764652	0.299370
929.943809	0.298873
930.122948	0.298716
930.302068	0.298355
930.481171	0.297897
930.660255	0.296856
930.839321	0.296274
931.018369	0.295237
931.197398	0.293960
931.376409	0.292036
931.555402	0.290673
931.734377	0.289577
931.913334	0.289227
932.092272	0.288055
932.271192	0.287781
932.450094	0.286400
932.628978	0.286310
932.807844	0.286380
932.986691	0.286049
933.165520	0.284913
933.344331	0.284856
933.523123	0.283663
933.701898	0.283323
933.880654	0.282209
934.059392	0.281816
934.238111	0.280437
934.416813	0.278691
934.595496	0.278179
934.774161	0.276858
934.952808	0.274692
935.131437	0.274020
935.310047	0.272738
935.488639	0.270834
935.667213	0.269744
935.845769	0.268854
936.024306	0.268290
936.202825	0.267406
936.381326	0.266735
936.559809	0.266610
936.738274	0.265357
936.916720	0.264117
937.095148	0.263894
937.273558	0.262619
937.451950	0.261410
937.630323	0.260147
937.808678	0.258446
937.987015	0.257542
938.165334	0.256537
938.343635	0.255666
938.521917	0.253848
938.700181	0.252845
938.878427	0.250877
939.056655	0.249433
939.234864	0.248685
939.413055	0.246367
939.591228	0.245884
939.769383	0.244526
939.947519	0.243935
940.125638	0.243721
940.303738	0.243183
940.481820	0.242789
940.659883	0.241406
940.837929	0.240663
941.015956	0.241015
941.193965	0.239681
941.371955	0.237669
941.549928	0.235582
941.727882	0.235068
941.905818	0.232720
942.083736	0.231688
942.261636	0.231803
942.439517	0.229872
942.617380	0.229040
942.795225	0.227399
942.973052	0.226643
943.150860	0.225493
943.328651	0.223899
943.506423	0.223685
943.684176	0.221657
943.861912	0.218857
944.039629	0.217740
944.217328	0.216952
944.395009	0.215952
944.572672	0.215413
944.750317	0.214646
944.927943	0.213758
945.105551	0.212242
945.283141	0.212623
945.460712	0.211829
945.638265	0.210437
945.815801	0.208349
945.993317	0.207224
946.170816	0.205436
946.348297	0.203763
946.525759	0.202266
946.703203	0.201216
946.880629	0.198790
947.058036	0.197105
947.235425	0.195023
947.412797	0.195302
947.590149	0.194858
947.767484	0.194546
947.944800	0.192592
948.122099	0.191534
948.299379	0.189740
948.476640	0.188354
948.653884	0.187357
948.831109	0.187170
949.008316	0.185025
949.185505	0.181579
949.362676	0.179809
949.539828	0.179250
949.716962	0.176894
949.894078	0.176335
950.071176	0.176204
950.248256	0.176231
950.425317	0.174600
950.602360	0.175355
950.779385	0.176348
950.956391	0.174802
951.133380	0.174025
951.310350	0.173323
951.487302	0.171506
951.664235	0.169956
951.841151	0.167597
952.018048	0.166895
952.194927	0.163369
952.371788	0.161478
952.548631	0.159909
952.725455	0.158271
952.902261	0.158890
953.079049	0.158596
953.255819	0.156478
953.432570	0.156320
953.609303	0.155584
953.786018	0.154782
953.962715	0.153380
954.139394	0.153524
954.316054	0.152375
954.492696	0.149264
954.669320	0.146193
954.845926	0.146149
955.022513	0.143979
955.199083	0.143149
955.375634	0.142950
955.552166	0.141752
955.728681	0.141495
955.905177	0.140256
956.081655	0.140578
956.258115	0.141304
956.434557	0.140937
956.610980	0.141555
956.787385	0.139631
956.963772	0.138559
957.140141	0.137597
957.316492	0.135440
957.492824	0.134052
957.669138	0.132853
957.845434	0.131968
958.021712	0.130067
958.197971	0.128889
958.374212	0.129369
958.550435	0.128984
958.726640	0.128405
958.902826	0.127170
959.078995	0.126429
959.255145	0.125656
959.431277	0.125447
959.607390	0.125409
959.783486	0.124899
959.959563	0.123613
960.135622	0.121222
960.311662	0.121568
960.487685	0.122633
960.663689	0.123204
960.839675	0.121979
961.015643	0.121192
961.191593	0.120445
961.367524	0.119580
961.543437	0.119484
961.719332	0.119208
961.895209	0.118714
962.071067	0.115207
962.246907	0.116124
962.422730	0.117065
962.598533	0.116584
962.774319	0.116320
962.950086	0.116753
963.125835	0.115791
963.301566	0.118585
963.477279	0.118402
963.652973	0.120663
963.828650	0.119702
964.004308	0.118937
964.179947	0.117361
964.355569	0.116325
964.531172	0.115782
964.706757	0.116099
964.882324	0.112803
965.057873	0.111873
965.233403	0.109503
965.408916	0.109846
965.584410	0.112290
965.759885	0.113086
965.935343	0.114386
966.110782	0.112939
966.286203	0.110465
966.461606	0.109229
966.636991	0.108526
966.812357	0.109564
966.987705	0.107923
967.163035	0.107047
967.338347	0.105557
967.513641	0.103625
967.688916	0.105659
967.864173	0.106840
968.039412	0.108725
968.214632	0.108750
968.389835	0.109525
968.565019	0.111700
968.740185	0.109862
968.915333	0.110217
969.090462	0.113753
969.265573	0.111590
969.440667	0.114878
969.615741	0.114262
969.790798	0.116525
969.965836	0.115688
970.140856	0.114649
970.315858	0.113546
970.490842	0.115649
970.665808	0.114269
970.840755	0.113346
971.015684	0.110699
971.190595	0.110858
971.365487	0.110529
971.540362	0.111183
971.715218	0.109695
971.890056	0.109713
972.064875	0.108140
972.239677	0.106721
972.414460	0.106981
972.589225	0.108213
972.763972	0.107861
972.938700	0.106212
973.113411	0.105399
973.288103	0.105289
973.462777	0.106199
973.637432	0.107279
973.812070	0.108686
973.986689	0.108929
974.161290	0.106508
974.335873	0.105452
974.510437	0.106624
974.684984	0.105935
974.859512	0.108753
975.034022	0.107721
975.208513	0.106075
975.382987	0.104764
975.557442	0.106428
975.731879	0.108430
975.906298	0.108045
976.080698	0.108590
976.255080	0.108739
976.429445	0.107447
976.603790	0.110067
976.778118	0.111491
976.952427	0.112297
977.126719	0.112955
977.300992	0.110810
977.475246	0.113790
977.649483	0.112820
977.823701	0.111633
977.997901	0.110396
978.172083	0.107447
978.346247	0.106502
978.520392	0.107662
978.694519	0.106604
978.868628	0.107778
979.042719	0.105893
979.216791	0.106538
979.390845	0.107929
979.564882	0.107579
979.738899	0.111349
979.912899	0.113206
980.086880	0.112014
980.260843	0.113245
980.434788	0.112826
980.608715	0.114563
980.782623	0.112938
980.956514	0.111344
981.130386	0.113219
981.304240	0.110494
981.478075	0.109078
981.651892	0.107519
981.825692	0.104984
981.999472	0.104866
982.173235	0.102026
982.346980	0.101327
982.520706	0.103698
982.694414	0.102096
982.868104	0.103153
983.041775	0.104643
983.215428	0.105589
983.389064	0.106397
983.562680	0.106780
983.736279	0.107974
983.909860	0.109979
984.083422	0.109657
984.256966	0.108817
984.430491	0.108278
984.603999	0.107317
984.777488	0.107806
984.950959	0.110080
985.124412	0.110424
985.297847	0.110573
985.471263	0.111406
985.644661	0.111231
985.818041	0.112242
985.991403	0.112670
986.164747	0.110573
986.338072	0.112346
986.511379	0.109583
986.684668	0.111369
986.857938	0.111800
987.031191	0.109731
987.204425	0.109814
987.377641	0.108736
987.550839	0.109360
987.724018	0.111562
987.897179	0.109369
988.070322	0.109831
988.243447	0.108262
988.416554	0.106289
988.589642	0.106336
988.762712	0.107477
988.935764	0.110304
989.108798	0.109102
989.281813	0.109292
989.454811	0.110251
989.627790	0.111530
989.800751	0.111229
989.973693	0.113205
990.146617	0.114335
990.319524	0.111941
990.492412	0.109759
990.665281	0.109532
990.838133	0.110217
991.010966	0.110346
991.183781	0.108348
991.356578	0.106683
991.529356	0.106925
991.702117	0.106474
991.874859	0.108590
992.047583	0.108229
992.220288	0.108140
992.392976	0.105581
992.565645	0.105449
992.738296	0.106895
992.910929	0.109550
993.083543	0.109072
993.256139	0.109384
993.428718	0.108657
993.601277	0.110589
993.773819	0.112685
993.946342	0.113710
994.118848	0.112956
994.291335	0.112930
994.463803	0.112026
994.636254	0.113370
994.808686	0.113165
994.981100	0.112604
995.153496	0.111623
995.325874	0.109628
995.498233	0.110558
995.670574	0.110387
995.842897	0.111226
996.015202	0.109359
996.187488	0.107478
996.359757	0.107851
996.532007	0.109851
996.704239	0.109958
996.876452	0.108939
997.048648	0.108407
997.220825	0.107824
997.392984	0.106082
997.565124	0.107747
997.737247	0.106679
997.909351	0.105455
998.081437	0.104227
998.253505	0.103136
998.425554	0.103891
998.597586	0.104936
998.769599	0.107462
998.941594	0.108616
999.113571	0.108475
999.285529	0.108360
999.457469	0.108217
999.629391	0.108086
999.801295	0.108223
999.973181	0.109214
1000.145048	0.108396
1000.316897	0.105912
1000.488728	0.105730
1000.660541	0.107488
1000.832335	0.109942
1001.004111	0.110870
1001.175869	0.109487
1001.347609	0.111772
1001.519331	0.111417
1001.691034	0.110155
1001.862719	0.111180
1002.034386	0.110165
1002.206035	0.107671
1002.377665	0.106929
1002.549277	0.105851
1002.720871	0.105751
1002.892447	0.104533
1003.064004	0.104742
1003.235544	0.106024
1003.407065	0.104632
1003.578568	0.106291
1003.750052	0.108013
1003.921519	0.106806
1004.092967	0.108053
1004.264397	0.108806
1004.435809	0.108148
1004.607202	0.107106
1004.778577	0.107745
1004.949934	0.108490
1005.121273	0.107262
1005.292594	0.106515
1005.463896	0.106364
1005.635180	0.106257
1005.806446	0.106963
1005.977694	0.106286
1006.148923	0.105540
1006.320135	0.105418
1006.491328	0.105974
1006.662503	0.105473
1006.833659	0.105262
1007.004798	0.106206
1007.175918	0.106142
1007.347020	0.105763
1007.518103	0.105808
1007.689169	0.107921
1007.860216	0.106012
1008.031245	0.104548
1008.202256	0.105108
1008.373248	0.106238
1008.544223	0.107288
1008.715179	0.108396
1008.886117	0.108943
1009.057036	0.110740
1009.227938	0.111049
1009.398821	0.113837
1009.569686	0.115681
1009.740533	0.114799
1009.911361	0.114281
1010.082172	0.113187
1010.252964	0.113025
1010.423738	0.113857
1010.594493	0.113039
1010.765231	0.112600
1010.935950	0.109479
1011.106651	0.108773
1011.277334	0.109208
1011.447998	0.110034
1011.618645	0.109477
1011.789273	0.108994
1011.959882	0.107306
1012.130474	0.108421
1012.301048	0.108964
1012.471603	0.109836
1012.642140	0.109932
1012.812658	0.111265
1012.983159	0.109338
1013.153641	0.111099
1013.324105	0.110981
1013.494551	0.111178
1013.664979	0.110177
1013.835388	0.109020
1014.005779	0.108717
1014.176152	0.110180
1014.346507	0.109660
1014.516843	0.110826
1014.687162	0.110128
1014.857462	0.108635
1015.027744	0.108922
1015.198007	0.107951
1015.368252	0.108838
1015.538480	0.110312
1015.708689	0.107493
1015.878879	0.108544
1016.049052	0.107627
1016.219206	0.106965
1016.389342	0.108026
1016.559460	0.107467
1016.729559	0.109416
1016.899641	0.108403
1017.069704	0.107378
1017.239749	0.109955
1017.409775	0.108523
1017.579784	0.107544
1017.749774	0.107654
1017.919746	0.108874
1018.089700	0.108996
1018.259635	0.109063
1018.429553	0.108434
1018.599452	0.108821
1018.769333	0.106750
1018.939195	0.107659
1019.109040	0.107753
1019.278866	0.107305
1019.448674	0.106592
1019.618464	0.107318
1019.788235	0.106156
1019.957989	0.106896
1020.127724	0.108576
1020.297441	0.108855
1020.467139	0.109848
1020.636820	0.109717
1020.806482	0.111007
1020.976126	0.109999
1021.145752	0.108923
1021.315359	0.108113
1021.484948	0.108942
1021.654519	0.106820
1021.824072	0.108360
1021.993607	0.107225
1022.163123	0.110165
1022.332621	0.110681
1022.502101	0.110463
1022.671563	0.110730
1022.841007	0.110433
1023.010432	0.109471
1023.179839	0.108768
1023.349228	0.106874
1023.518598	0.105800
1023.687951	0.101621
1023.857285	0.101054
1024.026601	0.102195
1024.195899	0.102113
1024.365178	0.102840
1024.534439	0.103547
1024.703682	0.103351
1024.872907	0.103836
1025.042114	0.105303
1025.211302	0.108524
1025.380472	0.108677
1025.549624	0.108144
1025.718758	0.109054
1025.887873	0.108386
1026.056970	0.108491
1026.226049	0.110539
1026.395110	0.111882
1026.564153	0.109901
1026.733177	0.108223
1026.902183	0.108039
1027.071171	0.107638
1027.240141	0.106408
1027.409092	0.107330
1027.578026	0.107264
1027.746940	0.106357
1027.915837	0.105707
1028.084716	0.106683
1028.253576	0.106737
1028.422418	0.104834
1028.591242	0.107128
1028.760048	0.106967
1028.928835	0.106110
1029.097604	0.106108
1029.266355	0.105448
1029.435088	0.104291
1029.603803	0.103591
1029.772499	0.104200
1029.941177	0.106513
1030.109837	0.104004
1030.278478	0.104837
1030.447102	0.105285
1030.615707	0.104250
1030.784294	0.104543
1030.952863	0.104561
1031.121413	0.103525
1031.289945	0.103736
1031.458460	0.103022
1031.626955	0.103380
1031.795433	0.103298
1031.963892	0.105013
1032.132334	0.104716
1032.300756	0.104862
1032.469161	0.104778
1032.637548	0.106104
1032.805916	0.106228
1032.974266	0.105614
1033.142598	0.106578
1033.310911	0.106150
1033.479207	0.103912
1033.647484	0.103952
1033.815743	0.104129
1033.983983	0.105745
1034.152206	0.105981
1034.320410	0.106460
1034.488596	0.106628
1034.656764	0.105567
1034.824914	0.105634
1034.993045	0.106189
1035.161158	0.106050
1035.329253	0.105729
1035.497330	0.105764
1035.665388	0.106505
1035.833428	0.106317
1036.001450	0.106603
1036.169454	0.107624
1036.337440	0.107978
1036.505407	0.111014
1036.673356	0.112804
1036.841287	0.111364
1037.009200	0.111456
1037.177094	0.112342
1037.344970	0.112453
1037.512828	0.113542
1037.680668	0.113261
1037.848489	0.112521
1038.016293	0.110648
1038.184078	0.109956
1038.351845	0.110303
1038.519593	0.109047
1038.687324	0.106718
1038.855036	0.106542
1039.022730	0.106426
1039.190406	0.105426
1039.358063	0.106020
1039.525702	0.104043
1039.693323	0.103112
1039.860926	0.105260
1040.028511	0.105710
1040.196077	0.106279
1040.363625	0.107636
1040.531155	0.107992
1040.698667	0.108355
1040.866161	0.107583
1041.033636	0.107916
1041.201093	0.108474
1041.368532	0.107634
1041.535952	0.108238
1041.703355	0.108729
1041.870739	0.106367
1042.038105	0.105320
1042.205452	0.104960
1042.372782	0.106654
1042.540093	0.108578
1042.707386	0.107914
1042.874661	0.106305
1043.041918	0.105746
1043.209156	0.105613
1043.376376	0.107037
1043.543578	0.104880
1043.710762	0.104413
1043.877927	0.105331
1044.045074	0.104517
1044.212203	0.104402
1044.379314	0.106442
1044.546407	0.107322
1044.713481	0.105727
1044.880537	0.104986
1045.047575	0.107383
1045.214595	0.109323
1045.381596	0.107920
1045.548579	0.106191
1045.715544	0.108736
1045.882491	0.108082
1046.049420	0.108549
1046.216330	0.108735
1046.383222	0.108470
1046.550096	0.107476
1046.716951	0.106695
1046.883789	0.105824
1047.050608	0.107963
1047.217409	0.106166
1047.384192	0.108471
1047.550956	0.107889
1047.717703	0.109535
1047.884431	0.111102
1048.051140	0.110432
1048.217832	0.110412
1048.384505	0.110802
1048.551161	0.109371
1048.717798	0.110262
1048.884416	0.107150
1049.051017	0.107667
1049.217599	0.107399
1049.384163	0.106954
1049.550709	0.109339
1049.717237	0.109189
1049.883746	0.110149
1050.050237	0.111102
1050.216710	0.111021
1050.383165	0.111864
1050.549601	0.110490
1050.716019	0.110189
1050.882420	0.109751
1051.048801	0.108494
1051.215165	0.108808
1051.381510	0.107360
1051.547837	0.108548
1051.714146	0.107542
1051.880437	0.107867
1052.046709	0.108105
1052.212964	0.109921
1052.379200	0.111319
1052.545417	0.111098
1052.711617	0.110422
1052.877798	0.111368
1053.043961	0.111027
1053.210106	0.110781
1053.376233	0.110215
1053.542341	0.110588
1053.708432	0.108764
1053.874504	0.107041
1054.040557	0.107384
1054.206593	0.106725
1054.372610	0.106540
1054.538609	0.106245
1054.704590	0.107507
1054.870553	0.107266
1055.036497	0.107728
1055.202424	0.107858
1055.368331	0.108384
1055.534221	0.106171
1055.700093	0.107308
1055.865946	0.106600
1056.031781	0.107616
1056.197598	0.107116
1056.363397	0.107803
1056.529177	0.105896
1056.694939	0.106082
1056.860683	0.107390
1057.026409	0.109289
1057.192116	0.110785
1057.357806	0.111448
1057.523477	0.109566
1057.689130	0.109145
1057.854764	0.109296
1058.020381	0.111231
1058.185979	0.111528
1058.351559	0.110719
1058.517120	0.110927
1058.682664	0.110672
1058.848189	0.111951
1059.013696	0.112429
1059.179185	0.113158
1059.344656	0.113163
1059.510108	0.110595
1059.675542	0.109168
1059.840958	0.109265
1060.006356	0.110445
1060.171735	0.108584
1060.337096	0.106336
1060.502439	0.108938
1060.667764	0.109554
1060.833071	0.110262
1060.998359	0.111777
1061.163629	0.113763
1061.328881	0.115091
1061.494115	0.114164
1061.659330	0.114313
1061.824527	0.116185
1061.989706	0.112266
1062.154867	0.111325
1062.320010	0.110124
1062.485134	0.111052
1062.650240	0.108551
1062.815328	0.106351
1062.980398	0.107343
1063.145449	0.109770
1063.310482	0.110018
1063.475497	0.110466
1063.640494	0.110263
1063.805473	0.112354
1063.970433	0.111168
1064.135375	0.114598
1064.300299	0.116397
1064.465204	0.116918
1064.630092	0.116059
1064.794961	0.114905
1064.959812	0.114438
1065.124645	0.113204
1065.289459	0.111408
1065.454256	0.112052
1065.619034	0.110843
1065.783793	0.110269
1065.948535	0.108645
1066.113258	0.109463
1066.277964	0.110506
1066.442651	0.112675
1066.607319	0.113381
1066.771970	0.112567
1066.936602	0.113423
1067.101216	0.115040
1067.265812	0.112801
1067.430389	0.114088
1067.594949	0.111556
1067.759490	0.110777
1067.924013	0.109620
1068.088518	0.111950
1068.253004	0.113827
1068.417472	0.113337
1068.581922	0.112056
1068.746354	0.112948
1068.910768	0.111405
1069.075163	0.111174
1069.239540	0.111882
1069.403899	0.111649
1069.568240	0.110456
1069.732562	0.110409
1069.896866	0.110204
1070.061152	0.108709
1070.225420	0.109825
1070.389670	0.109990
1070.553901	0.113060
1070.718114	0.114528
1070.882309	0.115482
1071.046486	0.116496
1071.210644	0.118481
1071.374784	0.118619
1071.538906	0.122646
1071.703010	0.122162
1071.867096	0.124535
1072.031163	0.123268
1072.195212	0.122891
1072.359243	0.123887
1072.523256	0.123431
1072.687250	0.121654
1072.851226	0.121133
1073.015184	0.116788
1073.179124	0.116637
1073.343045	0.117754
1073.506949	0.117912
1073.670834	0.116450
1073.834701	0.116210
1073.998549	0.117631
1074.162380	0.117792
1074.326192	0.118833
1074.489986	0.120883
1074.653761	0.120884
1074.817519	0.116153
1074.981258	0.118967
1075.144979	0.119399
1075.308682	0.118986
1075.472367	0.118175
1075.636033	0.118367
1075.799681	0.120650
1075.963311	0.119147
1076.126923	0.118127
1076.290516	0.120188
1076.454092	0.116482
1076.617649	0.114882
1076.781187	0.117071
1076.944708	0.117490
1077.108210	0.113896
1077.271695	0.110985
1077.435160	0.113513
1077.598608	0.112782
1077.762038	0.113678
1077.925449	0.115238
1078.088842	0.118333
1078.252217	0.118430
1078.415573	0.118175
1078.578912	0.121411
1078.742232	0.122026
1078.905534	0.121321
1079.068817	0.123076
1079.232083	0.122155
1079.395330	0.120759
1079.558559	0.119450
1079.721770	0.115032
1079.884962	0.113959
1080.048136	0.114232
1080.211293	0.115287
1080.374430	0.115384
1080.537550	0.118303
1080.700651	0.118978
1080.863735	0.120458
1081.026800	0.120887
1081.189846	0.125759
1081.352875	0.124109
1081.515885	0.124440
1081.678877	0.125864
1081.841851	0.126716
1082.004807	0.122229
1082.167744	0.120062
1082.330663	0.117604
1082.493564	0.117273
1082.656447	0.116605
1082.819312	0.119461
1082.982158	0.118233
1083.144986	0.116573
1083.307796	0.114981
1083.470587	0.116491
1083.633361	0.118752
1083.796116	0.121327
1083.958853	0.120900
1084.121571	0.119092
1084.284272	0.121083
1084.446954	0.124299
1084.609618	0.124813
1084.772264	0.128448
1084.934892	0.131617
1085.097501	0.130521
1085.260092	0.130985
1085.422665	0.132453
1085.585220	0.134411
1085.747756	0.132528
1085.910274	0.129698
1086.072774	0.128785
1086.235256	0.126284
1086.397720	0.123525
1086.560165	0.125432
1086.722592	0.125620
1086.885001	0.124938
1087.047392	0.124959
1087.209764	0.124428
1087.372119	0.126672
1087.534455	0.127282
1087.696772	0.128188
1087.859072	0.130065
1088.021353	0.127644
1088.183616	0.126822
1088.345861	0.128267
1088.508088	0.129809
1088.670296	0.130143
1088.832486	0.131106
1088.994658	0.129122
1089.156812	0.127291
1089.318948	0.128386
1089.481065	0.127111
1089.643164	0.126254
1089.805245	0.125229
1089.967308	0.124731
1090.129352	0.123174
1090.291378	0.121009
1090.453386	0.122951
1090.615376	0.124371
1090.777347	0.124444
1090.939301	0.129054
1091.101236	0.131564
1091.263153	0.131160
1091.425051	0.130395
1091.586932	0.132978
1091.748794	0.136927
1091.910638	0.137824
1092.072463	0.137913
1092.234271	0.133949
1092.396060	0.131902
1092.557831	0.128464
1092.719584	0.130013
1092.881319	0.129014
1093.043035	0.129989
1093.204733	0.127734
1093.366413	0.129486
1093.528075	0.126712
1093.689718	0.127940
1093.851343	0.129370
1094.012950	0.132572
1094.174539	0.131029
1094.336110	0.132020
1094.497662	0.129624
1094.659196	0.128792
1094.820712	0.129749
1094.982210	0.132247
1095.143689	0.133099
1095.305151	0.134247
1095.466594	0.134275
1095.628018	0.135725
1095.789425	0.136267
1095.950813	0.138054
1096.112183	0.137516
1096.273535	0.136134
1096.434869	0.134183
1096.596184	0.133751
1096.757482	0.130760
1096.918761	0.130135
1097.080021	0.129012
1097.241264	0.127376
1097.402488	0.127788
1097.563694	0.129355
1097.724882	0.128760
1097.886052	0.128638
1098.047203	0.129298
1098.208336	0.127788
1098.369451	0.126065
1098.530548	0.128495
1098.691627	0.129120
1098.852687	0.127709
1099.013729	0.125174
1099.174753	0.126475
1099.335758	0.133771
1099.496746	0.133417
1099.657715	0.141607
1099.818666	0.144331
1099.979599	0.145499
1100.140513	0.141388
1100.301409	0.142158
1100.462287	0.144081
1100.623147	0.141794
1100.783989	0.136618
1100.944812	0.137699
1101.105617	0.135149
1101.266404	0.137990
1101.427173	0.134342
1101.587923	0.138479
1101.748656	0.141183
1101.909370	0.140735
1102.070066	0.140349
1102.230743	0.141485
1102.391403	0.142450
1102.552044	0.140167
1102.712667	0.135399
1102.873271	0.140033
1103.033858	0.144160
1103.194426	0.142883
1103.354976	0.141844
1103.515508	0.145546
1103.676021	0.146513
1103.836517	0.143820
1103.996994	0.142789
1104.157453	0.145442
1104.317893	0.143109
1104.478316	0.141014
1104.638720	0.137934
1104.799106	0.136712
1104.959474	0.133540
1105.119823	0.131364
1105.280155	0.134886
1105.440468	0.136573
1105.600763	0.135263
1105.761039	0.132018
1105.921298	0.130851
1106.081538	0.133095
1106.241760	0.138458
1106.401964	0.141020
1106.562149	0.145432
1106.722316	0.144938
1106.882465	0.144186
1107.042596	0.142959
1107.202709	0.143749
1107.362803	0.141611
1107.522879	0.141222
1107.682937	0.137749
1107.842977	0.139472
1108.002999	0.138075
1108.163002	0.136906
1108.322987	0.139394
1108.482954	0.139976
1108.642902	0.140118
1108.802833	0.141577
1108.962745	0.143028
1109.122639	0.142731
1109.282515	0.140177
1109.442372	0.137046
1109.602211	0.141699
1109.762032	0.139890
1109.921835	0.145871
1110.081620	0.146865
1110.241386	0.147021
1110.401134	0.147326
1110.560864	0.152890
1110.720576	0.152515
1110.880269	0.161137
1111.039945	0.157813
1111.199602	0.161517
1111.359240	0.158437
1111.518861	0.156639
1111.678463	0.157690
1111.838047	0.155204
1111.997613	0.149709
1112.157161	0.148276
1112.316690	0.140137
1112.476202	0.137714
1112.635695	0.141442
1112.795169	0.138730
1112.954626	0.146251
1113.114064	0.148258
1113.273484	0.147981
1113.432886	0.149007
1113.592270	0.156148
1113.751635	0.159079
1113.910983	0.154570
1114.070312	0.145542
1114.229622	0.150840
1114.388915	0.150034
1114.548189	0.147076
1114.707445	0.148765
1114.866683	0.154895
1115.025903	0.152722
1115.185104	0.155668
1115.344287	0.162143
1115.503452	0.166617
1115.662599	0.164941
1115.821727	0.161926
1115.980838	0.163899
1116.139930	0.165856
1116.299004	0.159809
1116.458059	0.157730
1116.617097	0.151724
1116.776116	0.151951
1116.935117	0.147280
1117.094099	0.146795
1117.253064	0.148745
1117.412010	0.148246
1117.570938	0.146871
1117.729848	0.150887
1117.888740	0.148194
1118.047613	0.149748
1118.206468	0.148237
1118.365305	0.150234
1118.524124	0.147731
1118.682924	0.142965
1118.841707	0.144948
1119.000471	0.142525
1119.159216	0.140225
1119.317944	0.143174
1119.476653	0.145443
1119.635344	0.150509
1119.794017	0.149245
1119.952672	0.153991
1120.111308	0.159830
1120.269927	0.159881
1120.428527	0.164010
1120.587108	0.159533
1120.745672	0.160774
1120.904217	0.163687
1121.062744	0.163157
1121.221253	0.163838
1121.379744	0.160897
1121.538216	0.156530
1121.696671	0.155868
1121.855107	0.152853
1122.013524	0.158658
1122.171924	0.151018
1122.330305	0.145804
1122.488668	0.140845
1122.647013	0.144675
1122.805340	0.141851
1122.963648	0.141358
1123.121938	0.138808
1123.280210	0.140073
1123.438464	0.137043
1123.596700	0.141343
1123.754917	0.144608
1123.913116	0.145508
1124.071297	0.145162
1124.229459	0.142102
1124.387604	0.142235
1124.545730	0.144269
1124.703838	0.148340
1124.861928	0.151646
1125.019999	0.152286
1125.178052	0.155844
1125.336088	0.161233
1125.494104	0.159015
1125.652103	0.165247
1125.810083	0.171317
1125.968045	0.173800
1126.125989	0.172747
1126.283915	0.170647
1126.441823	0.169838
1126.599712	0.168918
1126.757583	0.165362
1126.915436	0.161215
1127.073270	0.162015
1127.231087	0.159066
1127.388885	0.158219
1127.546665	0.158958
1127.704426	0.157063
1127.862170	0.156539
1128.019895	0.150617
1128.177602	0.148933
1128.335291	0.154959
1128.492961	0.158066
1128.650614	0.161604
1128.808248	0.164392
1128.965864	0.161830
1129.123461	0.168709
1129.281041	0.169299
1129.438602	0.178563
1129.596145	0.181138
1129.753670	0.172711
1129.911176	0.171380
1130.068665	0.165510
1130.226135	0.163519
1130.383587	0.159437
1130.541020	0.156230
1130.698436	0.157520
1130.855833	0.152819
1131.013212	0.156250
1131.170573	0.162177
1131.327915	0.162277
1131.485239	0.166665
1131.642545	0.161007
1131.799833	0.161986
1131.957103	0.160842
1132.114354	0.157492
1132.271588	0.166785
1132.428803	0.166060
1132.585999	0.170093
1132.743178	0.171418
1132.900338	0.169153
1133.057480	0.170258
1133.214604	0.172413
1133.371710	0.179168
1133.528797	0.185206
1133.685866	0.177040
1133.842917	0.177954
1133.999950	0.174992
1134.156964	0.176155
1134.313960	0.176211
1134.470938	0.179871
1134.627898	0.174952
1134.784840	0.163966
1134.941763	0.161739
1135.098668	0.165971
1135.255555	0.161143
1135.412424	0.163218
1135.569274	0.164226
1135.726107	0.163129
1135.882921	0.161474
1136.039716	0.168851
1136.196494	0.171527
1136.353253	0.171490
1136.509995	0.167336
1136.666717	0.165022
1136.823422	0.166565
1136.980109	0.161850
1137.136777	0.165313
1137.293427	0.171636
1137.450059	0.168461
1137.606672	0.169348
1137.763267	0.173564
1137.919844	0.167813
1138.076403	0.165904
1138.232944	0.165754
1138.389466	0.165468
1138.545971	0.167331
1138.702457	0.157010
1138.858924	0.156472
1139.015374	0.160688
1139.171805	0.156184
1139.328218	0.160614
1139.484613	0.168719
1139.640990	0.157491
1139.797348	0.152790
1139.953688	0.147438
1140.110010	0.154112
1140.266314	0.161871
1140.422600	0.159510
1140.578867	0.161375
1140.735116	0.156495
1140.891347	0.152952
1141.047559	0.164082
1141.203754	0.176662
1141.359930	0.180950
1141.516088	0.181980
1141.672228	0.171949
1141.828349	0.168989
1141.984452	0.164437
1142.140537	0.176938
1142.296604	0.176554
1142.452653	0.177285
1142.608683	0.169959
1142.764695	0.165799
1142.920689	0.158622
1143.076665	0.159286
1143.232622	0.163738
1143.388562	0.167113
1143.544483	0.154451
1143.700385	0.153030
1143.856270	0.156088
1144.012136	0.164758
1144.167985	0.171080
1144.323814	0.176831
1144.479626	0.176254
1144.635420	0.174476
1144.791195	0.168007
1144.946952	0.172425
1145.102691	0.175506
1145.258411	0.167884
1145.414113	0.158174
1145.569798	0.149335
1145.725463	0.151335
1145.881111	0.151981
1146.036741	0.152060
1146.192352	0.155532
1146.347945	0.159265
1146.503519	0.159046
1146.659076	0.165872
1146.814614	0.165705
1146.970134	0.164213
1147.125636	0.161026
1147.281120	0.163612
1147.436585	0.170067
1147.592032	0.170066
1147.747461	0.160632
1147.902872	0.167762
1148.058265	0.155451
1148.213639	0.151783
1148.368995	0.152544
1148.524333	0.147642
1148.679653	0.148997
1148.834954	0.147053
1148.990237	0.145504
1149.145502	0.146567
1149.300749	0.125658
1149.455977	0.128345
1149.611188	0.129944
1149.766380	0.134671
1149.921553	0.142365
1150.076709	0.137924
1150.231846	0.141355
1150.386966	0.149577
1150.542066	0.154086
1150.697149	0.177165
1150.852214	0.189229
1151.007260	0.196492
1151.162288	0.197804
1151.317298	0.190633
1151.472289	0.195788
1151.627263	0.187235
1151.782218	0.187527
1151.937155	0.186366
1152.092073	0.179368
1152.246974	0.177091
1152.401856	0.169736
1152.556720	0.162302
1152.711566	0.163744
1152.866393	0.163844
1153.021203	0.157651
1153.175994	0.160438
1153.330767	0.164531
1153.485521	0.167399
1153.640258	0.160848
1153.794976	0.164490
1153.949676	0.173738
1154.104358	0.180271
1154.259021	0.186476
1154.413667	0.192184
1154.568294	0.187347
1154.722903	0.189715
1154.877493	0.184404
1155.032066	0.182417
1155.186620	0.182970
1155.341156	0.186743
1155.495674	0.180036
1155.650173	0.177812
1155.804654	0.183204
1155.959118	0.178489
1156.113562	0.169523
1156.267989	0.166013
1156.422397	0.167750
1156.576788	0.163574
1156.731160	0.154699
1156.885513	0.152075
1157.039849	0.156683
1157.194166	0.151230
1157.348465	0.157626
1157.502746	0.156565
1157.657009	0.160381
1157.811253	0.166469
1157.965479	0.169464
1158.119687	0.177067
1158.273877	0.180222
1158.428048	0.176216
1158.582201	0.182344
1158.736337	0.172735
1158.890453	0.177672
1159.044552	0.184854
1159.198632	0.176569
1159.352694	0.176573
1159.506738	0.176437
1159.660764	0.187496
1159.814771	0.188882
1159.968761	0.176681
1160.122732	0.191282
1160.276685	0.192647
1160.430619	0.200039
1160.584535	0.208541
1160.738434	0.216381
1160.892313	0.201787
1161.046175	0.184383
1161.200019	0.179099
1161.353844	0.191307
1161.507651	0.180720
1161.661440	0.167623
1161.815210	0.152052
1161.968962	0.151999
1162.122697	0.146688
1162.276412	0.150711
1162.430110	0.156924
1162.583789	0.151234
1162.737451	0.147906
1162.891094	0.144645
1163.044718	0.150070
1163.198325	0.151519
1163.351913	0.154490
1163.505483	0.157344
1163.659035	0.159976
1163.812569	0.153043
1163.966084	0.156921
1164.119581	0.148934
1164.273060	0.163647
1164.426521	0.162517
1164.579964	0.154199
1164.733388	0.151268
1164.886794	0.144556
1165.040182	0.133162
1165.193551	0.144323
1165.346903	0.137860
1165.500236	0.148904
1165.653551	0.132752
1165.806848	0.138537
1165.960126	0.138606
1166.113386	0.130952
1166.266628	0.138504
1166.419852	0.142020
1166.573058	0.136222
1166.726245	0.141426
1166.879414	0.146514
1167.032565	0.156022
1167.185698	0.156339
1167.338812	0.170069
1167.491909	0.169864
1167.644987	0.173363
1167.798046	0.177457
1167.951088	0.174119
1168.104111	0.181711
1168.257117	0.182805
1168.410103	0.181719
1168.563072	0.180150
1168.716023	0.170307
1168.868955	0.187127
1169.021869	0.179902
1169.174765	0.195078
1169.327642	0.211707
1169.480501	0.195423
1169.633343	0.177530
1169.786165	0.183417
1169.938970	0.174634
1170.091757	0.192469
1170.244525	0.184190
1170.397275	0.197921
1170.550007	0.183939
1170.702720	0.181183
1170.855415	0.187513
1171.008092	0.191060
1171.160751	0.180347
1171.313392	0.185949
1171.466014	0.135643
1171.618619	0.132858
1171.771205	0.132858
1171.923772	0.132858
