sample name	sample
index	160
start time	 02-15-2021  03:08:48 PM


Wavelength (nm)	Absorbance
494.344910	-0.101811
494.563924	-0.101811
494.782919	-0.101811
495.001897	-0.103438
495.220856	NaN
495.439797	NaN
495.658719	NaN
495.877624	-0.869675
496.096510	NaN
496.315378	-0.922530
496.534227	NaN
496.753059	NaN
496.971872	NaN
497.190667	0.109893
497.409444	0.084867
497.628203	0.066199
497.846943	0.065286
498.065665	0.070157
498.284369	0.065601
498.503055	0.066503
498.721723	0.066392
498.940372	0.066272
499.159003	0.070451
499.377616	0.071305
499.596210	0.072336
499.814787	0.071437
500.033345	0.071259
500.251885	0.073223
500.470406	0.072913
500.688910	0.072781
500.907395	0.075020
501.125862	0.072243
501.344311	0.072113
501.562742	0.074379
501.781154	0.077380
501.999548	0.076080
502.217924	0.075797
502.436282	0.081003
502.654621	0.081984
502.872942	0.081946
503.091245	0.085528
503.309530	0.082323
503.527797	0.083253
503.746045	0.083201
503.964275	0.082826
504.182487	0.086193
504.400681	0.083882
504.618856	0.082813
504.837013	0.081892
505.055152	0.080985
505.273273	0.084230
505.491376	0.083389
505.709460	0.084254
505.927526	0.084742
506.145574	0.081506
506.363604	0.081793
506.581615	0.082935
506.799608	0.083036
507.017583	0.082120
507.235540	0.082110
507.453478	0.081714
507.671399	0.079478
507.889301	0.080719
508.107185	0.081236
508.325050	0.082084
508.542898	0.081106
508.760727	0.082805
508.978538	0.084637
509.196330	0.084421
509.414105	0.084473
509.631861	0.087117
509.849599	0.085198
510.067319	0.084665
510.285021	0.085373
510.502704	0.085887
510.720369	0.085150
510.938016	0.084160
511.155645	0.085408
511.373255	0.088345
511.590848	0.086830
511.808422	0.088067
512.025977	0.089441
512.243515	0.088238
512.461034	0.090839
512.678536	0.090757
512.896018	0.087278
513.113483	0.086275
513.330930	0.085310
513.548358	0.086756
513.765768	0.087888
513.983160	0.089074
514.200533	0.089656
514.417889	0.089009
514.635226	0.092546
514.852545	0.096708
515.069845	0.096464
515.287128	0.096393
515.504392	0.096505
515.721638	0.096952
515.938866	0.095888
516.156075	0.095689
516.373267	0.094474
516.590440	0.091962
516.807594	0.090468
517.024731	0.090589
517.241850	0.091846
517.458950	0.090260
517.676032	0.089626
517.893095	0.090792
518.110141	0.092007
518.327168	0.092130
518.544177	0.092626
518.761168	0.093823
518.978141	0.094565
519.195095	0.093702
519.412031	0.094449
519.628949	0.095168
519.845849	0.095173
520.062731	0.094074
520.279594	0.095103
520.496439	0.095622
520.713266	0.095407
520.930074	0.096039
521.146865	0.096168
521.363637	0.096136
521.580391	0.096293
521.797127	0.095790
522.013844	0.096201
522.230543	0.097298
522.447224	0.096835
522.663887	0.097710
522.880532	0.097544
523.097158	0.095885
523.313766	0.097125
523.530356	0.095767
523.746928	0.097969
523.963481	0.097878
524.180017	0.097736
524.396534	0.097912
524.613032	0.097636
524.829513	0.097059
525.045975	0.100281
525.262420	0.100760
525.478845	0.100939
525.695253	0.098646
525.911643	0.098593
526.128014	0.098978
526.344367	0.099398
526.560702	0.100453
526.777018	0.102499
526.993316	0.103003
527.209597	0.102215
527.425858	0.104647
527.642102	0.104592
527.858328	0.105716
528.074535	0.104991
528.290724	0.107269
528.506894	0.108215
528.723047	0.107280
528.939181	0.107869
529.155297	0.108880
529.371395	0.109477
529.587475	0.111885
529.803536	0.112305
530.019579	0.112634
530.235604	0.111573
530.451611	0.111134
530.667600	0.110592
530.883570	0.110527
531.099522	0.110530
531.315456	0.110024
531.531372	0.111048
531.747269	0.111776
531.963148	0.112019
532.179009	0.112758
532.394852	0.113558
532.610676	0.115425
532.826482	0.113623
533.042271	0.114149
533.258040	0.114011
533.473792	0.112124
533.689525	0.111779
533.905240	0.113378
534.120937	0.111946
534.336616	0.112717
534.552277	0.112642
534.767919	0.113246
534.983543	0.114353
535.199149	0.114552
535.414736	0.113976
535.630306	0.115573
535.845857	0.116058
536.061390	0.117949
536.276904	0.117285
536.492401	0.118531
536.707879	0.119551
536.923339	0.117994
537.138781	0.119321
537.354204	0.121532
537.569610	0.121263
537.784997	0.119866
538.000366	0.118888
538.215716	0.118731
538.431049	0.118439
538.646363	0.117507
538.861659	0.118778
539.076937	0.118453
539.292196	0.119405
539.507438	0.119282
539.722661	0.120457
539.937866	0.121002
540.153052	0.121912
540.368221	0.123494
540.583371	0.124578
540.798503	0.126329
541.013617	0.126548
541.228712	0.126075
541.443789	0.126688
541.658848	0.127347
541.873889	0.127719
542.088912	0.129147
542.303916	0.128158
542.518902	0.128948
542.733870	0.127653
542.948820	0.127885
543.163752	0.128744
543.378665	0.129571
543.593560	0.128742
543.808437	0.128836
544.023295	0.127782
544.238136	0.129140
544.452958	0.129436
544.667762	0.130170
544.882548	0.131313
545.097315	0.131891
545.312064	0.131856
545.526795	0.134179
545.741508	0.134965
545.956203	0.135054
546.170879	0.134822
546.385537	0.135140
546.600177	0.135648
546.814799	0.134579
547.029402	0.134072
547.243988	0.133016
547.458555	0.132421
547.673103	0.131890
547.887634	0.132754
548.102146	0.131917
548.316640	0.131608
548.531116	0.130789
548.745574	0.131952
548.960013	0.131844
549.174435	0.133410
549.388838	0.133503
549.603222	0.134290
549.817589	0.134705
550.031937	0.135809
550.246267	0.136140
550.460579	0.137718
550.674873	0.137389
550.889148	0.138578
551.103405	0.138113
551.317644	0.138749
551.531865	0.139122
551.746068	0.139137
551.960252	0.138623
552.174418	0.139703
552.388566	0.139167
552.602696	0.138959
552.816807	0.138404
553.030900	0.138528
553.244975	0.137305
553.459032	0.137619
553.673070	0.137878
553.887091	0.138665
554.101093	0.137963
554.315077	0.138053
554.529042	0.139261
554.742990	0.140369
554.956919	0.141051
555.170830	0.142236
555.384722	0.142137
555.598597	0.141405
555.812453	0.142188
556.026291	0.143231
556.240111	0.142999
556.453913	0.142364
556.667696	0.142098
556.881461	0.142046
557.095208	0.140617
557.308937	0.141235
557.522647	0.143189
557.736339	0.142673
557.950013	0.141691
558.163669	0.143049
558.377307	0.144429
558.590926	0.144087
558.804527	0.145530
559.018110	0.147086
559.231675	0.147007
559.445221	0.146215
559.658749	0.146003
559.872259	0.146880
560.085751	0.146237
560.299225	0.146348
560.512680	0.146634
560.726117	0.145702
560.939536	0.147667
561.152937	0.147615
561.366319	0.148798
561.579683	0.149305
561.793029	0.149640
562.006357	0.150482
562.219667	0.150310
562.432958	0.149307
562.646231	0.149791
562.859486	0.148565
563.072723	0.149007
563.285941	0.148375
563.499141	0.149007
563.712323	0.149350
563.925487	0.149161
564.138632	0.149118
564.351760	0.150831
564.564869	0.151342
564.777960	0.153047
564.991032	0.153785
565.204087	0.154616
565.417123	0.154845
565.630141	0.154815
565.843140	0.155861
566.056122	0.156017
566.269085	0.156255
566.482030	0.156535
566.694957	0.155164
566.907866	0.155017
567.120756	0.154757
567.333628	0.154820
567.546482	0.154456
567.759318	0.153063
567.972135	0.153322
568.184935	0.153187
568.397716	0.152690
568.610478	0.153337
568.823223	0.152708
569.035949	0.152046
569.248657	0.152473
569.461347	0.153124
569.674019	0.153940
569.886672	0.154742
570.099308	0.154883
570.311925	0.156400
570.524523	0.156430
570.737104	0.156327
570.949666	0.157488
571.162210	0.156552
571.374736	0.157783
571.587244	0.157941
571.799733	0.157110
572.012205	0.158011
572.224658	0.156065
572.437092	0.156559
572.649509	0.157956
572.861907	0.158185
573.074287	0.159208
573.286649	0.159028
573.498993	0.159776
573.711318	0.160318
573.923625	0.159919
574.135914	0.161377
574.348185	0.161860
574.560438	0.162379
574.772672	0.161463
574.984888	0.160851
575.197086	0.159646
575.409266	0.159552
575.621427	0.160159
575.833570	0.160404
576.045695	0.160046
576.257802	0.160010
576.469890	0.158634
576.681961	0.160189
576.894013	0.161295
577.106046	0.162665
577.318062	0.163003
577.530059	0.163035
577.742039	0.162909
577.954000	0.162595
578.165942	0.161668
578.377867	0.163298
578.589773	0.162671
578.801661	0.162829
579.013531	0.163219
579.225382	0.163598
579.437216	0.164015
579.649031	0.163313
579.860828	0.164317
580.072606	0.166449
580.284367	0.166090
580.496109	0.166775
580.707833	0.165707
580.919539	0.165498
581.131227	0.165458
581.342896	0.164352
581.554547	0.165377
581.766180	0.165375
581.977795	0.163451
582.189391	0.164364
582.400969	0.165044
582.612529	0.166513
582.824071	0.165929
583.035595	0.166025
583.247100	0.166905
583.458587	0.167514
583.670056	0.167612
583.881506	0.167992
584.092939	0.167118
584.304353	0.166084
584.515749	0.166557
584.727127	0.167982
584.938486	0.167821
585.149828	0.168138
585.361151	0.168201
585.572456	0.169720
585.783742	0.170593
585.995011	0.170977
586.206261	0.171582
586.417493	0.171885
586.628706	0.172334
586.839902	0.172404
587.051079	0.172591
587.262238	0.173019
587.473379	0.172221
587.684502	0.172472
587.895606	0.173338
588.106692	0.174134
588.317760	0.173083
588.528810	0.172639
588.739841	0.173314
588.950855	0.173902
589.161850	0.173362
589.372827	0.173832
589.583785	0.173515
589.794726	0.173107
590.005648	0.171970
590.216552	0.172843
590.427437	0.173426
590.638305	0.173318
590.849154	0.173113
591.059985	0.173260
591.270798	0.172241
591.481592	0.172862
591.692369	0.173486
591.903127	0.174481
592.113867	0.174183
592.324588	0.173777
592.535292	0.175132
592.745977	0.174301
592.956644	0.175148
593.167293	0.176604
593.377923	0.177477
593.588536	0.177072
593.799130	0.176884
594.009706	0.177152
594.220263	0.176971
594.430803	0.176583
594.641324	0.177242
594.851827	0.177550
595.062312	0.176644
595.272778	0.175968
595.483227	0.176840
595.693657	0.178136
595.904069	0.178871
596.114462	0.179301
596.324838	0.179223
596.535195	0.180682
596.745534	0.180539
596.955855	0.181210
597.166157	0.181606
597.376441	0.181413
597.586707	0.181158
597.796955	0.181428
598.007185	0.182270
598.217396	0.182531
598.427589	0.181936
598.637764	0.182558
598.847921	0.182960
599.058060	0.183063
599.268180	0.183087
599.478282	0.183401
599.688366	0.183565
599.898431	0.182761
600.108479	0.182554
600.318508	0.183106
600.528519	0.183036
600.738511	0.183459
600.948486	0.183129
601.158442	0.183256
601.368380	0.182427
601.578300	0.181942
601.788202	0.181625
601.998085	0.181835
602.207950	0.181359
602.417797	0.181508
602.627626	0.180694
602.837436	0.180604
603.047228	0.180867
603.257002	0.181280
603.466758	0.181555
603.676496	0.182328
603.886215	0.182934
604.095916	0.184285
604.305599	0.184691
604.515264	0.185891
604.724910	0.186813
604.934538	0.187518
605.144148	0.188152
605.353740	0.188553
605.563314	0.189108
605.772869	0.188673
605.982406	0.188124
606.191925	0.188161
606.401425	0.188200
606.610908	0.188771
606.820372	0.188918
607.029818	0.189312
607.239246	0.190212
607.448655	0.190688
607.658047	0.191098
607.867420	0.190825
608.076775	0.191180
608.286111	0.190836
608.495430	0.191165
608.704730	0.190923
608.914012	0.190460
609.123275	0.190599
609.332521	0.190094
609.541748	0.190241
609.750957	0.191026
609.960148	0.191157
610.169321	0.191299
610.378475	0.190884
610.587611	0.190530
610.796729	0.191212
611.005829	0.190881
611.214910	0.191796
611.423974	0.191937
611.633019	0.191584
611.842045	0.191193
612.051054	0.191683
612.260044	0.191491
612.469017	0.192246
612.677970	0.192119
612.886906	0.192334
613.095824	0.192066
613.304723	0.193053
613.513604	0.193963
613.722467	0.193886
613.931311	0.193872
614.140138	0.194323
614.348946	0.193936
614.557736	0.193968
614.766507	0.193640
614.975261	0.194619
615.183996	0.193547
615.392713	0.193706
615.601412	0.193614
615.810092	0.193524
616.018754	0.193190
616.227399	0.193718
616.436024	0.194211
616.644632	0.194611
616.853222	0.194166
617.061793	0.194516
617.270346	0.194332
617.478880	0.195317
617.687397	0.195839
617.895895	0.196610
618.104375	0.196956
618.312837	0.197008
618.521281	0.196765
618.729706	0.196601
618.938113	0.197292
619.146502	0.197509
619.354873	0.197295
619.563226	0.197515
619.771560	0.197241
619.979876	0.197484
620.188174	0.197896
620.396453	0.198140
620.604715	0.198905
620.812958	0.198654
621.021183	0.197934
621.229390	0.198320
621.437578	0.198600
621.645748	0.199403
621.853900	0.199672
622.062034	0.199185
622.270150	0.199638
622.478247	0.199855
622.686326	0.200501
622.894387	0.201706
623.102430	0.202259
623.310454	0.203205
623.518461	0.203138
623.726449	0.203667
623.934418	0.203816
624.142370	0.204012
624.350303	0.203888
624.558218	0.204093
624.766115	0.203668
624.973994	0.203756
625.181855	0.203133
625.389697	0.203376
625.597521	0.203392
625.805327	0.203949
626.013114	0.204424
626.220883	0.204903
626.428634	0.205226
626.636367	0.205498
626.844082	0.205474
627.051778	0.206379
627.259457	0.206710
627.467117	0.206963
627.674758	0.207377
627.882382	0.207382
628.089987	0.206690
628.297574	0.206924
628.505143	0.208232
628.712694	0.208725
628.920226	0.208065
629.127740	0.207988
629.335236	0.207960
629.542714	0.208252
629.750174	0.208792
629.957615	0.209589
630.165038	0.208798
630.372443	0.208597
630.579829	0.208752
630.787198	0.209401
630.994548	0.209741
631.201880	0.209761
631.409194	0.209584
631.616489	0.209150
631.823766	0.209034
632.031025	0.209713
632.238266	0.208961
632.445489	0.209316
632.652693	0.209352
632.859879	0.210123
633.067047	0.210490
633.274197	0.211018
633.481329	0.211728
633.688442	0.212117
633.895537	0.212430
634.102614	0.213392
634.309672	0.213170
634.516713	0.213223
634.723735	0.212928
634.930739	0.212663
635.137724	0.213069
635.344692	0.212885
635.551641	0.212566
635.758572	0.213386
635.965485	0.213590
636.172379	0.214331
636.379256	0.215533
636.586114	0.215890
636.792954	0.216686
636.999775	0.216073
637.206579	0.215872
637.413364	0.216732
637.620131	0.216207
637.826880	0.216269
638.033610	0.215770
638.240323	0.215226
638.447017	0.215172
638.653692	0.215219
638.860350	0.216020
639.066990	0.217042
639.273611	0.217867
639.480214	0.218783
639.686798	0.218837
639.893365	0.219663
640.099913	0.220058
640.306443	0.220537
640.512955	0.220874
640.719449	0.219993
640.925924	0.219994
641.132381	0.219587
641.338820	0.220080
641.545241	0.220549
641.751644	0.220805
641.958028	0.220873
642.164394	0.221466
642.370742	0.221870
642.577071	0.222493
642.783383	0.223165
642.989676	0.224031
643.195951	0.223794
643.402207	0.224105
643.608446	0.224013
643.814666	0.224808
644.020868	0.224402
644.227052	0.224584
644.433218	0.224969
644.639365	0.224713
644.845494	0.224686
645.051605	0.224462
645.257698	0.224891
645.463772	0.224740
645.669828	0.224281
645.875866	0.224216
646.081886	0.224371
646.287888	0.225014
646.493871	0.225532
646.699836	0.225478
646.905783	0.226409
647.111712	0.226111
647.317622	0.226663
647.523514	0.227077
647.729388	0.227623
647.935244	0.228080
648.141082	0.228123
648.346901	0.228463
648.552702	0.228621
648.758485	0.228823
648.964250	0.229025
649.169996	0.229312
649.375724	0.229339
649.581434	0.229634
649.787126	0.229959
649.992800	0.229995
650.198455	0.230276
650.404092	0.230406
650.609711	0.230446
650.815311	0.230844
651.020894	0.230696
651.226458	0.230675
651.432004	0.230970
651.637532	0.230423
651.843041	0.230952
652.048532	0.230828
652.254006	0.231059
652.459460	0.231206
652.664897	0.230853
652.870315	0.231385
653.075716	0.231809
653.281097	0.231965
653.486461	0.232155
653.691807	0.232328
653.897134	0.232853
654.102443	0.233140
654.307734	0.232554
654.513006	0.233004
654.718261	0.232988
654.923497	0.233321
655.128715	0.233409
655.333915	0.234650
655.539096	0.234855
655.744259	0.234736
655.949404	0.235323
656.154531	0.236259
656.359640	0.237024
656.564730	0.237701
656.769802	0.237726
656.974856	0.238091
657.179892	0.238241
657.384909	0.238265
657.589908	0.239210
657.794889	0.238986
657.999852	0.239098
658.204797	0.239236
658.409723	0.239829
658.614631	0.240093
658.819521	0.240155
659.024393	0.240482
659.229246	0.241287
659.434081	0.241683
659.638898	0.242128
659.843697	0.242507
660.048478	0.242427
660.253240	0.241910
660.457984	0.242570
660.662710	0.243249
660.867417	0.242878
661.072107	0.243110
661.276778	0.242686
661.481431	0.243134
661.686066	0.243322
661.890682	0.243825
662.095281	0.244505
662.299861	0.244090
662.504422	0.244577
662.708966	0.245260
662.913491	0.245487
663.117999	0.245772
663.322488	0.245644
663.526958	0.245962
663.731411	0.246633
663.935845	0.246759
664.140261	0.247748
664.344659	0.247499
664.549038	0.247769
664.753400	0.247804
664.957743	0.248037
665.162068	0.248426
665.366375	0.248882
665.570663	0.249023
665.774933	0.249822
665.979185	0.249873
666.183419	0.251057
666.387635	0.251239
666.591832	0.251707
666.796011	0.252428
667.000172	0.253139
667.204315	0.253523
667.408439	0.254027
667.612545	0.254196
667.816634	0.254460
668.020703	0.254094
668.224755	0.254146
668.428788	0.254426
668.632803	0.253640
668.836800	0.253719
669.040779	0.253715
669.244739	0.253943
669.448681	0.254062
669.652605	0.254180
669.856511	0.253980
670.060399	0.254221
670.264268	0.255014
670.468119	0.256628
670.671952	0.256733
670.875767	0.256808
671.079563	0.256452
671.283341	0.256427
671.487101	0.256628
671.690843	0.257981
671.894567	0.257816
672.098272	0.257354
672.301959	0.257257
672.505628	0.257484
672.709278	0.257712
672.912911	0.258103
673.116525	0.257821
673.320121	0.258134
673.523699	0.257019
673.727258	0.257419
673.930799	0.257905
674.134322	0.257888
674.337827	0.258014
674.541314	0.258324
674.744782	0.258394
674.948232	0.259698
675.151664	0.260102
675.355078	0.260811
675.558474	0.261565
675.761851	0.261936
675.965210	0.261759
676.168551	0.262073
676.371873	0.262167
676.575178	0.262603
676.778464	0.262894
676.981732	0.263670
677.184981	0.264039
677.388213	0.263821
677.591426	0.264169
677.794621	0.264817
677.997798	0.265451
678.200956	0.265960
678.404097	0.266544
678.607219	0.266112
678.810323	0.266402
679.013408	0.266916
679.216476	0.267189
679.419525	0.267226
679.622556	0.267381
679.825569	0.267378
680.028563	0.268323
680.231540	0.268983
680.434498	0.269465
680.637438	0.269033
680.840359	0.269022
681.043263	0.269502
681.246148	0.269731
681.449015	0.270158
681.651864	0.270364
681.854694	0.270172
682.057506	0.269963
682.260301	0.270343
682.463076	0.270944
682.665834	0.271498
682.868573	0.271680
683.071295	0.271721
683.273998	0.271892
683.476682	0.271817
683.679349	0.271332
683.881997	0.271472
684.084627	0.271517
684.287239	0.271689
684.489833	0.272030
684.692408	0.272711
684.894965	0.273256
685.097504	0.273671
685.300025	0.274243
685.502527	0.275079
685.705012	0.275112
685.907478	0.275975
686.109925	0.276187
686.312355	0.275847
686.514766	0.275016
686.717159	0.274925
686.919534	0.274650
687.121891	0.274785
687.324230	0.274999
687.526550	0.275240
687.728852	0.274821
687.931136	0.274991
688.133401	0.275190
688.335649	0.276319
688.537878	0.276895
688.740089	0.277066
688.942281	0.277579
689.144456	0.277793
689.346612	0.277713
689.548750	0.277544
689.750870	0.278157
689.952971	0.278567
690.155055	0.278817
690.357120	0.279280
690.559167	0.279392
690.761195	0.279190
690.963206	0.279443
691.165198	0.279933
691.367172	0.280635
691.569128	0.280156
691.771065	0.280352
691.972984	0.280055
692.174885	0.280134
692.376768	0.280595
692.578633	0.280692
692.780479	0.281058
692.982308	0.281213
693.184118	0.281486
693.385909	0.281954
693.587683	0.282044
693.789438	0.282625
693.991175	0.282481
694.192894	0.282626
694.394595	0.283321
694.596277	0.282918
694.797941	0.283504
694.999587	0.284056
695.201215	0.284144
695.402824	0.284775
695.604416	0.285148
695.805989	0.285270
696.007543	0.285384
696.209080	0.285395
696.410598	0.285719
696.612099	0.285863
696.813580	0.285550
697.015044	0.285642
697.216490	0.285738
697.417917	0.285105
697.619326	0.285198
697.820717	0.286002
698.022089	0.286013
698.223444	0.286005
698.424780	0.285709
698.626098	0.285783
698.827397	0.285992
699.028679	0.285892
699.229942	0.285850
699.431187	0.286082
699.632414	0.285635
699.833622	0.285958
700.034813	0.286554
700.235985	0.286754
700.437139	0.286843
700.638274	0.286569
700.839392	0.286692
701.040491	0.286965
701.241572	0.287058
701.442635	0.287101
701.643679	0.286523
701.844706	0.286412
702.045714	0.286419
702.246704	0.286676
702.447675	0.286938
702.648629	0.286669
702.849564	0.287063
703.050481	0.287243
703.251380	0.287503
703.452260	0.287948
703.653122	0.288208
703.853966	0.288741
704.054792	0.288725
704.255600	0.289110
704.456389	0.288946
704.657160	0.289253
704.857913	0.288822
705.058648	0.289015
705.259365	0.289152
705.460063	0.288741
705.660743	0.287968
705.861405	0.287467
706.062048	0.287470
706.262674	0.287934
706.463281	0.287278
706.663870	0.287621
706.864441	0.287731
707.064993	0.287609
707.265527	0.287917
707.466043	0.287963
707.666541	0.288418
707.867021	0.288255
708.067482	0.288058
708.267925	0.288290
708.468350	0.288659
708.668757	0.288760
708.869145	0.288971
709.069516	0.288594
709.269868	0.289016
709.470201	0.288836
709.670517	0.289297
709.870814	0.289223
710.071093	0.289196
710.271354	0.288514
710.471597	0.288116
710.671821	0.288082
710.872028	0.288295
711.072216	0.288202
711.272385	0.288253
711.472537	0.288039
711.672670	0.288005
711.872785	0.288515
712.072882	0.288893
712.272961	0.288791
712.473021	0.288918
712.673063	0.289110
712.873087	0.289124
713.073093	0.288623
713.273081	0.288303
713.473050	0.288438
713.673001	0.287377
713.872934	0.287172
714.072849	0.286865
714.272745	0.286973
714.472623	0.286059
714.672483	0.285562
714.872325	0.285855
715.072148	0.285131
715.271954	0.284894
715.471741	0.285134
715.671509	0.285243
715.871260	0.285647
716.070992	0.285191
716.270707	0.285900
716.470403	0.286445
716.670080	0.286640
716.869740	0.287248
717.069381	0.287985
717.269004	0.287977
717.468609	0.287184
717.668195	0.287083
717.867764	0.287212
718.067314	0.286439
718.266846	0.286023
718.466360	0.285994
718.665855	0.285730
718.865332	0.285163
719.064791	0.285525
719.264232	0.285927
719.463655	0.285324
719.663059	0.285278
719.862445	0.285816
720.061813	0.285767
720.261163	0.285027
720.460494	0.285005
720.659807	0.284842
720.859102	0.284563
721.058379	0.284843
721.257638	0.284913
721.456878	0.284502
721.656100	0.284532
721.855304	0.284974
722.054490	0.285790
722.253657	0.285573
722.452806	0.285068
722.651937	0.285016
722.851050	0.284326
723.050145	0.284395
723.249221	0.283985
723.448279	0.283621
723.647319	0.282714
723.846340	0.282295
724.045344	0.282046
724.244329	0.282097
724.443296	0.281478
724.642245	0.281495
724.841175	0.281488
725.040088	0.281881
725.238982	0.281309
725.437857	0.281362
725.636715	0.281170
725.835554	0.281597
726.034376	0.281913
726.233179	0.282212
726.431963	0.282268
726.630730	0.282431
726.829478	0.281624
727.028208	0.281927
727.226920	0.281216
727.425614	0.280729
727.624289	0.279913
727.822946	0.279652
728.021585	0.279381
728.220206	0.279109
728.418808	0.278110
728.617392	0.278536
728.815958	0.277454
729.014506	0.277772
729.213036	0.277799
729.411547	0.277748
729.610040	0.277296
729.808515	0.277186
730.006972	0.276736
730.205410	0.276640
730.403831	0.276091
730.602233	0.276645
730.800616	0.276536
730.998982	0.276237
731.197329	0.276398
731.395658	0.275868
731.593969	0.275304
731.792262	0.274942
731.990536	0.274212
732.188793	0.273916
732.387031	0.274138
732.585250	0.273782
732.783452	0.273937
732.981635	0.273424
733.179800	0.273408
733.377947	0.273349
733.576076	0.273603
733.774186	0.273976
733.972278	0.274155
734.170352	0.273049
734.368408	0.272898
734.566446	0.272197
734.764465	0.272497
734.962466	0.272325
735.160449	0.272865
735.358413	0.272763
735.556360	0.272797
735.754288	0.272124
735.952198	0.272659
736.150090	0.272363
736.347963	0.272665
736.545818	0.272198
736.743655	0.272260
736.941474	0.270952
737.139275	0.270468
737.337057	0.270138
737.534821	0.270579
737.732567	0.270100
737.930295	0.270689
738.128005	0.270191
738.325696	0.269521
738.523369	0.269082
738.721024	0.269584
738.918660	0.269043
739.116279	0.268725
739.313879	0.267918
739.511461	0.267548
739.709024	0.267083
739.906570	0.266716
740.104097	0.266814
740.301606	0.266908
740.499097	0.266802
740.696569	0.266909
740.894024	0.266952
741.091460	0.266863
741.288878	0.267094
741.486277	0.266608
741.683659	0.266600
741.881022	0.266412
742.078367	0.266299
742.275694	0.265430
742.473002	0.265095
742.670293	0.264759
742.867565	0.264599
743.064819	0.263673
743.262054	0.263403
743.459272	0.262656
743.656471	0.262501
743.853652	0.261626
744.050815	0.261809
744.247959	0.261385
744.445085	0.260583
744.642194	0.260163
744.839283	0.260758
745.036355	0.260452
745.233408	0.260777
745.430444	0.260407
745.627461	0.259871
745.824459	0.259322
746.021440	0.258492
746.218402	0.258521
746.415346	0.258057
746.612272	0.257269
746.809180	0.257910
747.006069	0.257201
747.202940	0.257215
747.399793	0.257421
747.596628	0.256719
747.793444	0.257368
747.990243	0.257015
748.187023	0.256848
748.383784	0.257282
748.580528	0.255880
748.777253	0.255363
748.973960	0.255235
749.170649	0.255200
749.367320	0.255269
749.563973	0.254919
749.760607	0.255486
749.957223	0.255985
750.153821	0.255554
750.350400	0.256035
750.546962	0.256474
750.743505	0.255829
750.940030	0.255450
751.136536	0.255294
751.333025	0.254945
751.529495	0.254178
751.725947	0.253956
751.922381	0.253539
752.118796	0.252984
752.315194	0.252884
752.511573	0.252335
752.707934	0.252688
752.904276	0.253266
753.100601	0.253532
753.296907	0.253427
753.493195	0.252840
753.689465	0.252267
753.885716	0.251701
754.081949	0.251286
754.278164	0.251828
754.474361	0.251517
754.670540	0.250766
754.866700	0.250571
755.062843	0.250656
755.258967	0.251306
755.455072	0.251686
755.651160	0.252172
755.847229	0.251924
756.043280	0.251355
756.239313	0.250918
756.435328	0.250258
756.631324	0.249805
756.827302	0.249148
757.023262	0.248300
757.219204	0.248326
757.415127	0.248499
757.611033	0.247981
757.806920	0.247894
758.002788	0.247570
758.198639	0.247657
758.394471	0.247277
758.590286	0.247508
758.786081	0.246888
758.981859	0.246239
759.177619	0.245576
759.373360	0.246068
759.569083	0.246131
759.764788	0.245843
759.960474	0.245926
760.156143	0.245940
760.351793	0.245507
760.547425	0.245751
760.743038	0.245650
760.938634	0.245691
761.134211	0.245641
761.329770	0.245222
761.525311	0.245084
761.720833	0.245081
761.916338	0.244505
762.111824	0.244005
762.307292	0.243637
762.502741	0.243307
762.698173	0.242587
762.893586	0.242329
763.088981	0.242406
763.284358	0.242577
763.479716	0.242050
763.675057	0.242580
763.870379	0.242817
764.065683	0.242819
764.260968	0.242884
764.456236	0.243597
764.651485	0.243441
764.846716	0.242974
765.041929	0.243155
765.237123	0.243231
765.432299	0.242483
765.627457	0.242374
765.822597	0.242165
766.017719	0.241864
766.212822	0.241072
766.407907	0.240547
766.602974	0.239918
766.798023	0.239568
766.993054	0.239812
767.188066	0.240134
767.383060	0.239850
767.578036	0.239787
767.772993	0.239836
767.967933	0.238991
768.162854	0.238901
768.357757	0.239275
768.552642	0.239300
768.747508	0.239253
768.942356	0.239041
769.137186	0.239051
769.331998	0.238916
769.526792	0.238542
769.721567	0.239186
769.916324	0.239268
770.111063	0.238955
770.305784	0.238511
770.500486	0.238208
770.695171	0.238177
770.889837	0.237620
771.084484	0.237706
771.279114	0.237660
771.473725	0.238018
771.668318	0.238413
771.862893	0.238562
772.057450	0.238153
772.251988	0.237913
772.446509	0.237746
772.641011	0.238753
772.835494	0.239032
773.029960	0.239496
773.224407	0.239194
773.418836	0.238572
773.613247	0.238945
773.807640	0.239450
774.002014	0.239363
774.196370	0.239376
774.390708	0.238521
774.585028	0.238394
774.779330	0.237915
774.973613	0.237456
775.167878	0.237750
775.362125	0.237503
775.556354	0.237179
775.750564	0.237163
775.944756	0.236946
776.138930	0.237405
776.333086	0.236789
776.527223	0.237124
776.721343	0.237052
776.915444	0.236320
777.109526	0.235806
777.303591	0.235556
777.497637	0.235584
777.691666	0.235925
777.885676	0.235328
778.079667	0.235633
778.273641	0.235772
778.467596	0.235783
778.661533	0.236570
778.855452	0.236843
779.049352	0.236822
779.243235	0.236719
779.437099	0.236748
779.630945	0.236992
779.824773	0.236611
780.018582	0.236282
780.212373	0.235885
780.406146	0.235788
780.599901	0.235549
780.793638	0.235240
780.987356	0.235276
781.181056	0.234889
781.374738	0.234896
781.568402	0.234888
781.762047	0.235166
781.955674	0.236077
782.149283	0.235459
782.342874	0.234888
782.536447	0.235459
782.730001	0.235272
782.923537	0.235137
783.117055	0.235006
783.310555	0.235217
783.504036	0.234843
783.697499	0.234568
783.890944	0.234990
784.084371	0.235979
784.277780	0.236012
784.471170	0.236143
784.664542	0.236800
784.857896	0.237527
785.051231	0.237465
785.244549	0.237535
785.437848	0.237166
785.631129	0.236998
785.824392	0.236874
786.017636	0.236804
786.210863	0.236440
786.404071	0.235983
786.597260	0.235482
786.790432	0.235592
786.983585	0.235255
787.176721	0.235229
787.369838	0.235837
787.562936	0.236169
787.756017	0.235400
787.949079	0.235762
788.142123	0.236145
788.335149	0.236261
788.528156	0.236129
788.721146	0.236313
788.914117	0.236805
789.107070	0.235822
789.300005	0.236075
789.492921	0.236740
789.685819	0.237066
789.878699	0.236874
790.071561	0.236958
790.264405	0.237277
790.457230	0.237000
790.650037	0.236843
790.842826	0.237886
791.035597	0.237334
791.228349	0.237398
791.421084	0.237338
791.613800	0.237982
791.806497	0.238267
791.999177	0.238258
792.191838	0.238867
792.384481	0.238981
792.577106	0.238744
792.769713	0.238807
792.962301	0.239249
793.154871	0.239522
793.347423	0.239201
793.539957	0.239050
793.732473	0.239183
793.924970	0.239104
794.117449	0.239001
794.309910	0.239068
794.502353	0.239385
794.694777	0.239542
794.887183	0.239545
795.079571	0.239961
795.271941	0.239964
795.464293	0.239556
795.656626	0.239605
795.848941	0.240433
796.041238	0.240495
796.233516	0.240102
796.425777	0.240048
796.618019	0.240325
796.810243	0.240331
797.002449	0.240372
797.194636	0.241129
797.386805	0.241859
797.578956	0.242271
797.771089	0.242424
797.963204	0.243283
798.155300	0.243519
798.347378	0.243609
798.539438	0.243414
798.731480	0.243832
798.923503	0.243770
799.115509	0.243399
799.307496	0.243099
799.499465	0.243552
799.691415	0.243707
799.883348	0.243858
800.075262	0.244488
800.267158	0.244551
800.459035	0.244504
800.650895	0.245061
800.842736	0.245336
801.034559	0.245863
801.226364	0.246078
801.418150	0.245777
801.609919	0.246301
801.801669	0.245580
801.993401	0.246070
802.185114	0.246483
802.376810	0.246500
802.568487	0.246811
802.760146	0.246876
802.951787	0.246830
803.143409	0.246751
803.335014	0.246796
803.526600	0.247172
803.718168	0.246801
803.909717	0.246989
804.101249	0.246814
804.292762	0.246791
804.484257	0.246153
804.675734	0.246771
804.867192	0.246819
805.058632	0.246952
805.250054	0.247527
805.441458	0.248453
805.632844	0.248548
805.824211	0.249084
806.015561	0.249507
806.206891	0.250232
806.398204	0.250334
806.589499	0.251495
806.780775	0.251709
806.972033	0.251702
807.163273	0.251427
807.354495	0.251526
807.545698	0.251760
807.736883	0.252352
807.928050	0.252230
808.119199	0.251983
808.310329	0.251898
808.501441	0.251949
808.692535	0.251817
808.883611	0.252810
809.074669	0.253555
809.265708	0.253645
809.456729	0.253414
809.647732	0.253782
809.838717	0.254249
810.029683	0.254779
810.220632	0.254967
810.411562	0.255442
810.602474	0.255035
810.793367	0.254795
810.984242	0.254533
811.175100	0.254573
811.365938	0.255137
811.556759	0.255672
811.747562	0.255798
811.938346	0.256089
812.129112	0.256497
812.319860	0.257329
812.510589	0.258018
812.701300	0.259247
812.891994	0.259796
813.082668	0.260189
813.273325	0.261044
813.463964	0.261951
813.654584	0.262196
813.845186	0.262740
814.035769	0.262869
814.226335	0.262598
814.416882	0.262270
814.607411	0.262896
814.797922	0.263013
814.988415	0.262738
815.178889	0.262602
815.369345	0.263381
815.559783	0.263525
815.750203	0.263846
815.940605	0.265035
816.130988	0.265521
816.321353	0.265918
816.511700	0.266926
816.702028	0.267823
816.892339	0.268121
817.082631	0.268207
817.272905	0.268630
817.463161	0.269644
817.653398	0.269460
817.843617	0.270378
818.033819	0.270855
818.224001	0.270440
818.414166	0.270106
818.604312	0.270142
818.794440	0.270165
818.984550	0.270458
819.174642	0.270217
819.364716	0.270738
819.554771	0.271105
819.744808	0.271080
819.934827	0.271670
820.124827	0.271772
820.314810	0.272221
820.504774	0.272721
820.694720	0.272827
820.884647	0.272605
821.074557	0.272739
821.264448	0.272507
821.454321	0.273629
821.644176	0.273756
821.834012	0.273817
822.023831	0.273689
822.213631	0.274244
822.403413	0.274592
822.593176	0.274715
822.782922	0.275438
822.972649	0.275940
823.162358	0.275379
823.352049	0.275851
823.541721	0.276054
823.731376	0.276563
823.921012	0.277326
824.110629	0.278033
824.300229	0.279085
824.489811	0.279009
824.679374	0.279023
824.868919	0.279863
825.058445	0.280448
825.247954	0.280965
825.437444	0.281865
825.626916	0.282077
825.816370	0.281652
826.005806	0.281786
826.195223	0.282001
826.384622	0.283088
826.574003	0.282918
826.763366	0.283498
826.952711	0.284220
827.142037	0.285055
827.331345	0.284949
827.520635	0.286077
827.709906	0.287047
827.899160	0.287862
828.088395	0.287941
828.277612	0.288844
828.466810	0.288611
828.655991	0.289453
828.845153	0.289402
829.034297	0.289934
829.223423	0.290332
829.412531	0.290739
829.601620	0.290797
829.790691	0.291336
829.979744	0.291679
830.168779	0.292140
830.357795	0.291849
830.546793	0.292203
830.735773	0.292135
830.924735	0.292636
831.113679	0.292773
831.302604	0.293649
831.491511	0.293398
831.680400	0.293308
831.869271	0.294162
832.058123	0.294919
832.246957	0.294775
832.435773	0.295505
832.624571	0.295387
832.813351	0.296065
833.002112	0.296244
833.190855	0.296591
833.379580	0.296949
833.568287	0.297108
833.756975	0.297085
833.945645	0.297550
834.134297	0.297629
834.322931	0.298392
834.511547	0.298077
834.700144	0.298630
834.888723	0.299306
835.077284	0.299304
835.265826	0.300046
835.454351	0.301215
835.642857	0.301845
835.831345	0.302895
836.019815	0.303460
836.208266	0.303987
836.396699	0.304493
836.585114	0.305827
836.773511	0.306980
836.961890	0.307060
837.150250	0.307640
837.338592	0.307934
837.526916	0.308348
837.715222	0.308646
837.903510	0.309055
838.091779	0.309122
838.280030	0.309780
838.468263	0.309832
838.656477	0.309792
838.844674	0.309199
839.032852	0.310540
839.221012	0.310443
839.409153	0.310849
839.597277	0.311296
839.785382	0.312064
839.973469	0.311647
840.161538	0.312136
840.349589	0.313242
840.537621	0.314212
840.725635	0.314602
840.913631	0.315338
841.101609	0.315223
841.289568	0.315216
841.477509	0.315469
841.665432	0.316128
841.853337	0.317096
842.041224	0.317475
842.229092	0.317932
842.416942	0.318014
842.604774	0.318549
842.792588	0.319539
842.980383	0.320317
843.168160	0.321099
843.355919	0.322082
843.543660	0.323047
843.731382	0.323530
843.919087	0.323764
844.106773	0.324163
844.294441	0.324915
844.482090	0.325038
844.669722	0.325842
844.857335	0.325786
845.044930	0.325363
845.232507	0.325693
845.420065	0.325208
845.607605	0.326263
845.795127	0.326089
845.982631	0.326402
846.170117	0.327845
846.357584	0.327291
846.545033	0.328363
846.732464	0.328914
846.919877	0.329384
847.107272	0.330456
847.294648	0.331074
847.482006	0.332410
847.669346	0.333562
847.856667	0.333022
848.043971	0.334559
848.231256	0.334468
848.418523	0.335258
848.605771	0.335308
848.793002	0.336043
848.980214	0.336407
849.167408	0.336243
849.354584	0.335791
849.541742	0.337315
849.728881	0.338119
849.916002	0.339080
850.103105	0.339696
850.290190	0.341130
850.477256	0.341929
850.664304	0.341417
850.851334	0.342294
851.038346	0.342784
851.225340	0.343172
851.412315	0.343577
851.599272	0.344003
851.786211	0.344414
851.973132	0.344130
852.160034	0.344174
852.346918	0.346250
852.533784	0.346901
852.720632	0.348278
852.907462	0.348679
853.094273	0.349461
853.281066	0.350071
853.467841	0.350122
853.654598	0.350681
853.841336	0.351518
854.028056	0.351316
854.214758	0.352349
854.401442	0.352098
854.588107	0.352292
854.774755	0.352108
854.961384	0.352187
855.147995	0.352847
855.334587	0.352399
855.521162	0.351679
855.707718	0.352075
855.894256	0.352212
856.080775	0.353110
856.267277	0.354140
856.453760	0.354408
856.640225	0.354492
856.826672	0.355503
857.013101	0.356022
857.199511	0.357459
857.385903	0.357713
857.572277	0.356682
857.758633	0.356525
857.944970	0.356322
858.131290	0.356564
858.317591	0.357599
858.503873	0.356935
858.690138	0.357866
858.876384	0.359070
859.062612	0.359841
859.248822	0.361823
859.435014	0.361951
859.621188	0.361340
859.807343	0.362787
859.993480	0.361818
860.179599	0.361453
860.365699	0.362124
860.551781	0.360772
860.737846	0.360869
860.923891	0.361864
861.109919	0.363289
861.295929	0.364965
861.481920	0.364403
861.667893	0.367061
861.853848	0.368540
862.039784	0.368679
862.225702	0.370310
862.411603	0.370819
862.597484	0.371212
862.783348	0.371887
862.969193	0.372163
863.155021	0.372885
863.340830	0.372119
863.526620	0.372877
863.712393	0.374281
863.898147	0.374744
864.083883	0.375337
864.269601	0.374130
864.455301	0.373567
864.640982	0.374030
864.826645	0.374722
865.012290	0.375590
865.197917	0.376219
865.383526	0.375695
865.569116	0.375483
865.754688	0.375203
865.940242	0.376796
866.125777	0.378425
866.311295	0.379438
866.496794	0.380238
866.682275	0.380542
866.867737	0.380745
867.053182	0.381019
867.238608	0.381681
867.424016	0.382426
867.609406	0.382130
867.794778	0.381390
867.980131	0.381263
868.165466	0.381126
868.350783	0.381629
868.536082	0.382025
868.721362	0.382546
868.906625	0.381618
869.091869	0.381754
869.277094	0.382030
869.462302	0.382377
869.647491	0.382489
869.832662	0.382032
870.017815	0.381481
870.202950	0.381332
870.388066	0.380512
870.573165	0.382122
870.758245	0.382232
870.943306	0.382136
871.128350	0.382759
871.313375	0.384202
871.498382	0.385427
871.683371	0.386216
871.868342	0.385820
872.053294	0.387073
872.238229	0.386975
872.423144	0.387807
872.608042	0.388688
872.792922	0.388592
872.977783	0.387553
873.162626	0.388394
873.347451	0.388058
873.532258	0.389299
873.717046	0.389592
873.901816	0.390602
874.086568	0.389882
874.271302	0.389694
874.456017	0.390473
874.640715	0.389945
874.825394	0.389351
875.010055	0.390312
875.194697	0.390394
875.379322	0.390385
875.563928	0.390325
875.748516	0.390908
875.933085	0.391027
876.117637	0.392427
876.302170	0.393078
876.486685	0.393611
876.671182	0.393114
876.855661	0.393312
877.040121	0.393108
877.224563	0.392827
877.408987	0.392804
877.593393	0.392030
877.777780	0.390189
877.962150	0.390480
878.146501	0.391049
878.330833	0.391859
878.515148	0.391969
878.699444	0.393626
878.883722	0.394544
879.067982	0.394724
879.252224	0.395960
879.436447	0.396839
879.620653	0.397570
879.804840	0.396987
879.989008	0.395897
880.173159	0.396497
880.357291	0.395581
880.541405	0.394973
880.725501	0.395344
880.909579	0.394925
881.093638	0.394765
881.277680	0.394575
881.461703	0.393818
881.645707	0.394585
881.829694	0.394528
882.013662	0.393911
882.197612	0.394199
882.381544	0.393769
882.565458	0.394251
882.749353	0.394262
882.933230	0.392858
883.117089	0.393723
883.300930	0.393452
883.484753	0.392960
883.668557	0.393289
883.852343	0.393860
884.036111	0.395824
884.219861	0.396097
884.403592	0.395870
884.587305	0.396863
884.771000	0.396934
884.954677	0.396982
885.138335	0.397211
885.321976	0.398272
885.505598	0.397474
885.689201	0.396614
885.872787	0.397040
886.056354	0.398214
886.239904	0.398593
886.423434	0.397402
886.606947	0.397912
886.790442	0.397116
886.973918	0.395802
887.157376	0.397147
887.340816	0.396612
887.524237	0.396206
887.707641	0.395625
887.891026	0.394789
888.074393	0.395361
888.257741	0.395198
888.441072	0.396071
888.624384	0.397138
888.807678	0.395714
888.990954	0.396265
889.174211	0.395364
889.357451	0.394451
889.540672	0.396731
889.723875	0.396473
889.907059	0.396136
890.090226	0.395846
890.273374	0.395019
890.456504	0.395766
890.639616	0.395631
890.822709	0.396924
891.005785	0.397267
891.188842	0.395897
891.371881	0.397007
891.554901	0.397682
891.737904	0.397957
891.920888	0.397592
892.103854	0.396818
892.286802	0.395701
892.469731	0.395823
892.652643	0.396040
892.835536	0.395745
893.018410	0.394456
893.201267	0.394527
893.384106	0.393939
893.566926	0.394594
893.749728	0.395416
893.932511	0.396536
894.115277	0.395643
894.298024	0.394845
894.480753	0.393777
894.663464	0.393158
894.846157	0.392857
895.028831	0.392514
895.211487	0.392183
895.394125	0.390913
895.576745	0.390224
895.759346	0.391343
895.941930	0.391419
896.124495	0.391828
896.307041	0.393401
896.489570	0.393987
896.672080	0.394009
896.854573	0.393932
897.037046	0.394550
897.219502	0.393791
897.401940	0.392191
897.584359	0.391678
897.766760	0.391724
897.949143	0.390428
898.131507	0.390597
898.313854	0.389855
898.496182	0.390622
898.678492	0.389270
898.860783	0.390292
899.043057	0.390108
899.225312	0.388657
899.407549	0.388249
899.589768	0.387901
899.771968	0.385768
899.954151	0.386385
900.136315	0.385725
900.318461	0.385749
900.500588	0.384984
900.682698	0.384691
900.864789	0.386388
901.046862	0.386794
901.228917	0.387457
901.410953	0.387814
901.592971	0.387356
901.774972	0.387028
901.956953	0.388618
902.138917	0.387922
902.320862	0.387533
902.502790	0.387240
902.684699	0.386900
902.866589	0.387162
903.048462	0.386457
903.230316	0.387926
903.412152	0.387444
903.593970	0.384293
903.775770	0.383965
903.957551	0.383301
904.139314	0.381828
904.321059	0.380989
904.502786	0.380412
904.684494	0.380385
904.866185	0.378670
905.047857	0.377984
905.229510	0.378209
905.411146	0.377327
905.592763	0.377629
905.774363	0.377546
905.955943	0.376955
906.137506	0.375765
906.319051	0.374482
906.500577	0.373958
906.682085	0.373114
906.863575	0.373696
907.045046	0.374458
907.226500	0.373593
907.407935	0.374004
907.589352	0.373825
907.770750	0.371951
907.952131	0.371997
908.133493	0.371170
908.314837	0.371953
908.496163	0.370157
908.677470	0.368271
908.858760	0.367317
909.040031	0.366749
909.221284	0.366158
909.402518	0.367742
909.583735	0.368584
909.764933	0.368587
909.946113	0.368353
910.127275	0.368816
910.308418	0.368383
910.489544	0.369321
910.670651	0.367222
910.851740	0.366134
911.032810	0.365881
911.213863	0.365197
911.394897	0.364745
911.575913	0.363231
911.756911	0.361597
911.937890	0.362845
912.118851	0.361154
912.299794	0.361661
912.480719	0.362875
912.661626	0.361948
912.842514	0.360665
913.023384	0.359684
913.204236	0.359206
913.385070	0.360621
913.565886	0.358644
913.746683	0.358802
913.927462	0.357817
914.108223	0.355884
914.288965	0.355779
914.469690	0.354903
914.650396	0.354183
914.831084	0.353714
915.011754	0.353174
915.192405	0.352512
915.373038	0.351812
915.553653	0.351937
915.734250	0.351951
915.914829	0.350312
916.095389	0.350047
916.275931	0.349111
916.456455	0.347294
916.636961	0.346532
916.817448	0.344763
916.997917	0.344198
917.178368	0.343343
917.358801	0.341090
917.539216	0.340729
917.719612	0.339021
917.899990	0.338520
918.080350	0.339462
918.260692	0.337444
918.441015	0.339142
918.621320	0.337629
918.801607	0.336922
918.981876	0.337784
919.162127	0.336997
919.342359	0.338091
919.522573	0.339864
919.702769	0.336701
919.882947	0.336040
920.063106	0.333243
920.243247	0.333219
920.423370	0.333232
920.603475	0.329999
920.783562	0.328090
920.963630	0.325762
921.143680	0.321906
921.323712	0.321519
921.503725	0.321869
921.683721	0.320940
921.863698	0.318252
922.043657	0.316647
922.223598	0.317767
922.403520	0.316398
922.583424	0.315866
922.763311	0.315797
922.943178	0.316448
923.123028	0.313872
923.302859	0.314521
923.482673	0.314433
923.662467	0.314925
923.842244	0.314334
924.022003	0.314182
924.201743	0.311866
924.381465	0.310201
924.561169	0.309397
924.740854	0.308279
924.920522	0.309259
925.100171	0.309554
925.279802	0.307751
925.459414	0.307526
925.639009	0.306199
925.818585	0.306713
925.998143	0.305439
926.177683	0.303695
926.357205	0.303422
926.536708	0.301141
926.716193	0.300210
926.895660	0.299499
927.075109	0.298293
927.254539	0.298583
927.433951	0.298321
927.613345	0.297435
927.792721	0.298653
927.972079	0.298784
928.151418	0.296601
928.330739	0.294503
928.510042	0.293798
928.689327	0.292104
928.868593	0.293026
929.047841	0.290968
929.227071	0.291440
929.406283	0.289062
929.585476	0.287926
929.764652	0.285754
929.943809	0.287721
930.122948	0.286001
930.302068	0.284182
930.481171	0.280406
930.660255	0.280326
930.839321	0.281213
931.018369	0.280902
931.197398	0.281463
931.376409	0.282434
931.555402	0.280026
931.734377	0.279082
931.913334	0.279543
932.092272	0.279414
932.271192	0.279255
932.450094	0.276746
932.628978	0.273242
932.807844	0.269942
932.986691	0.268687
933.165520	0.268482
933.344331	0.267976
933.523123	0.266189
933.701898	0.266883
933.880654	0.262830
934.059392	0.261264
934.238111	0.258546
934.416813	0.257820
934.595496	0.255105
934.774161	0.252425
934.952808	0.249829
935.131437	0.250238
935.310047	0.247200
935.488639	0.248241
935.667213	0.249035
935.845769	0.251689
936.024306	0.249889
936.202825	0.250630
936.381326	0.251340
936.559809	0.253368
936.738274	0.253048
936.916720	0.255593
937.095148	0.253752
937.273558	0.248755
937.451950	0.247727
937.630323	0.246995
937.808678	0.247945
937.987015	0.247186
938.165334	0.244907
938.343635	0.241858
938.521917	0.238632
938.700181	0.238907
938.878427	0.239495
939.056655	0.238472
939.234864	0.236777
939.413055	0.236404
939.591228	0.231474
939.769383	0.229672
939.947519	0.226038
940.125638	0.224520
940.303738	0.223260
940.481820	0.222858
940.659883	0.220702
940.837929	0.222177
941.015956	0.218372
941.193965	0.214754
941.371955	0.210079
941.549928	0.210969
941.727882	0.207095
941.905818	0.207460
942.083736	0.207310
942.261636	0.203816
942.439517	0.200452
942.617380	0.203075
942.795225	0.208744
942.973052	0.212440
943.150860	0.211184
943.328651	0.213489
943.506423	0.215331
943.684176	0.211483
943.861912	0.213401
944.039629	0.214986
944.217328	0.210282
944.395009	0.206337
944.572672	0.202960
944.750317	0.204319
944.927943	0.204245
945.105551	0.198111
945.283141	0.200308
945.460712	0.197056
945.638265	0.190705
945.815801	0.189259
945.993317	0.189221
946.170816	0.188725
946.348297	0.187311
946.525759	0.183024
946.703203	0.181943
946.880629	0.178147
947.058036	0.178543
947.235425	0.180196
947.412797	0.179161
947.590149	0.173838
947.767484	0.172396
947.944800	0.170922
948.122099	0.168741
948.299379	0.170185
948.476640	0.167014
948.653884	0.164733
948.831109	0.168672
949.008316	0.164886
949.185505	0.168972
949.362676	0.165386
949.539828	0.161941
949.716962	0.161475
949.894078	0.154641
950.071176	0.157113
950.248256	0.155851
950.425317	0.152831
950.602360	0.150282
950.779385	0.145204
950.956391	0.148496
951.133380	0.146699
951.310350	0.143941
951.487302	0.143834
951.664235	0.141682
951.841151	0.135280
952.018048	0.133316
952.194927	0.137573
952.371788	0.138578
952.548631	0.133239
952.725455	0.133636
952.902261	0.134474
953.079049	0.130327
953.255819	0.126886
953.432570	0.129913
953.609303	0.122222
953.786018	0.119501
953.962715	0.115461
954.139394	0.117527
954.316054	0.114064
954.492696	0.111934
954.669320	0.119260
954.845926	0.124282
955.022513	0.125043
955.199083	0.127013
955.375634	0.130512
955.552166	0.135060
955.728681	0.130771
955.905177	0.130658
956.081655	0.134446
956.258115	0.126053
956.434557	0.116481
956.610980	0.117819
956.787385	0.113737
956.963772	0.106469
957.140141	0.103532
957.316492	0.102905
957.492824	0.105176
957.669138	0.102384
957.845434	0.104488
958.021712	0.106404
958.197971	0.100290
958.374212	0.096933
958.550435	0.095256
958.726640	0.089219
958.902826	0.089872
959.078995	0.077246
959.255145	0.077682
959.431277	0.077970
959.607390	0.074260
959.783486	0.080030
959.959563	0.085602
960.135622	0.083427
960.311662	0.087575
960.487685	0.085025
960.663689	0.094705
960.839675	0.091741
961.015643	0.085637
961.191593	0.086606
961.367524	0.080806
961.543437	0.080460
961.719332	0.080888
961.895209	0.073323
962.071067	0.074959
962.246907	0.081329
962.422730	0.075908
962.598533	0.077261
962.774319	0.075123
962.950086	0.082500
963.125835	0.076060
963.301566	0.077635
963.477279	0.085951
963.652973	0.080682
963.828650	0.068083
964.004308	0.069936
964.179947	0.072527
964.355569	0.078385
964.531172	0.086203
964.706757	0.092595
964.882324	0.095996
965.057873	0.092178
965.233403	0.093069
965.408916	0.101549
965.584410	0.108017
965.759885	0.109649
965.935343	0.111601
966.110782	0.102625
966.286203	0.098750
966.461606	0.100694
966.636991	0.100781
966.812357	0.098836
966.987705	0.092114
967.163035	0.090941
967.338347	0.089940
967.513641	0.087126
967.688916	0.075135
967.864173	0.077921
968.039412	0.074356
968.214632	0.067746
968.389835	0.076638
968.565019	0.073324
968.740185	0.064872
968.915333	0.065119
969.090462	0.062549
969.265573	0.074698
969.440667	0.071731
969.615741	0.072032
969.790798	0.073680
969.965836	0.070601
970.140856	0.075369
970.315858	0.080845
970.490842	0.076451
970.665808	0.077740
970.840755	0.065943
971.015684	0.069317
971.190595	0.068431
971.365487	0.075159
971.540362	0.074020
971.715218	0.070803
971.890056	0.073806
972.064875	0.080700
972.239677	0.082822
972.414460	0.093144
972.589225	0.082607
972.763972	0.081588
972.938700	0.086816
973.113411	0.085608
973.288103	0.084399
973.462777	0.075089
973.637432	0.069801
973.812070	0.059870
973.986689	0.057476
974.161290	0.056598
974.335873	0.054330
974.510437	0.046732
974.684984	0.050583
974.859512	0.056897
975.034022	0.058759
975.208513	0.055692
975.382987	0.060724
975.557442	0.064578
975.731879	0.078245
975.906298	0.084328
976.080698	0.089218
976.255080	0.078982
976.429445	0.085859
976.603790	0.100476
976.778118	0.112396
976.952427	0.113997
977.126719	0.108327
977.300992	0.099819
977.475246	0.092611
977.649483	0.085398
977.823701	0.095036
977.997901	0.083236
978.172083	0.078784
978.346247	0.070222
978.520392	0.078414
978.694519	0.081298
978.868628	0.076231
979.042719	0.078549
979.216791	0.077862
979.390845	0.072963
979.564882	0.077976
979.738899	0.074473
979.912899	0.082043
980.086880	0.075197
980.260843	0.072106
980.434788	0.080393
980.608715	0.076953
980.782623	0.085785
980.956514	0.094313
981.130386	0.087389
981.304240	0.080173
981.478075	0.071297
981.651892	0.067673
981.825692	0.060540
981.999472	0.065222
982.173235	0.065871
982.346980	0.057576
982.520706	0.060065
982.694414	0.068668
982.868104	0.070160
983.041775	0.069250
983.215428	0.072891
983.389064	0.081488
983.562680	0.075806
983.736279	0.085375
983.909860	0.090619
984.083422	0.086714
984.256966	0.079844
984.430491	0.097660
984.603999	0.089195
984.777488	0.093394
984.950959	0.092138
985.124412	0.083718
985.297847	0.078278
985.471263	0.083380
985.644661	0.078180
985.818041	0.080843
985.991403	0.066453
986.164747	0.072161
986.338072	0.065190
986.511379	0.066453
986.684668	0.077529
986.857938	0.077524
987.031191	0.073848
987.204425	0.070798
987.377641	0.069341
987.550839	0.065048
987.724018	0.067858
987.897179	0.073569
988.070322	0.071760
988.243447	0.064173
988.416554	0.061457
988.589642	0.059925
988.762712	0.059657
988.935764	0.053812
989.108798	0.059191
989.281813	0.055340
989.454811	0.052769
989.627790	0.053290
989.800751	0.055436
989.973693	0.051634
990.146617	0.050082
990.319524	0.057153
990.492412	0.068361
990.665281	0.066455
990.838133	0.072761
991.010966	0.074787
991.183781	0.073879
991.356578	0.076703
991.529356	0.083407
991.702117	0.084255
991.874859	0.083222
992.047583	0.077717
992.220288	0.078972
992.392976	0.074877
992.565645	0.065387
992.738296	0.062656
992.910929	0.070037
993.083543	0.069003
993.256139	0.080103
993.428718	0.079690
993.601277	0.081263
993.773819	0.086107
993.946342	0.088368
994.118848	0.093613
994.291335	0.096882
994.463803	0.091847
994.636254	0.096606
994.808686	0.089686
994.981100	0.084641
995.153496	0.080775
995.325874	0.072069
995.498233	0.070805
995.670574	0.071751
995.842897	0.077641
996.015202	0.075915
996.187488	0.067162
996.359757	0.069217
996.532007	0.069211
996.704239	0.074177
996.876452	0.079258
997.048648	0.085205
997.220825	0.089175
997.392984	0.081637
997.565124	0.072734
997.737247	0.073296
997.909351	0.069149
998.081437	0.072334
998.253505	0.067400
998.425554	0.065290
998.597586	0.064753
998.769599	0.064058
998.941594	0.064540
999.113571	0.074019
999.285529	0.079516
999.457469	0.072715
999.629391	0.065171
999.801295	0.068766
999.973181	0.067610
1000.145048	0.054889
1000.316897	0.054490
1000.488728	0.052984
1000.660541	0.054336
1000.832335	0.045872
1001.004111	0.051563
1001.175869	0.049357
1001.347609	0.051536
1001.519331	0.057346
1001.691034	0.060979
1001.862719	0.054129
1002.034386	0.054826
1002.206035	0.050697
1002.377665	0.059217
1002.549277	0.062843
1002.720871	0.069433
1002.892447	0.068438
1003.064004	0.068933
1003.235544	0.081026
1003.407065	0.092435
1003.578568	0.093619
1003.750052	0.095275
1003.921519	0.092753
1004.092967	0.085165
1004.264397	0.089426
1004.435809	0.090852
1004.607202	0.084458
1004.778577	0.077804
1004.949934	0.069499
1005.121273	0.070154
1005.292594	0.069104
1005.463896	0.073246
1005.635180	0.076464
1005.806446	0.074101
1005.977694	0.064280
1006.148923	0.064714
1006.320135	0.066424
1006.491328	0.063755
1006.662503	0.064757
1006.833659	0.066955
1007.004798	0.066069
1007.175918	0.066232
1007.347020	0.068822
1007.518103	0.068823
1007.689169	0.069247
1007.860216	0.062168
1008.031245	0.067892
1008.202256	0.066378
1008.373248	0.065620
1008.544223	0.063259
1008.715179	0.065434
1008.886117	0.063579
1009.057036	0.072281
1009.227938	0.072031
1009.398821	0.073872
1009.569686	0.068677
1009.740533	0.065151
1009.911361	0.073959
1010.082172	0.073168
1010.252964	0.071498
1010.423738	0.070299
1010.594493	0.067940
1010.765231	0.071838
1010.935950	0.075698
1011.106651	0.078613
1011.277334	0.081233
1011.447998	0.074170
1011.618645	0.073531
1011.789273	0.070385
1011.959882	0.073815
1012.130474	0.076798
1012.301048	0.077229
1012.471603	0.076256
1012.642140	0.082658
1012.812658	0.087514
1012.983159	0.082453
1013.153641	0.082292
1013.324105	0.083178
1013.494551	0.081541
1013.664979	0.076048
1013.835388	0.072933
1014.005779	0.076590
1014.176152	0.070136
1014.346507	0.065143
1014.516843	0.064333
1014.687162	0.066074
1014.857462	0.061890
1015.027744	0.066219
1015.198007	0.066515
1015.368252	0.068024
1015.538480	0.062798
1015.708689	0.061348
1015.878879	0.067596
1016.049052	0.065875
1016.219206	0.065411
1016.389342	0.069825
1016.559460	0.063838
1016.729559	0.062924
1016.899641	0.060589
1017.069704	0.064542
1017.239749	0.064847
1017.409775	0.062835
1017.579784	0.065899
1017.749774	0.062955
1017.919746	0.064858
1018.089700	0.065929
1018.259635	0.067831
1018.429553	0.065182
1018.599452	0.064627
1018.769333	0.064431
1018.939195	0.057382
1019.109040	0.057671
1019.278866	0.057910
1019.448674	0.052194
1019.618464	0.057028
1019.788235	0.051095
1019.957989	0.054517
1020.127724	0.050394
1020.297441	0.049136
1020.467139	0.058338
1020.636820	0.058687
1020.806482	0.060520
1020.976126	0.067677
1021.145752	0.058380
1021.315359	0.068284
1021.484948	0.060422
1021.654519	0.063841
1021.824072	0.063834
1021.993607	0.061115
1022.163123	0.060774
1022.332621	0.062808
1022.502101	0.058143
1022.671563	0.060616
1022.841007	0.055275
1023.010432	0.061324
1023.179839	0.057205
1023.349228	0.057138
1023.518598	0.056859
1023.687951	0.056677
1023.857285	0.055231
1024.026601	0.055509
1024.195899	0.050971
1024.365178	0.052329
1024.534439	0.051475
1024.703682	0.051873
1024.872907	0.052972
1025.042114	0.046634
1025.211302	0.047465
1025.380472	0.042706
1025.549624	0.046074
1025.718758	0.048955
1025.887873	0.049525
1026.056970	0.052450
1026.226049	0.054272
1026.395110	0.055515
1026.564153	0.059442
1026.733177	0.060689
1026.902183	0.065344
1027.071171	0.062811
1027.240141	0.069618
1027.409092	0.069795
1027.578026	0.067173
1027.746940	0.065107
1027.915837	0.064319
1028.084716	0.063341
1028.253576	0.063292
1028.422418	0.064587
1028.591242	0.066836
1028.760048	0.060446
1028.928835	0.056068
1029.097604	0.059967
1029.266355	0.064297
1029.435088	0.070858
1029.603803	0.074950
1029.772499	0.077598
1029.941177	0.075437
1030.109837	0.065817
1030.278478	0.074754
1030.447102	0.079312
1030.615707	0.084563
1030.784294	0.088825
1030.952863	0.084594
1031.121413	0.078823
1031.289945	0.080361
1031.458460	0.084705
1031.626955	0.087998
1031.795433	0.080362
1031.963892	0.077804
1032.132334	0.067722
1032.300756	0.065566
1032.469161	0.064097
1032.637548	0.066709
1032.805916	0.060023
1032.974266	0.060133
1033.142598	0.061932
1033.310911	0.058033
1033.479207	0.060042
1033.647484	0.060269
1033.815743	0.057885
1033.983983	0.064495
1034.152206	0.069911
1034.320410	0.067818
1034.488596	0.066906
1034.656764	0.069366
1034.824914	0.073085
1034.993045	0.072270
1035.161158	0.076570
1035.329253	0.078803
1035.497330	0.074333
1035.665388	0.067640
1035.833428	0.068280
1036.001450	0.062307
1036.169454	0.067917
1036.337440	0.065506
1036.505407	0.067455
1036.673356	0.070085
1036.841287	0.073552
1037.009200	0.072090
1037.177094	0.066441
1037.344970	0.070716
1037.512828	0.065764
1037.680668	0.058480
1037.848489	0.059471
1038.016293	0.058690
1038.184078	0.054135
1038.351845	0.047978
1038.519593	0.047164
1038.687324	0.056080
1038.855036	0.058532
1039.022730	0.062054
1039.190406	0.060155
1039.358063	0.059260
1039.525702	0.057588
1039.693323	0.053350
1039.860926	0.058994
1040.028511	0.059731
1040.196077	0.056766
1040.363625	0.049511
1040.531155	0.058476
1040.698667	0.060820
1040.866161	0.062414
1041.033636	0.061809
1041.201093	0.064317
1041.368532	0.057894
1041.535952	0.056278
1041.703355	0.054036
1041.870739	0.056756
1042.038105	0.049867
1042.205452	0.053006
1042.372782	0.059105
1042.540093	0.058927
1042.707386	0.061665
1042.874661	0.060444
1043.041918	0.056470
1043.209156	0.058623
1043.376376	0.056139
1043.543578	0.049653
1043.710762	0.048280
1043.877927	0.046772
1044.045074	0.053878
1044.212203	0.049205
1044.379314	0.049420
1044.546407	0.058229
1044.713481	0.062496
1044.880537	0.065948
1045.047575	0.075388
1045.214595	0.071422
1045.381596	0.069259
1045.548579	0.062755
1045.715544	0.060535
1045.882491	0.057987
1046.049420	0.055844
1046.216330	0.060846
1046.383222	0.063640
1046.550096	0.060657
1046.716951	0.061625
1046.883789	0.061899
1047.050608	0.061582
1047.217409	0.063585
1047.384192	0.070754
1047.550956	0.071495
1047.717703	0.063058
1047.884431	0.064878
1048.051140	0.063268
1048.217832	0.063738
1048.384505	0.055742
1048.551161	0.061940
1048.717798	0.062654
1048.884416	0.057875
1049.051017	0.059412
1049.217599	0.062381
1049.384163	0.059792
1049.550709	0.062355
1049.717237	0.063761
1049.883746	0.069599
1050.050237	0.065746
1050.216710	0.068643
1050.383165	0.073727
1050.549601	0.069270
1050.716019	0.064000
1050.882420	0.058373
1051.048801	0.055572
1051.215165	0.057546
1051.381510	0.060031
1051.547837	0.059620
1051.714146	0.063054
1051.880437	0.056738
1052.046709	0.053365
1052.212964	0.058826
1052.379200	0.062903
1052.545417	0.068746
1052.711617	0.069690
1052.877798	0.063983
1053.043961	0.061632
1053.210106	0.056686
1053.376233	0.061469
1053.542341	0.070866
1053.708432	0.068520
1053.874504	0.071262
1054.040557	0.065785
1054.206593	0.059511
1054.372610	0.063507
1054.538609	0.068713
1054.704590	0.071430
1054.870553	0.070066
1055.036497	0.069789
1055.202424	0.076396
1055.368331	0.077426
1055.534221	0.077709
1055.700093	0.084378
1055.865946	0.086607
1056.031781	0.091230
1056.197598	0.086481
1056.363397	0.087733
1056.529177	0.080516
1056.694939	0.067699
1056.860683	0.059668
1057.026409	0.066522
1057.192116	0.067154
1057.357806	0.065877
1057.523477	0.056164
1057.689130	0.055235
1057.854764	0.060554
1058.020381	0.067667
1058.185979	0.068751
1058.351559	0.068984
1058.517120	0.067003
1058.682664	0.071418
1058.848189	0.071814
1059.013696	0.072104
1059.179185	0.072796
1059.344656	0.063223
1059.510108	0.057020
1059.675542	0.058363
1059.840958	0.059506
1060.006356	0.062489
1060.171735	0.051167
1060.337096	0.051215
1060.502439	0.052079
1060.667764	0.056535
1060.833071	0.062366
1060.998359	0.069556
1061.163629	0.074702
1061.328881	0.081003
1061.494115	0.077367
1061.659330	0.079024
1061.824527	0.077665
1061.989706	0.080172
1062.154867	0.090172
1062.320010	0.087569
1062.485134	0.084900
1062.650240	0.080130
1062.815328	0.077305
1062.980398	0.076623
1063.145449	0.079444
1063.310482	0.081211
1063.475497	0.082820
1063.640494	0.071222
1063.805473	0.073479
1063.970433	0.064481
1064.135375	0.070378
1064.300299	0.077247
1064.465204	0.078662
1064.630092	0.073680
1064.794961	0.078734
1064.959812	0.073546
1065.124645	0.073494
1065.289459	0.073428
1065.454256	0.079949
1065.619034	0.079775
1065.783793	0.079297
1065.948535	0.070704
1066.113258	0.080276
1066.277964	0.076785
1066.442651	0.083191
1066.607319	0.093371
1066.771970	0.081179
1066.936602	0.083754
1067.101216	0.084079
1067.265812	0.081146
1067.430389	0.088005
1067.594949	0.083516
1067.759490	0.074973
1067.924013	0.067148
1068.088518	0.063753
1068.253004	0.070744
1068.417472	0.069644
1068.581922	0.068270
1068.746354	0.062548
1068.910768	0.061029
1069.075163	0.056621
1069.239540	0.059550
1069.403899	0.069890
1069.568240	0.068496
1069.732562	0.071119
1069.896866	0.076765
1070.061152	0.081500
1070.225420	0.083390
1070.389670	0.092460
1070.553901	0.093236
1070.718114	0.091430
1070.882309	0.088472
1071.046486	0.080758
1071.210644	0.084603
1071.374784	0.071972
1071.538906	0.070850
1071.703010	0.075139
1071.867096	0.065917
1072.031163	0.074842
1072.195212	0.079982
1072.359243	0.071482
1072.523256	0.067869
1072.687250	0.071768
1072.851226	0.077997
1073.015184	0.075745
1073.179124	0.078522
1073.343045	0.081009
1073.506949	0.074794
1073.670834	0.078078
1073.834701	0.088427
1073.998549	0.091509
1074.162380	0.088477
1074.326192	0.097185
1074.489986	0.088105
1074.653761	0.073736
1074.817519	0.077975
1074.981258	0.074374
1075.144979	0.074287
1075.308682	0.066392
1075.472367	0.065485
1075.636033	0.067330
1075.799681	0.055152
1075.963311	0.068256
1076.126923	0.074860
1076.290516	0.061576
1076.454092	0.062929
1076.617649	0.068198
1076.781187	0.070279
1076.944708	0.077714
1077.108210	0.077069
1077.271695	0.077537
1077.435160	0.067595
1077.598608	0.062929
1077.762038	0.071983
1077.925449	0.074315
1078.088842	0.067173
1078.252217	0.069697
1078.415573	0.074311
1078.578912	0.063821
1078.742232	0.069270
1078.905534	0.066608
1079.068817	0.069131
1079.232083	0.081501
1079.395330	0.086236
1079.558559	0.087245
1079.721770	0.080330
1079.884962	0.070838
1080.048136	0.071781
1080.211293	0.070544
1080.374430	0.076790
1080.537550	0.086804
1080.700651	0.079677
1080.863735	0.090594
1081.026800	0.092379
1081.189846	0.095507
1081.352875	0.105599
1081.515885	0.108766
1081.678877	0.112845
1081.841851	0.117848
1082.004807	0.099764
1082.167744	0.098769
1082.330663	0.082462
1082.493564	0.082954
1082.656447	0.090389
1082.819312	0.080264
1082.982158	0.086088
1083.144986	0.072296
1083.307796	0.062552
1083.470587	0.070744
1083.633361	0.071186
1083.796116	0.069333
1083.958853	0.079816
1084.121571	0.068284
1084.284272	0.075401
1084.446954	0.070977
1084.609618	0.085450
1084.772264	0.097680
1084.934892	0.105568
1085.097501	0.098784
1085.260092	0.105800
1085.422665	0.095882
1085.585220	0.104091
1085.747756	0.100672
1085.910274	0.112869
1086.072774	0.103692
1086.235256	0.090363
1086.397720	0.096507
1086.560165	0.103354
1086.722592	0.105341
1086.885001	0.098340
1087.047392	0.098516
1087.209764	0.091603
1087.372119	0.082928
1087.534455	0.087112
1087.696772	0.096097
1087.859072	0.084126
1088.021353	0.079374
1088.183616	0.072658
1088.345861	0.086172
1088.508088	0.089549
1088.670296	0.106817
1088.832486	0.106640
1088.994658	0.100928
1089.156812	0.099281
1089.318948	0.110597
1089.481065	0.099427
1089.643164	0.103380
1089.805245	0.100086
1089.967308	0.083370
1090.129352	0.065042
1090.291378	0.058596
1090.453386	0.067408
1090.615376	0.065247
1090.777347	0.056712
1090.939301	0.069436
1091.101236	0.080553
1091.263153	0.066408
1091.425051	0.081682
1091.586932	0.078463
1091.748794	0.095072
1091.910638	0.098739
1092.072463	0.089051
1092.234271	0.090882
1092.396060	0.094533
1092.557831	0.093875
1092.719584	0.101386
1092.881319	0.111810
1093.043035	0.141371
1093.204733	0.141172
1093.366413	0.128795
1093.528075	0.147275
1093.689718	0.152760
1093.851343	0.151940
1094.012950	0.131767
1094.174539	0.146183
1094.336110	0.136767
1094.497662	0.124872
1094.659196	0.107766
1094.820712	0.125975
1094.982210	0.132945
1095.143689	0.123021
1095.305151	0.122267
1095.466594	0.128119
1095.628018	0.107755
1095.789425	0.099588
1095.950813	0.099652
1096.112183	0.098123
1096.273535	0.081275
1096.434869	0.067499
1096.596184	0.057092
1096.757482	0.042942
1096.918761	0.037677
1097.080021	0.046090
1097.241264	0.046674
1097.402488	0.052255
1097.563694	0.074929
1097.724882	0.084766
1097.886052	0.093441
1098.047203	0.087670
1098.208336	0.094538
1098.369451	0.091747
1098.530548	0.084957
1098.691627	0.085770
1098.852687	0.069118
1099.013729	0.050805
1099.174753	0.051211
1099.335758	0.049197
1099.496746	0.077613
1099.657715	0.083431
1099.818666	0.093508
1099.979599	0.105107
1100.140513	0.108215
1100.301409	0.132683
1100.462287	0.140022
1100.623147	0.140722
1100.783989	0.117935
1100.944812	0.100308
1101.105617	0.125364
1101.266404	0.107697
1101.427173	0.108317
1101.587923	0.130103
1101.748656	0.129521
1101.909370	0.131411
1102.070066	0.132215
1102.230743	0.168000
1102.391403	0.150938
1102.552044	0.146338
1102.712667	0.164750
1102.873271	0.155480
1103.033858	0.134839
1103.194426	0.125931
1103.354976	0.113346
1103.515508	0.101543
1103.676021	0.070756
1103.836517	0.085486
1103.996994	0.071285
1104.157453	0.083737
1104.317893	0.079669
1104.478316	0.070961
1104.638720	0.072347
1104.799106	0.082910
1104.959474	0.076619
1105.119823	0.089295
1105.280155	0.096802
1105.440468	0.091814
1105.600763	0.088236
1105.761039	0.101923
1105.921298	0.108385
1106.081538	0.100037
1106.241760	0.101380
1106.401964	0.109858
1106.562149	0.104683
1106.722316	0.115212
1106.882465	0.137879
1107.042596	0.103039
1107.202709	0.077146
1107.362803	0.081951
1107.522879	0.060805
1107.682937	0.048917
1107.842977	0.059285
1108.002999	0.053909
1108.163002	0.035501
1108.322987	0.025019
1108.482954	0.043019
1108.642902	0.049391
1108.802833	0.051725
1108.962745	0.063453
1109.122639	0.078378
1109.282515	0.081659
1109.442372	0.099813
1109.602211	0.103279
1109.762032	0.135660
1109.921835	0.131289
1110.081620	0.153576
1110.241386	0.129202
1110.401134	0.142729
1110.560864	0.132486
1110.720576	0.123301
1110.880269	0.141638
1111.039945	0.123822
1111.199602	0.089933
1111.359240	0.089335
1111.518861	0.073123
1111.678463	0.099543
1111.838047	0.099416
1111.997613	0.100379
1112.157161	0.073874
1112.316690	0.048535
1112.476202	0.081974
1112.635695	0.058676
1112.795169	0.084577
1112.954626	0.094010
1113.114064	0.083912
1113.273484	0.090868
1113.432886	0.063421
1113.592270	0.056747
1113.751635	0.052397
1113.910983	0.040629
1114.070312	0.070247
1114.229622	0.061523
1114.388915	0.039498
1114.548189	0.043161
1114.707445	0.025198
1114.866683	0.053477
1115.025903	0.090435
1115.185104	0.072547
1115.344287	0.075272
1115.503452	0.074680
1115.662599	0.080129
1115.821727	0.130584
1115.980838	0.122541
1116.139930	0.162032
1116.299004	0.151850
1116.458059	0.160666
1116.617097	0.193673
1116.776116	0.179625
1116.935117	0.167558
1117.094099	0.143973
1117.253064	0.101351
1117.412010	0.113381
1117.570938	0.090012
1117.729848	0.097147
1117.888740	0.082087
1118.047613	0.079954
1118.206468	0.074487
1118.365305	0.071817
1118.524124	0.095618
1118.682924	0.110065
1118.841707	0.062919
1119.000471	0.044309
1119.159216	0.046269
1119.317944	0.036363
1119.476653	0.031489
1119.635344	0.041642
1119.794017	0.036904
1119.952672	0.034942
1120.111308	0.019154
1120.269927	0.051234
1120.428527	0.060309
1120.587108	0.041333
1120.745672	0.058939
1120.904217	0.059051
1121.062744	0.064619
1121.221253	0.067639
1121.379744	0.078667
1121.538216	0.124368
1121.696671	0.103129
1121.855107	0.114024
1122.013524	0.147435
1122.171924	0.141014
1122.330305	0.124665
1122.488668	0.124247
1122.647013	0.112021
1122.805340	0.086994
1122.963648	0.043728
1123.121938	0.050363
1123.280210	0.064818
1123.438464	0.060281
1123.596700	0.052279
1123.754917	0.076785
1123.913116	0.065812
1124.071297	0.080502
1124.229459	0.100926
1124.387604	0.119122
1124.545730	0.171034
1124.703838	0.206508
1124.861928	0.217778
1125.019999	0.230873
1125.178052	0.235863
1125.336088	0.228370
1125.494104	0.250799
1125.652103	0.247214
1125.810083	0.245941
1125.968045	0.220579
1126.125989	0.146131
1126.283915	0.132919
1126.441823	0.135511
1126.599712	0.153781
1126.757583	0.188663
1126.915436	0.182030
1127.073270	0.145463
1127.231087	0.157583
1127.388885	0.148097
1127.546665	0.192477
1127.704426	0.167050
1127.862170	0.162180
1128.019895	0.157738
1128.177602	0.161580
1128.335291	0.208998
1128.492961	0.186886
1128.650614	0.141206
1128.808248	0.150488
1128.965864	0.157582
1129.123461	0.185444
1129.281041	0.179039
1129.438602	0.131042
1129.596145	0.134319
1129.753670	0.112655
1129.911176	0.135379
1130.068665	0.184359
1130.226135	0.178089
1130.383587	0.124155
1130.541020	0.108430
1130.698436	0.094342
1130.855833	0.115980
1131.013212	0.097210
1131.170573	0.078048
1131.327915	0.119066
1131.485239	0.103692
1131.642545	0.097358
1131.799833	0.112572
1131.957103	0.148519
1132.114354	0.203045
1132.271588	0.193157
1132.428803	0.205453
1132.585999	0.224912
1132.743178	0.195700
1132.900338	0.215262
1133.057480	0.242415
1133.214604	0.248275
1133.371710	0.239526
1133.528797	0.176481
1133.685866	0.215092
1133.842917	0.206981
1133.999950	0.156514
1134.156964	0.127060
1134.313960	0.108732
1134.470938	0.099031
1134.627898	0.106839
1134.784840	0.093359
1134.941763	0.136116
1135.098668	0.143860
1135.255555	0.167636
1135.412424	0.257125
1135.569274	0.265752
1135.726107	0.272921
1135.882921	0.265059
1136.039716	0.255871
1136.196494	0.219886
1136.353253	0.189495
1136.509995	0.179802
1136.666717	0.115087
1136.823422	0.084445
1136.980109	0.077503
1137.136777	0.080176
1137.293427	0.103984
1137.450059	0.127474
1137.606672	0.148150
1137.763267	0.163763
1137.919844	0.119782
1138.076403	0.155822
1138.232944	0.142930
1138.389466	0.155973
1138.545971	0.120150
1138.702457	0.155037
1138.858924	0.150884
1139.015374	0.198488
1139.171805	0.138781
1139.328218	0.182725
1139.484613	0.182620
1139.640990	0.162129
1139.797348	0.146921
1139.953688	0.186258
1140.110010	0.079998
1140.266314	0.053635
1140.422600	0.023873
1140.578867	0.081002
1140.735116	0.033042
1140.891347	0.084407
1141.047559	0.141655
1141.203754	0.155958
1141.359930	0.125318
1141.516088	0.208469
1141.672228	0.221452
1141.828349	0.214566
1141.984452	0.216789
1142.140537	0.220866
1142.296604	0.125871
1142.452653	0.049467
1142.608683	0.084012
1142.764695	0.160859
1142.920689	0.107700
1143.076665	0.082452
1143.232622	0.081868
1143.388562	0.054012
1143.544483	0.078412
1143.700385	0.104678
1143.856270	0.119898
1144.012136	0.031035
1144.167985	-0.000727
1144.323814	0.033959
1144.479626	0.032494
1144.635420	0.088712
1144.791195	0.124610
1144.946952	0.153987
1145.102691	0.177980
1145.258411	0.332517
1145.414113	0.508274
1145.569798	0.557281
1145.725463	0.493631
1145.881111	0.560954
1146.036741	0.477377
1146.192352	0.463287
1146.347945	0.393686
1146.503519	0.349713
1146.659076	0.221279
1146.814614	0.219875
1146.970134	0.187275
1147.125636	0.186611
1147.281120	0.202761
1147.436585	0.174235
1147.592032	0.181398
1147.747461	0.215229
1147.902872	0.218650
1148.058265	0.241767
1148.213639	0.198052
1148.368995	0.221016
1148.524333	0.279806
1148.679653	0.313459
1148.834954	0.256960
1148.990237	0.263898
1149.145502	0.255474
1149.300749	0.254606
1149.455977	0.313665
1149.611188	0.474693
1149.766380	0.434414
1149.921553	0.268871
1150.076709	0.249727
1150.231846	0.282645
1150.386966	0.247653
1150.542066	0.284603
1150.697149	0.232558
1150.852214	0.182747
1151.007260	0.148943
1151.162288	0.173101
1151.317298	0.262734
1151.472289	0.202381
1151.627263	0.205898
1151.782218	0.204495
1151.937155	0.175486
1152.092073	0.159198
1152.246974	0.100256
1152.401856	0.059981
1152.556720	0.070378
1152.711566	0.060055
1152.866393	0.059691
1153.021203	0.090234
1153.175994	0.127232
1153.330767	0.092231
1153.485521	0.141212
1153.640258	0.222995
1153.794976	0.192342
1153.949676	0.241714
1154.104358	0.192473
1154.259021	0.214659
1154.413667	0.197899
1154.568294	0.146980
1154.722903	0.166120
1154.877493	0.166854
1155.032066	0.075845
1155.186620	0.157179
1155.341156	0.121451
1155.495674	0.215788
1155.650173	0.228109
1155.804654	0.229718
1155.959118	0.227838
1156.113562	0.255829
1156.267989	0.316970
1156.422397	0.536842
1156.576788	0.432796
1156.731160	0.470126
1156.885513	0.257747
1157.039849	0.224647
1157.194166	0.233787
1157.348465	0.188113
1157.502746	0.164146
1157.657009	0.149484
1157.811253	0.057609
1157.965479	0.090469
1158.119687	-0.001042
1158.273877	0.205074
1158.428048	0.291320
1158.582201	0.346497
1158.736337	0.522400
1158.890453	0.408125
1159.044552	0.357475
1159.198632	0.376646
1159.352694	0.402459
1159.506738	0.395197
1159.660764	0.143705
1159.814771	0.096967
1159.968761	0.008416
1160.122732	0.016664
1160.276685	0.020334
1160.430619	-0.060363
1160.584535	-0.016438
1160.738434	-0.063878
1160.892313	0.015492
1161.046175	0.055805
1161.200019	0.040165
1161.353844	0.071389
1161.507651	0.019964
1161.661440	0.072801
1161.815210	0.200355
1161.968962	0.104984
1162.122697	0.137558
1162.276412	0.105650
1162.430110	0.100533
1162.583789	0.084710
1162.737451	0.089137
1162.891094	0.145693
1163.044718	0.096590
1163.198325	-0.012701
1163.351913	0.061346
1163.505483	0.124558
1163.659035	0.142059
1163.812569	0.110925
1163.966084	0.134936
1164.119581	0.165538
1164.273060	0.157139
1164.426521	0.296093
1164.579964	0.400530
1164.733388	0.334407
1164.886794	0.309415
1165.040182	0.561311
1165.193551	0.536339
1165.346903	0.579650
1165.500236	0.941636
1165.653551	0.782269
1165.806848	0.273072
1165.960126	0.231878
1166.113386	0.172935
1166.266628	0.121964
1166.419852	-0.034593
1166.573058	0.085032
1166.726245	0.074672
1166.879414	0.050570
1167.032565	-0.034730
1167.185698	0.078379
1167.338812	0.071120
1167.491909	0.043897
1167.644987	0.121342
1167.798046	0.154398
1167.951088	0.026680
1168.104111	0.071834
1168.257117	0.045273
1168.410103	0.162931
1168.563072	0.107864
1168.716023	0.175354
1168.868955	0.272988
1169.021869	0.132577
1169.174765	0.188926
1169.327642	0.239524
1169.480501	0.149903
1169.633343	0.164050
1169.786165	0.147688
1169.938970	0.167032
1170.091757	0.056637
1170.244525	0.006702
1170.397275	-0.014306
1170.550007	0.000274
1170.702720	0.015514
1170.855415	0.071864
1171.008092	0.048419
1171.160751	0.047930
1171.313392	0.077853
1171.466014	0.774906
1171.618619	0.154902
1171.771205	0.154902
1171.923772	0.154902
