sample name	sample
index	1086
start time	 04-22-2021  11:30:08 AM
880	0.524402
Peak Time (s)	101.535
Peak Height 	0.5244
calc peak height	100,103
Baseline Time (s)	8.537
Baseline Value 	-0.003196
subtract baseline	10,4
Abs	0.341657
Peak Time (s)	101.535
Peak Height 	0.3417
calc peak height	100,103
Baseline Time (s)	10.535
Baseline Value 	2.6686E-4
subtract baseline	10,3
PK_550	0.196974
Peak Time (s)	102.036
Peak Height 	0.197
calc peak height	100,103
Baseline Time (s)	8.537
Baseline Value 	2.0549E-4
subtract baseline	10,2
PK_880	0.319720
Peak Time (s)	100.538
Peak Height 	0.3197
calc peak height	100,103
Baseline Time (s)	11.039
Baseline Value 	-1.657E-5
subtract baseline	10,1


Time (s)	A880-A510	A880-A775	A880-A975	A880	I510	I775	I975	I880	
0.037000	-0.001329	-0.000274	-0.001728	0.006830	6207.809438	42786.558799	3875.468685	22483.546820
0.535000	-0.000996	0.000122	-0.000380	0.005632	6219.487718	42932.971295	3881.383577	22537.625532
1.035500	-0.002276	-0.000012	0.003415	0.004792	6216.130266	42998.096684	3892.240456	22575.643357
1.540500	-0.002368	-0.000318	0.002588	0.001315	6242.079832	43291.477826	3898.498918	22733.795176
2.036000	-0.003556	-0.000489	-0.000465	0.005675	6199.659760	42872.953927	3881.087552	22535.716948
2.536000	-0.000045	0.000418	0.001246	0.001519	6258.427112	43340.992867	3894.843729	22724.498636
3.036500	0.003532	0.000694	0.003305	-0.000655	6303.198581	43569.538570	3904.887671	22823.992686
3.536500	0.001403	0.000106	-0.002215	0.000544	6277.218382	43402.659734	3888.992029	22769.041069
4.037500	-0.002018	-0.000966	-0.003465	0.004107	6223.344987	42973.307669	3877.757152	22606.733339
4.534500	0.000124	0.000582	0.003577	0.000854	6264.881140	43418.129529	3901.942171	22754.874835
5.037500	-0.001038	-0.000066	-0.004531	0.000548	6258.253985	43386.283908	3883.559036	22768.843498
5.535500	0.001313	-0.000275	0.002603	0.000407	6277.579113	43379.971229	3900.688888	22775.302530
6.035500	0.000661	-0.000001	-0.003588	0.000556	6271.354389	43391.519993	3885.744496	22768.477808
6.535500	-0.000823	-0.000581	0.002931	-0.000053	6264.578712	43394.365253	3902.562693	22796.388359
7.036000	0.002989	0.000909	0.000960	0.001051	6285.625329	43430.316457	3895.275967	22745.887496
7.536500	0.001239	0.000374	-0.000206	0.000023	6279.990196	43476.224716	3894.946960	22792.883487
8.037000	-0.001154	0.000513	0.001872	0.000310	6259.197340	43462.423921	3899.184285	22779.739360
8.537000	-0.001310	0.000000	-0.001543	0.000000	6260.395940	43443.493426	3891.849170	22793.948639
9.034500	0.002447	0.000255	0.003423	0.000509	6285.618906	43419.863093	3902.396133	22770.653565
9.537500	-0.000206	0.000569	0.000194	0.000536	6264.791860	43446.625705	3894.682488	22769.429557
10.035000	0.001225	-0.000208	-0.001208	-0.000118	6280.981873	43435.095398	3892.915977	22799.338066
10.535000	-0.000079	-0.000345	0.000000	-0.000077	6270.528724	43418.567520	3895.671161	22797.483144
11.038500	0.000000	0.000398	0.001134	0.001940	6255.523476	43299.990222	3893.587658	22705.297209
11.536000	0.000840	-0.000387	-0.002193	-0.000076	6277.666664	43414.539006	3890.499404	22797.437900
12.035500	0.001731	0.000350	0.001186	0.000888	6277.096194	43393.403778	3896.194459	22753.319485
12.536500	0.000611	0.000718	0.001496	0.000662	6270.146797	43448.714679	3897.458639	22763.626163
13.034000	-0.000448	0.000582	0.003225	0.004757	6230.390484	43056.135400	3891.876902	22577.252728
13.537500	0.000558	0.000527	-0.002785	0.000432	6271.518326	43452.341274	3887.917924	22774.167257
14.037000	0.000757	0.000848	0.000621	0.003433	6249.836267	43203.136566	3888.865732	22637.299860
14.535000	-0.000565	0.000408	-0.000423	0.002479	6246.999135	43250.867359	3888.656033	22680.724525
15.038000	-0.001379	-0.000411	-0.004405	0.004559	6224.770173	42982.763285	3874.528623	22586.208425
15.536000	0.000968	0.000978	-0.002936	0.000757	6272.184105	43464.099751	3886.800493	22759.294312
16.035000	-0.003351	0.000190	-0.005415	0.005547	6202.185422	42947.093845	3869.916470	22541.481298
16.536000	0.000581	0.000056	-0.000519	0.000111	6274.195424	43438.388994	3894.002768	22788.881949
17.036000	-0.000880	0.000098	-0.000858	0.000370	6260.856575	43418.177430	3892.592753	22777.011503
17.537000	0.001279	0.000623	-0.001491	0.001492	6268.892761	43362.512033	3888.465494	22725.711034
18.037000	-0.000227	-0.000125	-0.003680	0.002642	6248.348035	43186.314839	3880.662079	22673.291361
18.534500	0.000072	0.000321	0.002597	0.001982	6255.751101	43288.917498	3896.943155	22703.356799
19.037500	0.001159	0.000574	0.002417	0.002383	6261.064733	43275.260827	3895.571235	22685.115064
19.535000	0.000185	0.001012	-0.000404	0.002164	6255.221788	43336.270817	3889.441842	22695.086130
20.035500	-0.000935	-0.000578	0.002092	0.001190	6254.088358	43278.957497	3897.621980	22739.499755
20.536000	-0.000303	0.000701	0.003568	0.002497	6248.882980	43276.399257	3898.022355	22679.915716
21.036000	-0.000396	0.000526	0.003057	0.002520	6247.981819	43257.933523	3896.756678	22678.833959
21.536000	0.000033	0.000317	0.000763	0.002369	6252.467267	43252.632893	3891.703559	22685.743596
22.036000	0.000666	0.000380	0.006989	0.001934	6260.718231	43298.822001	3907.498380	22705.541613
22.536500	0.000376	0.000965	-0.001243	0.002521	6253.941912	43298.690219	3886.636617	22678.821953
23.034500	0.000360	0.000187	0.002561	0.001943	6258.284865	43280.147379	3896.950212	22705.160495
23.536500	0.000870	0.000840	0.002018	0.002384	6258.809385	43299.774449	3894.623961	22685.026719
24.035500	-0.000181	0.000470	0.001558	0.001759	6255.521352	43323.471598	3895.013079	22713.542186
24.535000	-0.000042	0.000472	0.005392	0.001896	6255.533605	43310.932098	3903.781945	22707.290775
25.038000	0.000746	0.000169	0.001707	0.001907	6261.538461	43281.735556	3895.014886	22706.768606
25.536000	0.002529	0.000961	0.003888	0.001542	6278.214160	43389.360743	3901.045472	22723.447048
26.036000	-0.000352	0.000602	-0.002962	0.001126	6259.098178	43394.670364	3885.879056	22742.459390
26.536000	-0.000497	-0.000147	-0.000515	0.000855	6260.065002	43350.202167	3892.256844	22754.821654
27.036500	0.002460	0.001356	-0.001755	-0.001134	6298.557151	43676.325127	3894.023132	22845.954406
27.536500	-0.001454	0.000589	-0.003120	-0.001020	6267.180610	43593.833105	3890.541337	22840.738545
28.037000	0.003414	0.001733	0.002922	0.000517	6293.101667	43557.031076	3901.184834	22770.273141
28.537500	0.000441	0.001080	0.003221	0.000261	6271.945067	43519.990972	3902.505974	22782.019536
29.035000	0.001922	0.000195	-0.001545	-0.000799	6291.722430	43536.266694	3893.727399	22830.558506
29.535500	0.000188	0.000902	0.002380	0.000227	6270.246899	43506.485163	3900.589186	22783.563545
30.036000	-0.003555	0.000101	-0.001066	0.003858	6213.499562	43094.748794	3883.922453	22618.017123
30.535500	0.001319	0.000505	-0.002217	0.002785	6259.188447	43231.464229	3883.740934	22666.790636
31.036000	-0.001043	0.000228	-0.000038	0.001745	6248.971323	43302.254447	3891.285075	22714.170663
31.536500	0.002440	0.000040	-0.003109	-0.000538	6293.738888	43497.415407	3889.433132	22818.611775
32.037000	-0.001160	0.000873	-0.000401	0.005359	6220.330182	43027.402997	3881.971565	22549.991682
32.537000	-0.001157	0.001044	0.005046	0.000463	6257.995776	43497.673167	3906.372892	22772.738156
33.034500	0.002196	0.000968	0.002606	-0.001114	6296.331992	43638.065386	3904.314108	22845.030871
33.534500	0.001738	0.000763	-0.004703	0.001688	6270.931799	43357.408463	3880.501974	22716.793785
34.035000	-0.000144	0.000026	0.003349	0.002378	6251.026023	43224.768929	3897.784185	22685.323433
34.538500	0.000173	0.000717	0.001998	0.002385	6253.423469	43288.327327	3894.575952	22685.005869
35.035500	-0.000952	0.000952	-0.001715	0.002807	6241.496713	43270.953185	3884.863564	22665.808413
35.536000	0.000913	0.001405	0.003476	0.003128	6253.398369	43283.172010	3896.310308	22651.188687
36.036500	-0.000504	0.001426	0.002356	0.002677	6245.949798	43327.011601	3894.731031	22671.711585
36.536500	-0.003272	0.000338	-0.003828	0.002069	6229.349843	43282.492226	3881.652628	22699.414460
37.037000	0.000763	0.000047	0.008593	0.002264	6258.914823	43237.244947	3910.549143	22690.494111
37.536500	0.000236	0.000857	0.001992	0.002858	6250.253324	43257.369957	3893.444009	22663.446033
38.034500	-0.001170	0.000717	0.004303	0.002511	6242.097520	43276.591519	3899.730873	22679.262125
38.535000	-0.000677	0.000773	0.001884	0.002591	6245.274236	43274.291954	3893.818615	22675.600353
39.035000	-0.000657	0.000486	0.000051	0.002637	6245.075268	43243.512949	3889.398566	22673.542593
39.535500	-0.001847	0.000764	0.000299	0.002237	6238.995657	43306.385702	3890.920298	22691.748982
40.038000	0.001207	0.000768	0.003887	0.002468	6260.774014	43285.334263	3898.847618	22681.221788
40.536000	0.002490	0.001767	0.000524	0.003131	6265.572464	43316.522750	3889.349352	22651.054135
41.036500	0.000704	0.000890	0.002173	0.002710	6255.011605	43274.159147	3894.220195	22670.206353
41.537000	0.000383	0.000624	0.006627	0.002172	6256.689664	43299.407338	3906.067468	22694.696015
42.037000	-0.000413	0.000697	0.003244	0.002196	6250.359651	43303.975596	3897.969096	22693.631100
42.537000	0.002265	0.001291	0.001348	0.003163	6263.587281	43269.358874	3891.210471	22649.613724
43.035000	0.000171	0.001165	0.000367	0.002558	6252.069282	43313.798561	3890.326681	22677.119059
43.535000	0.002554	0.000847	0.003105	-0.002714	6311.676577	43776.832423	3909.328307	22918.646348
44.038500	0.001456	0.000916	0.000522	0.000553	6277.562610	43477.335093	3895.416466	22768.644034
44.535500	0.002833	0.000119	0.002312	0.000064	6292.105791	43448.641546	3900.812707	22791.020830
45.036000	-0.001834	0.000949	-0.002412	0.006205	6208.725520	42956.435990	3875.332627	22511.738534
45.536000	0.000986	0.000971	0.005050	0.000202	6276.632447	43515.185628	3907.005808	22784.687774
46.036500	0.001938	0.001175	0.001067	0.002072	6269.503153	43359.987668	3893.118083	22699.267069
46.536500	0.002757	0.000232	0.004523	0.000332	6289.414858	43434.127312	3905.436670	22778.742221
47.037000	0.000789	0.000565	-0.002646	0.004142	6244.620216	43111.397650	3879.577835	22605.140151
47.534500	0.000771	0.001112	0.001975	0.002850	6254.453734	43281.845200	3893.425297	22663.851789
48.035000	0.000598	0.000695	0.001654	0.001259	6265.418902	43390.943793	3896.422267	22736.370556
48.535500	0.001956	0.001119	-0.000380	0.000391	6282.716159	43511.464202	3893.668959	22776.056684
49.035500	-0.002710	0.000848	-0.000872	0.005522	6207.253790	43010.017723	3880.495209	22542.603664
49.536000	0.003445	0.001171	0.004711	-0.001759	6311.176267	43717.590458	3910.888288	22874.684352
50.036000	0.001223	0.000849	0.002596	0.006821	6227.372862	42890.460821	3885.555833	22483.936216
50.536000	0.008412	-0.003984	0.018725	0.174942	5197.006336	29771.568596	3585.530414	16198.145521
51.037000	0.020450	-0.006071	-0.000633	0.267368	4808.840295	24526.927330	3423.046303	13649.153369
51.536500	-0.008342	-0.013798	-0.015118	-0.063988	6731.317679	48403.726405	4017.681052	25951.822843
52.034000	-0.023240	-0.033756	-0.015629	-0.177988	7713.413285	59392.123424	4360.567432	32870.943468
52.537500	-0.004098	-0.036228	0.005570	-0.198133	8169.156994	61736.152598	4509.486576	34293.868581
53.034500	0.004488	-0.021327	0.010733	-0.166066	7891.821968	59458.072811	4410.975306	32059.429402
53.535500	0.015532	-0.011190	0.019806	-0.111547	7416.305292	53969.030992	4257.827392	28619.500190
54.035500	0.011385	-0.005541	0.016914	-0.076510	7026.651958	50631.074791	4141.722082	26626.107939
54.535500	0.015521	-0.003021	0.021267	-0.087438	7172.305604	52130.548808	4187.283608	27230.670925
55.038500	0.026859	0.002552	0.032307	-0.089853	7309.765995	53043.397889	4228.748601	27366.348607
55.536500	0.035085	0.008799	0.039992	-0.079676	7290.011607	52592.280946	4220.974553	26799.736694
56.036500	0.045639	0.013605	0.047864	-0.078020	7380.874590	52953.538253	4240.455755	26708.766921
56.537000	0.061922	0.023477	0.062522	-0.040429	7166.337261	49862.087583	4169.941578	24734.747080
57.037500	0.072161	0.033599	0.077453	0.000590	6874.421751	46640.897444	4094.125303	22766.959127
57.537500	0.084606	0.041806	0.089372	0.038034	6652.093796	43796.686381	4024.224574	21125.897392
58.038000	0.101264	0.051093	0.102044	0.076438	6468.840416	41148.181899	3957.797084	19583.521892
58.535500	0.115652	0.058670	0.118356	0.104677	6356.808283	39373.692680	3928.317918	18533.298312
59.035500	0.126959	0.064947	0.132525	0.141502	6159.541777	36899.988983	3874.499773	17262.444187
59.536500	0.141818	0.075687	0.152399	0.195425	5879.137201	33687.040682	3798.719182	15585.570651
60.036000	0.152806	0.079586	0.162185	0.252102	5581.633101	30170.266205	3703.620644	14033.671717
60.536500	0.161843	0.083140	0.175657	0.317849	5253.356626	26539.123981	3609.032563	12469.728559
61.036500	0.173606	0.088434	0.182586	0.373140	5028.910382	23974.466586	3531.103177	11325.887178
61.537500	0.168687	0.090759	0.189044	0.433689	4730.984087	21337.144325	3453.629698	10229.514200
62.034500	0.177126	0.096241	0.198460	0.446930	4710.849006	21011.636311	3448.507155	10009.446763
62.535500	0.178403	0.098884	0.188362	0.447991	4711.751106	21077.535820	3433.820315	9992.107238
63.043000	0.184891	0.102803	0.207969	0.449193	4733.936588	21191.244272	3458.247188	9972.507302
63.535000	0.194847	0.110229	0.215406	0.452418	4762.584992	21368.537123	3463.985674	9920.201544
64.036000	0.198669	0.112408	0.214887	0.451612	4782.540967	21495.539036	3464.378165	9933.228710
64.536500	0.201279	0.116736	0.218726	0.452916	4788.212513	21625.087104	3467.861010	9912.155185
65.042000	0.205287	0.119449	0.226882	0.450997	4814.160004	21825.286248	3481.903882	9943.203656
65.536500	0.208371	0.122130	0.232733	0.448428	4839.238104	22054.780664	3493.891741	9984.976805
66.037500	0.211800	0.125936	0.231427	0.444621	4871.818976	22392.544144	3497.496528	10047.339812
66.537000	0.215275	0.128745	0.231711	0.438438	4916.162667	22799.170826	3506.917177	10149.806192
67.038000	0.220058	0.131866	0.226774	0.432947	4964.433193	23196.635833	3507.731991	10242.039565
67.538000	0.220774	0.134800	0.241224	0.426974	4996.479366	23616.104453	3538.461513	10343.706460
68.035500	0.225638	0.135238	0.238333	0.419879	5055.016178	23977.594855	3544.968146	10466.293081
68.535500	0.225987	0.139138	0.242048	0.415241	5079.901881	24394.998617	3558.084487	10547.513363
69.039000	0.228353	0.140584	0.251462	0.411989	5108.283084	24628.158391	3578.460512	10604.976416
69.536500	0.232257	0.141586	0.252628	0.402331	5178.338390	25166.750920	3596.350938	10778.217608
70.039500	0.234282	0.145887	0.246506	0.397714	5213.452038	25627.554871	3593.837005	10862.408898
70.536500	0.236726	0.146668	0.257398	0.391524	5259.910114	25994.440350	3622.894003	10976.699279
71.036000	0.237969	0.148714	0.258723	0.389757	5276.320933	26197.600806	3628.275974	11009.612929
71.537500	0.243056	0.149570	0.261658	0.382131	5346.912864	26655.995695	3646.952949	11153.250635
72.035000	0.245746	0.152618	0.254443	0.381269	5367.015384	26870.416083	3635.665260	11169.661363
72.535000	0.248820	0.154313	0.263753	0.378443	5400.755972	27120.609293	3657.373545	11223.627993
73.035000	0.245291	0.153572	0.260017	0.379982	5371.740907	26994.125956	3647.862886	11194.190879
73.539000	0.250833	0.157284	0.269271	0.376899	5421.321449	27373.192193	3670.290259	11253.274889
74.038500	0.254389	0.157942	0.270740	0.376904	5442.025863	27409.923523	3672.992855	11253.172194
74.536500	0.257428	0.160441	0.268499	0.378682	5449.415144	27450.538146	3665.593344	11219.050202
75.036500	0.257985	0.161685	0.276002	0.381485	5436.266073	27362.799088	3674.256277	11165.548590
75.536500	0.261302	0.163019	0.273641	0.380876	5459.295649	27472.262539	3671.015285	11177.138804
76.037000	0.264574	0.164987	0.281384	0.383714	5461.855896	27423.158372	3680.118271	11123.230167
76.534500	0.262304	0.164519	0.275346	0.385004	5440.943917	27324.334340	3666.556472	11098.856016
77.038000	0.266574	0.165237	0.280121	0.391476	5428.092581	27003.608361	3663.448388	10977.590720
77.535000	0.267897	0.166657	0.288479	0.392200	5431.580571	27042.200203	3677.527926	10964.143203
78.035500	0.271156	0.167213	0.287020	0.395378	5432.049803	26897.142148	3668.944486	10905.349322
78.536000	0.274294	0.168882	0.285103	0.399394	5426.938449	26768.141679	3658.099467	10831.678496
79.039000	0.274014	0.170139	0.284602	0.407228	5380.164308	26410.180898	3643.108873	10689.902271
79.536500	0.275421	0.170707	0.294276	0.407170	5388.543931	26444.040052	3660.638206	10690.939752
80.036500	0.278941	0.172449	0.297356	0.411049	5386.485427	26328.753879	3659.184985	10621.677572
80.537000	0.281422	0.173227	0.297819	0.415526	5375.084427	26130.496601	3651.918846	10542.489359
81.035000	0.282106	0.173769	0.294169	0.420149	5352.739207	25913.757331	3637.159415	10461.597044
81.538000	0.281773	0.175486	0.300506	0.423929	5329.617386	25804.952093	3641.690820	10396.066124
82.038500	0.285955	0.177380	0.307158	0.426923	5336.275027	25747.136163	3648.222843	10344.585628
82.535500	0.286148	0.176461	0.308456	0.428678	5327.529533	25607.265633	3647.403227	10314.565251
83.038500	0.286834	0.177515	0.300949	0.431872	5313.543482	25495.848396	3628.469440	10260.229441
83.536000	0.288284	0.179019	0.307315	0.437663	5289.539572	25274.476963	3629.475912	10162.760265
84.036000	0.290879	0.178035	0.308105	0.437619	5304.107555	25226.190953	3630.936190	10163.494745
84.536500	0.288845	0.177881	0.303028	0.439466	5282.718834	25123.851583	3618.894538	10132.681620
85.037500	0.292280	0.180574	0.309706	0.443987	5276.762941	25030.703971	3622.623971	10057.781219
85.534000	0.290605	0.181558	0.314876	0.449193	5239.403728	24817.113442	3622.562363	9972.507753
86.035000	0.293670	0.181465	0.309969	0.449814	5252.604728	24781.233576	3613.037209	9962.401897
86.534500	0.297457	0.181764	0.311246	0.452479	5258.691800	24662.618869	3610.664980	9919.208820
87.035500	0.298204	0.182715	0.315876	0.456206	5242.564832	24524.324723	3612.209089	9859.242938
87.536000	0.295289	0.182743	0.319398	0.460682	5203.029621	24304.503582	3610.577138	9787.888743
88.036500	0.298453	0.185606	0.316154	0.464099	5201.690850	24277.318157	3599.300570	9733.926742
88.538500	0.297533	0.184212	0.320412	0.465860	5187.526929	24123.005172	3603.507391	9706.278735
89.036500	0.299369	0.184671	0.319485	0.469060	5180.352575	23989.805075	3596.566265	9656.322603
89.537000	0.299955	0.185239	0.320870	0.475905	5147.720170	23687.953395	3587.482662	9550.683017
90.040000	0.300676	0.186342	0.318575	0.475853	5151.722897	23743.176149	3583.783888	9551.471793
90.537000	0.299486	0.185942	0.317429	0.478994	5129.379456	23574.383188	3576.768382	9503.556422
91.038000	0.303453	0.186200	0.321692	0.481056	5139.178437	23488.867596	3580.362049	9472.274674
91.535500	0.301484	0.187034	0.327843	0.484718	5110.335116	23355.607697	3584.447307	9417.104095
92.039000	0.305536	0.189698	0.323748	0.488935	5109.489392	23282.781643	3570.893770	9354.135683
92.535500	0.303223	0.187679	0.329796	0.489084	5097.000318	23181.540602	3580.486470	9351.922985
93.039000	0.302450	0.188603	0.333790	0.494437	5066.229624	22976.338615	3578.265326	9272.908062
93.536000	0.301880	0.188806	0.324527	0.498200	5044.724496	22812.897261	3557.324293	9217.936618
94.036500	0.307265	0.189877	0.327635	0.498372	5070.621887	22854.021727	3561.989655	9215.434690
94.537000	0.308744	0.190241	0.331806	0.499844	5070.656621	22803.353699	3566.306025	9194.069926
95.037500	0.308037	0.191788	0.326722	0.505979	5036.727047	22594.726315	3548.535820	9105.794924
95.537000	0.306045	0.190373	0.332344	0.507067	5021.623575	22481.856272	3555.662062	9090.269680
96.035500	0.310707	0.192408	0.329387	0.506344	5048.094943	22606.269092	3552.142484	9100.581079
96.535000	0.310410	0.191797	0.334223	0.507348	5041.668485	22533.316401	3558.190955	9086.266461
97.035500	0.312395	0.193257	0.335944	0.512301	5027.082467	22376.490128	3553.084645	9016.125054
97.536000	0.308556	0.190894	0.333927	0.513767	5001.254100	22205.999493	3547.625057	8995.517447
98.036000	0.316488	0.193907	0.337354	0.512264	5047.407227	22407.231450	3555.366124	9016.644939
98.536000	0.313581	0.193266	0.330669	0.512986	5029.536091	22346.258502	3543.768656	9006.486950
99.036500	0.315824	0.194488	0.341871	0.517003	5020.858929	22221.879740	3555.016374	8950.279042
99.537000	0.312088	0.195142	0.337333	0.521121	4982.846092	22068.829752	3541.489880	8893.199123
100.034500	0.314899	0.195889	0.328543	0.517105	5015.847233	22279.601847	3534.143422	8948.859779
100.537500	0.319720	0.195524	0.335830	0.518307	5033.557544	22210.009843	3543.521242	8932.147701
101.035500	0.316472	0.194973	0.333835	0.521022	5004.458090	22065.749602	3536.251110	8894.559401
101.535500	0.315029	0.195571	0.341657	0.524402	4981.213390	21943.722407	3543.105306	8848.095087
102.036000	0.318454	0.196974	0.337815	0.520781	5015.256110	22164.631166	3542.761650	8897.883191
102.536000	0.319171	0.195974	0.337674	0.521081	5017.288082	22107.225834	3542.078470	8893.744305
103.052500	0.316125	0.196463	0.338920	0.522808	4994.145805	22052.722434	3541.334732	8869.961116
103.536500	0.321575	0.197681	0.345440	0.522499	5022.101354	22119.973820	3551.982447	8874.211901
104.036500	0.319865	0.196409	0.340237	0.522856	5012.030726	22048.241133	3543.300579	8869.307556
104.534500	0.318850	0.197233	0.344900	0.524102	5001.058789	22029.667532	3548.622663	8852.201246
105.034500	0.319110	0.196807	0.341431	0.525021	4997.876291	21970.734412	3541.795596	8839.630368
105.535000	0.319871	0.197843	0.347660	0.529355	4980.682793	21826.815116	3544.734778	8780.655133
106.035500	0.320288	0.198143	0.344989	0.525676	5000.403435	22000.549451	3546.304829	8830.682676
