sample name	sample
index	22
start time	 02-11-2021  12:10:48 PM


Wavelength (nm)	Absorbance
494.344910	-0.059881
494.563924	-0.059881
494.782919	-0.059881
495.001897	0.213434
495.220856	-0.018509
495.439797	-0.021343
495.658719	0.007350
495.877624	0.052895
496.096510	0.033726
496.315378	0.070711
496.534227	0.014157
496.753059	-0.008115
496.971872	0.006378
497.190667	0.066637
497.409444	0.089462
497.628203	0.095907
497.846943	0.098021
498.065665	0.098967
498.284369	0.102930
498.503055	0.102782
498.721723	0.103788
498.940372	0.103938
499.159003	0.103338
499.377616	0.103265
499.596210	0.103796
499.814787	0.101268
500.033345	0.100262
500.251885	0.097462
500.470406	0.098901
500.688910	0.100014
500.907395	0.100409
501.125862	0.101014
501.344311	0.101610
501.562742	0.099446
501.781154	0.099161
501.999548	0.100237
502.217924	0.101691
502.436282	0.100789
502.654621	0.099618
502.872942	0.098305
503.091245	0.096986
503.309530	0.095906
503.527797	0.097037
503.746045	0.098038
503.964275	0.097296
504.182487	0.097795
504.400681	0.098297
504.618856	0.099151
504.837013	0.099924
505.055152	0.102531
505.273273	0.104937
505.491376	0.103547
505.709460	0.103410
505.927526	0.105843
506.145574	0.103111
506.363604	0.105883
506.581615	0.104891
506.799608	0.105757
507.017583	0.104285
507.235540	0.101861
507.453478	0.103511
507.671399	0.103163
507.889301	0.102674
508.107185	0.104071
508.325050	0.102102
508.542898	0.100662
508.760727	0.100070
508.978538	0.099785
509.196330	0.100909
509.414105	0.100486
509.631861	0.100324
509.849599	0.099613
510.067319	0.099044
510.285021	0.099308
510.502704	0.100853
510.720369	0.101499
510.938016	0.102052
511.155645	0.102348
511.373255	0.101972
511.590848	0.103053
511.808422	0.102236
512.025977	0.103716
512.243515	0.102633
512.461034	0.102573
512.678536	0.102485
512.896018	0.103097
513.113483	0.101103
513.330930	0.101269
513.548358	0.101147
513.765768	0.102736
513.983160	0.102909
514.200533	0.103761
514.417889	0.104194
514.635226	0.103082
514.852545	0.104561
515.069845	0.106043
515.287128	0.107259
515.504392	0.108431
515.721638	0.107601
515.938866	0.106087
516.156075	0.106540
516.373267	0.106992
516.590440	0.108317
516.807594	0.106643
517.024731	0.106717
517.241850	0.105213
517.458950	0.104813
517.676032	0.105741
517.893095	0.107114
518.110141	0.106920
518.327168	0.107385
518.544177	0.107887
518.761168	0.107346
518.978141	0.107203
519.195095	0.108238
519.412031	0.108986
519.628949	0.108560
519.845849	0.109906
520.062731	0.109895
520.279594	0.109972
520.496439	0.108648
520.713266	0.110787
520.930074	0.111334
521.146865	0.111701
521.363637	0.108960
521.580391	0.108301
521.797127	0.107487
522.013844	0.106483
522.230543	0.106007
522.447224	0.107737
522.663887	0.107328
522.880532	0.107012
523.097158	0.106454
523.313766	0.108743
523.530356	0.109504
523.746928	0.108507
523.963481	0.111654
524.180017	0.111280
524.396534	0.111354
524.613032	0.111317
524.829513	0.111486
525.045975	0.111918
525.262420	0.110868
525.478845	0.110614
525.695253	0.110201
525.911643	0.108817
526.128014	0.110061
526.344367	0.109507
526.560702	0.109131
526.777018	0.109313
526.993316	0.107748
527.209597	0.108411
527.425858	0.108163
527.642102	0.109487
527.858328	0.109285
528.074535	0.108854
528.290724	0.108256
528.506894	0.107688
528.723047	0.107288
528.939181	0.109829
529.155297	0.110051
529.371395	0.110326
529.587475	0.109859
529.803536	0.110777
530.019579	0.110650
530.235604	0.111866
530.451611	0.112666
530.667600	0.114165
530.883570	0.113406
531.099522	0.113567
531.315456	0.114079
531.531372	0.114601
531.747269	0.114411
531.963148	0.114507
532.179009	0.114542
532.394852	0.115294
532.610676	0.114900
532.826482	0.114680
533.042271	0.114840
533.258040	0.115622
533.473792	0.116277
533.689525	0.115794
533.905240	0.116238
534.120937	0.116079
534.336616	0.116135
534.552277	0.116233
534.767919	0.117477
534.983543	0.117859
535.199149	0.117186
535.414736	0.116686
535.630306	0.116439
535.845857	0.117293
536.061390	0.117342
536.276904	0.117037
536.492401	0.117296
536.707879	0.117254
536.923339	0.117165
537.138781	0.116780
537.354204	0.116682
537.569610	0.117793
537.784997	0.117093
538.000366	0.116568
538.215716	0.116328
538.431049	0.116201
538.646363	0.115908
538.861659	0.116019
539.076937	0.117566
539.292196	0.118391
539.507438	0.117954
539.722661	0.118037
539.937866	0.118316
540.153052	0.118888
540.368221	0.118546
540.583371	0.117843
540.798503	0.117978
541.013617	0.117825
541.228712	0.118768
541.443789	0.119715
541.658848	0.119084
541.873889	0.120713
542.088912	0.120924
542.303916	0.122412
542.518902	0.122485
542.733870	0.123137
542.948820	0.123257
543.163752	0.123319
543.378665	0.123091
543.593560	0.124153
543.808437	0.123477
544.023295	0.123263
544.238136	0.122019
544.452958	0.123295
544.667762	0.122876
544.882548	0.122908
545.097315	0.122757
545.312064	0.122956
545.526795	0.123439
545.741508	0.123874
545.956203	0.123990
546.170879	0.124810
546.385537	0.123833
546.600177	0.124341
546.814799	0.124476
547.029402	0.123552
547.243988	0.123609
547.458555	0.123302
547.673103	0.123079
547.887634	0.123134
548.102146	0.123008
548.316640	0.124012
548.531116	0.123701
548.745574	0.123083
548.960013	0.123228
549.174435	0.123105
549.388838	0.123729
549.603222	0.123266
549.817589	0.123152
550.031937	0.123689
550.246267	0.122840
550.460579	0.122941
550.674873	0.123204
550.889148	0.123145
551.103405	0.123100
551.317644	0.122876
551.531865	0.123223
551.746068	0.123306
551.960252	0.123028
552.174418	0.124218
552.388566	0.124341
552.602696	0.125499
552.816807	0.126167
553.030900	0.125924
553.244975	0.125833
553.459032	0.126349
553.673070	0.126964
553.887091	0.126856
554.101093	0.126410
554.315077	0.126361
554.529042	0.124884
554.742990	0.124024
554.956919	0.124082
555.170830	0.124335
555.384722	0.124202
555.598597	0.124632
555.812453	0.124956
556.026291	0.125497
556.240111	0.125382
556.453913	0.125986
556.667696	0.126832
556.881461	0.127661
557.095208	0.127671
557.308937	0.127601
557.522647	0.127190
557.736339	0.126851
557.950013	0.126300
558.163669	0.126336
558.377307	0.126410
558.590926	0.125814
558.804527	0.125529
559.018110	0.125203
559.231675	0.124526
559.445221	0.124299
559.658749	0.124471
559.872259	0.124009
560.085751	0.124227
560.299225	0.124213
560.512680	0.124477
560.726117	0.123891
560.939536	0.124403
561.152937	0.125188
561.366319	0.125696
561.579683	0.125933
561.793029	0.126935
562.006357	0.126777
562.219667	0.126876
562.432958	0.127047
562.646231	0.127370
562.859486	0.127095
563.072723	0.126846
563.285941	0.126604
563.499141	0.126032
563.712323	0.126161
563.925487	0.126286
564.138632	0.126730
564.351760	0.126837
564.564869	0.127241
564.777960	0.128012
564.991032	0.128200
565.204087	0.128104
565.417123	0.129304
565.630141	0.128942
565.843140	0.129486
566.056122	0.129857
566.269085	0.130345
566.482030	0.130054
566.694957	0.129601
566.907866	0.130082
567.120756	0.130186
567.333628	0.129788
567.546482	0.129682
567.759318	0.129611
567.972135	0.129510
568.184935	0.129953
568.397716	0.130055
568.610478	0.130254
568.823223	0.130293
569.035949	0.130502
569.248657	0.130350
569.461347	0.130270
569.674019	0.130268
569.886672	0.129890
570.099308	0.129831
570.311925	0.130403
570.524523	0.130808
570.737104	0.130889
570.949666	0.131239
571.162210	0.131577
571.374736	0.131968
571.587244	0.132248
571.799733	0.132607
572.012205	0.132273
572.224658	0.131987
572.437092	0.131739
572.649509	0.132004
572.861907	0.131635
573.074287	0.131490
573.286649	0.131722
573.498993	0.131465
573.711318	0.131134
573.923625	0.131439
574.135914	0.131732
574.348185	0.131591
574.560438	0.131215
574.772672	0.131631
574.984888	0.131411
575.197086	0.131629
575.409266	0.131084
575.621427	0.130550
575.833570	0.130374
576.045695	0.130345
576.257802	0.130789
576.469890	0.131289
576.681961	0.130717
576.894013	0.130793
577.106046	0.130697
577.318062	0.130963
577.530059	0.131384
577.742039	0.131080
577.954000	0.130572
578.165942	0.130049
578.377867	0.129205
578.589773	0.128915
578.801661	0.128701
579.013531	0.127639
579.225382	0.127876
579.437216	0.127747
579.649031	0.128142
579.860828	0.128677
580.072606	0.129067
580.284367	0.129619
580.496109	0.130394
580.707833	0.130677
580.919539	0.130837
581.131227	0.130994
581.342896	0.131349
581.554547	0.130990
581.766180	0.131110
581.977795	0.130867
582.189391	0.130645
582.400969	0.130828
582.612529	0.131064
582.824071	0.132445
583.035595	0.132602
583.247100	0.132913
583.458587	0.132889
583.670056	0.133170
583.881506	0.133297
584.092939	0.133820
584.304353	0.133499
584.515749	0.133633
584.727127	0.133392
584.938486	0.133156
585.149828	0.133417
585.361151	0.134131
585.572456	0.134219
585.783742	0.134517
585.995011	0.134266
586.206261	0.134307
586.417493	0.134264
586.628706	0.134124
586.839902	0.134725
587.051079	0.134801
587.262238	0.134941
587.473379	0.135073
587.684502	0.135197
587.895606	0.135289
588.106692	0.135968
588.317760	0.135829
588.528810	0.136003
588.739841	0.135713
588.950855	0.135716
589.161850	0.135247
589.372827	0.135462
589.583785	0.135138
589.794726	0.135483
590.005648	0.135738
590.216552	0.136125
590.427437	0.136171
590.638305	0.136928
590.849154	0.137365
591.059985	0.137764
591.270798	0.137458
591.481592	0.138198
591.692369	0.138061
591.903127	0.137666
592.113867	0.137800
592.324588	0.137516
592.535292	0.136841
592.745977	0.136480
592.956644	0.136010
593.167293	0.136283
593.377923	0.135400
593.588536	0.135855
593.799130	0.135652
594.009706	0.135595
594.220263	0.136027
594.430803	0.135954
594.641324	0.135743
594.851827	0.136077
595.062312	0.135478
595.272778	0.135805
595.483227	0.135310
595.693657	0.135827
595.904069	0.135645
596.114462	0.135484
596.324838	0.135744
596.535195	0.135467
596.745534	0.135617
596.955855	0.135886
597.166157	0.136081
597.376441	0.136292
597.586707	0.135704
597.796955	0.135751
598.007185	0.135806
598.217396	0.136054
598.427589	0.136372
598.637764	0.136326
598.847921	0.136712
599.058060	0.136772
599.268180	0.136855
599.478282	0.138089
599.688366	0.138245
599.898431	0.138441
600.108479	0.138972
600.318508	0.139610
600.528519	0.140005
600.738511	0.140563
600.948486	0.140785
601.158442	0.140716
601.368380	0.139625
601.578300	0.140258
601.788202	0.140144
601.998085	0.139864
602.207950	0.139844
602.417797	0.140227
602.627626	0.139810
602.837436	0.139781
603.047228	0.139834
603.257002	0.140177
603.466758	0.139525
603.676496	0.139937
603.886215	0.139794
604.095916	0.139414
604.305599	0.138660
604.515264	0.138392
604.724910	0.138126
604.934538	0.137900
605.144148	0.138189
605.353740	0.138068
605.563314	0.137427
605.772869	0.137609
605.982406	0.137771
606.191925	0.137955
606.401425	0.138042
606.610908	0.138342
606.820372	0.138581
607.029818	0.138904
607.239246	0.139549
607.448655	0.139769
607.658047	0.139709
607.867420	0.139519
608.076775	0.139757
608.286111	0.139744
608.495430	0.139489
608.704730	0.139886
608.914012	0.139317
609.123275	0.139253
609.332521	0.139149
609.541748	0.139216
609.750957	0.139695
609.960148	0.139771
610.169321	0.139772
610.378475	0.140048
610.587611	0.139746
610.796729	0.139768
611.005829	0.139910
611.214910	0.140243
611.423974	0.140316
611.633019	0.140579
611.842045	0.140448
612.051054	0.140680
612.260044	0.140946
612.469017	0.140831
612.677970	0.140925
612.886906	0.140883
613.095824	0.141300
613.304723	0.141276
613.513604	0.140692
613.722467	0.140577
613.931311	0.140717
614.140138	0.140545
614.348946	0.140635
614.557736	0.140931
614.766507	0.141230
614.975261	0.140638
615.183996	0.140527
615.392713	0.140945
615.601412	0.141080
615.810092	0.140898
616.018754	0.140900
616.227399	0.141618
616.436024	0.141407
616.644632	0.141147
616.853222	0.141067
617.061793	0.141041
617.270346	0.140991
617.478880	0.141533
617.687397	0.141533
617.895895	0.141924
618.104375	0.141255
618.312837	0.140990
618.521281	0.141099
618.729706	0.141415
618.938113	0.141223
619.146502	0.141270
619.354873	0.140792
619.563226	0.140820
619.771560	0.140802
619.979876	0.141014
620.188174	0.141410
620.396453	0.141479
620.604715	0.141952
620.812958	0.142479
621.021183	0.142653
621.229390	0.142367
621.437578	0.142841
621.645748	0.142589
621.853900	0.142691
622.062034	0.142485
622.270150	0.142373
622.478247	0.142062
622.686326	0.142052
622.894387	0.142208
623.102430	0.142724
623.310454	0.142431
623.518461	0.142395
623.726449	0.142647
623.934418	0.143028
624.142370	0.143500
624.350303	0.143695
624.558218	0.143965
624.766115	0.143759
624.973994	0.143877
625.181855	0.143817
625.389697	0.144327
625.597521	0.144198
625.805327	0.144523
626.013114	0.144237
626.220883	0.144345
626.428634	0.144360
626.636367	0.144685
626.844082	0.144289
627.051778	0.144714
627.259457	0.144796
627.467117	0.144936
627.674758	0.144688
627.882382	0.144950
628.089987	0.145022
628.297574	0.144865
628.505143	0.144771
628.712694	0.144957
628.920226	0.145044
629.127740	0.144880
629.335236	0.145179
629.542714	0.145212
629.750174	0.145292
629.957615	0.145081
630.165038	0.144595
630.372443	0.144802
630.579829	0.145237
630.787198	0.145318
630.994548	0.145434
631.201880	0.145309
631.409194	0.145692
631.616489	0.145938
631.823766	0.146246
632.031025	0.147115
632.238266	0.146613
632.445489	0.146391
632.652693	0.146500
632.859879	0.146695
633.067047	0.146641
633.274197	0.146606
633.481329	0.146378
633.688442	0.146646
633.895537	0.146507
634.102614	0.147035
634.309672	0.147341
634.516713	0.147745
634.723735	0.147417
634.930739	0.147323
635.137724	0.147494
635.344692	0.147438
635.551641	0.147174
635.758572	0.147430
635.965485	0.146908
636.172379	0.146599
636.379256	0.146371
636.586114	0.146541
636.792954	0.146928
636.999775	0.146916
637.206579	0.146667
637.413364	0.147056
637.620131	0.146857
637.826880	0.147495
638.033610	0.147761
638.240323	0.147226
638.447017	0.147521
638.653692	0.147449
638.860350	0.147349
639.066990	0.147680
639.273611	0.147356
639.480214	0.147833
639.686798	0.147820
639.893365	0.147938
640.099913	0.148329
640.306443	0.148101
640.512955	0.148237
640.719449	0.148146
640.925924	0.148279
641.132381	0.148360
641.338820	0.147809
641.545241	0.147940
641.751644	0.148271
641.958028	0.148476
642.164394	0.148405
642.370742	0.148588
642.577071	0.148684
642.783383	0.148869
642.989676	0.148722
643.195951	0.149021
643.402207	0.148754
643.608446	0.148686
643.814666	0.148750
644.020868	0.149098
644.227052	0.148842
644.433218	0.148751
644.639365	0.148376
644.845494	0.148483
645.051605	0.148394
645.257698	0.148418
645.463772	0.148049
645.669828	0.147924
645.875866	0.147723
646.081886	0.147796
646.287888	0.148050
646.493871	0.148173
646.699836	0.148832
646.905783	0.149080
647.111712	0.149436
647.317622	0.149909
647.523514	0.149941
647.729388	0.150051
647.935244	0.150066
648.141082	0.149919
648.346901	0.150233
648.552702	0.149749
648.758485	0.149906
648.964250	0.149952
649.169996	0.150164
649.375724	0.150319
649.581434	0.150424
649.787126	0.150417
649.992800	0.150692
650.198455	0.150530
650.404092	0.150788
650.609711	0.150447
650.815311	0.150139
651.020894	0.150036
651.226458	0.149933
651.432004	0.149745
651.637532	0.149776
651.843041	0.150021
652.048532	0.150231
652.254006	0.150468
652.459460	0.151053
652.664897	0.151584
652.870315	0.151840
653.075716	0.152159
653.281097	0.152665
653.486461	0.153058
653.691807	0.152988
653.897134	0.153378
654.102443	0.153181
654.307734	0.153187
654.513006	0.153058
654.718261	0.152757
654.923497	0.152801
655.128715	0.153087
655.333915	0.153070
655.539096	0.153235
655.744259	0.153192
655.949404	0.153546
656.154531	0.153579
656.359640	0.153840
656.564730	0.154185
656.769802	0.154185
656.974856	0.153754
657.179892	0.153801
657.384909	0.154029
657.589908	0.154208
657.794889	0.154554
657.999852	0.154659
658.204797	0.154872
658.409723	0.154601
658.614631	0.154758
658.819521	0.155217
659.024393	0.155485
659.229246	0.155530
659.434081	0.155434
659.638898	0.155626
659.843697	0.156062
660.048478	0.156061
660.253240	0.156405
660.457984	0.156671
660.662710	0.156914
660.867417	0.156892
661.072107	0.156987
661.276778	0.157272
661.481431	0.157038
661.686066	0.156758
661.890682	0.156771
662.095281	0.156581
662.299861	0.156374
662.504422	0.156315
662.708966	0.156027
662.913491	0.155474
663.117999	0.155321
663.322488	0.155342
663.526958	0.155652
663.731411	0.155967
663.935845	0.156456
664.140261	0.156766
664.344659	0.157066
664.549038	0.157565
664.753400	0.158244
664.957743	0.158249
665.162068	0.158407
665.366375	0.157887
665.570663	0.157444
665.774933	0.157183
665.979185	0.157250
666.183419	0.157110
666.387635	0.157090
666.591832	0.157037
666.796011	0.157318
667.000172	0.156999
667.204315	0.157200
667.408439	0.157276
667.612545	0.157703
667.816634	0.157563
668.020703	0.157597
668.224755	0.157933
668.428788	0.158003
668.632803	0.158162
668.836800	0.158576
669.040779	0.159114
669.244739	0.159510
669.448681	0.159341
669.652605	0.159292
669.856511	0.159424
670.060399	0.159583
670.264268	0.159859
670.468119	0.160027
670.671952	0.159814
670.875767	0.159865
671.079563	0.159533
671.283341	0.159709
671.487101	0.160350
671.690843	0.160262
671.894567	0.160065
672.098272	0.159906
672.301959	0.159873
672.505628	0.160048
672.709278	0.159856
672.912911	0.160218
673.116525	0.160419
673.320121	0.160557
673.523699	0.160559
673.727258	0.160558
673.930799	0.160782
674.134322	0.160440
674.337827	0.160268
674.541314	0.160365
674.744782	0.160664
674.948232	0.160702
675.151664	0.160312
675.355078	0.160415
675.558474	0.160566
675.761851	0.160501
675.965210	0.161094
676.168551	0.161713
676.371873	0.161731
676.575178	0.161972
676.778464	0.162493
676.981732	0.162721
677.184981	0.162992
677.388213	0.163189
677.591426	0.163470
677.794621	0.163414
677.997798	0.163234
678.200956	0.163624
678.404097	0.163543
678.607219	0.163115
678.810323	0.163396
679.013408	0.163369
679.216476	0.163518
679.419525	0.163553
679.622556	0.163654
679.825569	0.164006
680.028563	0.164045
680.231540	0.164029
680.434498	0.163936
680.637438	0.163426
680.840359	0.163425
681.043263	0.163383
681.246148	0.163106
681.449015	0.163166
681.651864	0.163128
681.854694	0.163229
682.057506	0.163157
682.260301	0.163201
682.463076	0.163469
682.665834	0.163436
682.868573	0.163563
683.071295	0.163894
683.273998	0.164235
683.476682	0.164202
683.679349	0.163982
683.881997	0.164040
684.084627	0.164737
684.287239	0.164806
684.489833	0.165077
684.692408	0.165087
684.894965	0.165591
685.097504	0.165445
685.300025	0.165722
685.502527	0.165964
685.705012	0.166152
685.907478	0.165676
686.109925	0.166019
686.312355	0.166318
686.514766	0.166349
686.717159	0.166171
686.919534	0.166142
687.121891	0.166404
687.324230	0.166739
687.526550	0.166972
687.728852	0.167020
687.931136	0.167323
688.133401	0.167082
688.335649	0.167550
688.537878	0.167691
688.740089	0.167945
688.942281	0.167700
689.144456	0.167771
689.346612	0.167973
689.548750	0.168504
689.750870	0.168225
689.952971	0.168919
690.155055	0.168668
690.357120	0.168656
690.559167	0.168772
690.761195	0.169283
690.963206	0.169202
691.165198	0.169175
691.367172	0.169297
691.569128	0.169535
691.771065	0.169107
691.972984	0.169186
692.174885	0.169203
692.376768	0.168766
692.578633	0.168236
692.780479	0.168173
692.982308	0.168276
693.184118	0.168355
693.385909	0.168186
693.587683	0.168163
693.789438	0.167958
693.991175	0.167714
694.192894	0.168018
694.394595	0.167936
694.596277	0.168128
694.797941	0.167637
694.999587	0.167614
695.201215	0.167977
695.402824	0.168219
695.604416	0.168254
695.805989	0.168333
696.007543	0.168405
696.209080	0.168781
696.410598	0.168896
696.612099	0.169314
696.813580	0.169378
697.015044	0.169396
697.216490	0.169257
697.417917	0.169749
697.619326	0.169988
697.820717	0.170062
698.022089	0.170061
698.223444	0.169723
698.424780	0.169863
698.626098	0.169559
698.827397	0.169638
699.028679	0.169743
699.229942	0.169739
699.431187	0.169718
699.632414	0.169933
699.833622	0.170112
700.034813	0.170560
700.235985	0.170656
700.437139	0.170988
700.638274	0.170988
700.839392	0.171165
701.040491	0.170966
701.241572	0.171271
701.442635	0.171041
701.643679	0.171001
701.844706	0.170875
702.045714	0.170673
702.246704	0.170603
702.447675	0.170696
702.648629	0.170940
702.849564	0.171292
703.050481	0.171185
703.251380	0.171525
703.452260	0.171483
703.653122	0.171689
703.853966	0.171898
704.054792	0.172116
704.255600	0.171842
704.456389	0.171557
704.657160	0.171694
704.857913	0.171791
705.058648	0.171510
705.259365	0.171941
705.460063	0.172034
705.660743	0.172311
705.861405	0.172313
706.062048	0.172613
706.262674	0.172613
706.463281	0.172294
706.663870	0.172213
706.864441	0.172778
707.064993	0.172343
707.265527	0.172007
707.466043	0.171878
707.666541	0.171585
707.867021	0.171692
708.067482	0.171586
708.267925	0.171634
708.468350	0.171496
708.668757	0.170859
708.869145	0.170910
709.069516	0.170561
709.269868	0.170337
709.470201	0.170362
709.670517	0.170164
709.870814	0.170324
710.071093	0.170273
710.271354	0.170265
710.471597	0.170645
710.671821	0.170733
710.872028	0.171243
711.072216	0.171633
711.272385	0.171818
711.472537	0.171752
711.672670	0.171687
711.872785	0.171598
712.072882	0.171621
712.272961	0.171142
712.473021	0.171191
712.673063	0.171102
712.873087	0.170509
713.073093	0.170412
713.273081	0.170235
713.473050	0.170246
713.673001	0.170230
713.872934	0.170062
714.072849	0.169870
714.272745	0.169625
714.472623	0.169493
714.672483	0.169362
714.872325	0.169038
715.072148	0.168791
715.271954	0.168430
715.471741	0.168382
715.671509	0.168509
715.871260	0.168947
716.070992	0.169129
716.270707	0.169355
716.470403	0.169400
716.670080	0.169214
716.869740	0.169421
717.069381	0.169486
717.269004	0.169202
717.468609	0.169076
717.668195	0.168973
717.867764	0.168751
718.067314	0.168259
718.266846	0.168060
718.466360	0.167917
718.665855	0.167774
718.865332	0.167530
719.064791	0.167584
719.264232	0.167464
719.463655	0.167642
719.663059	0.167556
719.862445	0.167309
720.061813	0.167271
720.261163	0.167431
720.460494	0.167267
720.659807	0.167555
720.859102	0.167444
721.058379	0.167340
721.257638	0.166676
721.456878	0.166447
721.656100	0.166426
721.855304	0.166431
722.054490	0.166607
722.253657	0.166641
722.452806	0.166297
722.651937	0.166339
722.851050	0.166276
723.050145	0.166341
723.249221	0.166077
723.448279	0.165995
723.647319	0.165726
723.846340	0.165376
724.045344	0.165280
724.244329	0.165158
724.443296	0.164885
724.642245	0.164594
724.841175	0.164294
725.040088	0.164204
725.238982	0.164349
725.437857	0.164228
725.636715	0.164024
725.835554	0.163961
726.034376	0.163969
726.233179	0.163747
726.431963	0.163711
726.630730	0.163680
726.829478	0.163361
727.028208	0.163211
727.226920	0.163349
727.425614	0.163388
727.624289	0.163108
727.822946	0.162921
728.021585	0.162730
728.220206	0.162523
728.418808	0.162548
728.617392	0.162672
728.815958	0.162152
729.014506	0.162127
729.213036	0.162112
729.411547	0.161959
729.610040	0.161871
729.808515	0.161912
730.006972	0.161973
730.205410	0.161514
730.403831	0.161379
730.602233	0.161611
730.800616	0.161263
730.998982	0.160676
731.197329	0.160395
731.395658	0.160181
731.593969	0.160224
731.792262	0.160119
731.990536	0.160178
732.188793	0.160334
732.387031	0.160513
732.585250	0.160629
732.783452	0.161074
732.981635	0.161125
733.179800	0.161554
733.377947	0.161590
733.576076	0.161732
733.774186	0.162055
733.972278	0.161701
734.170352	0.161089
734.368408	0.160812
734.566446	0.160562
734.764465	0.160581
734.962466	0.160048
735.160449	0.159735
735.358413	0.159356
735.556360	0.159094
735.754288	0.159246
735.952198	0.159099
736.150090	0.159030
736.347963	0.158935
736.545818	0.159158
736.743655	0.159094
736.941474	0.158816
737.139275	0.158831
737.337057	0.158712
737.534821	0.158573
737.732567	0.158764
737.930295	0.158800
738.128005	0.158779
738.325696	0.158643
738.523369	0.158896
738.721024	0.159112
738.918660	0.159484
739.116279	0.159466
739.313879	0.159210
739.511461	0.159350
739.709024	0.159359
739.906570	0.159623
740.104097	0.159174
740.301606	0.159015
740.499097	0.158928
740.696569	0.158733
740.894024	0.158592
741.091460	0.158894
741.288878	0.159015
741.486277	0.159108
741.683659	0.158946
741.881022	0.159485
742.078367	0.159294
742.275694	0.159445
742.473002	0.159103
742.670293	0.159444
742.867565	0.159270
743.064819	0.158702
743.262054	0.158437
743.459272	0.158267
743.656471	0.158045
743.853652	0.157844
744.050815	0.157944
744.247959	0.157913
744.445085	0.157787
744.642194	0.157628
744.839283	0.158007
745.036355	0.157778
745.233408	0.157754
745.430444	0.157085
745.627461	0.157002
745.824459	0.156380
746.021440	0.156309
746.218402	0.156118
746.415346	0.155800
746.612272	0.155199
746.809180	0.155135
747.006069	0.154594
747.202940	0.154802
747.399793	0.154398
747.596628	0.154271
747.793444	0.153852
747.990243	0.153638
748.187023	0.153824
748.383784	0.153508
748.580528	0.153335
748.777253	0.153309
748.973960	0.152953
749.170649	0.152927
749.367320	0.152795
749.563973	0.152442
749.760607	0.151648
749.957223	0.151189
750.153821	0.151091
750.350400	0.150932
750.546962	0.150833
750.743505	0.150570
750.940030	0.150379
751.136536	0.150246
751.333025	0.150240
751.529495	0.149949
751.725947	0.150082
751.922381	0.149922
752.118796	0.149876
752.315194	0.149902
752.511573	0.149923
752.707934	0.149867
752.904276	0.150017
753.100601	0.150376
753.296907	0.150792
753.493195	0.150332
753.689465	0.150362
753.885716	0.150110
754.081949	0.149701
754.278164	0.149367
754.474361	0.149463
754.670540	0.149270
754.866700	0.149004
755.062843	0.148864
755.258967	0.149093
755.455072	0.148908
755.651160	0.149056
755.847229	0.149387
756.043280	0.149361
756.239313	0.148862
756.435328	0.148833
756.631324	0.148784
756.827302	0.149058
757.023262	0.149141
757.219204	0.149126
757.415127	0.149108
757.611033	0.148808
757.806920	0.148851
758.002788	0.149052
758.198639	0.149142
758.394471	0.149200
758.590286	0.148795
758.786081	0.148376
758.981859	0.148563
759.177619	0.148171
759.373360	0.148108
759.569083	0.148288
759.764788	0.148472
759.960474	0.148417
760.156143	0.148034
760.351793	0.148113
760.547425	0.148218
760.743038	0.147943
760.938634	0.147960
761.134211	0.147665
761.329770	0.147656
761.525311	0.147737
761.720833	0.147336
761.916338	0.147228
762.111824	0.147253
762.307292	0.147327
762.502741	0.147388
762.698173	0.147608
762.893586	0.147882
763.088981	0.147987
763.284358	0.147803
763.479716	0.147851
763.675057	0.148363
763.870379	0.148183
764.065683	0.148162
764.260968	0.148147
764.456236	0.147942
764.651485	0.148039
764.846716	0.147759
765.041929	0.147528
765.237123	0.147337
765.432299	0.147101
765.627457	0.147176
765.822597	0.147095
766.017719	0.147213
766.212822	0.147324
766.407907	0.146884
766.602974	0.146680
766.798023	0.146791
766.993054	0.146550
767.188066	0.146514
767.383060	0.146190
767.578036	0.146046
767.772993	0.145897
767.967933	0.145685
768.162854	0.145631
768.357757	0.145934
768.552642	0.145982
768.747508	0.146283
768.942356	0.146185
769.137186	0.146638
769.331998	0.146490
769.526792	0.146158
769.721567	0.146113
769.916324	0.146126
770.111063	0.145875
770.305784	0.145697
770.500486	0.145366
770.695171	0.145289
770.889837	0.144730
771.084484	0.144746
771.279114	0.144865
771.473725	0.144755
771.668318	0.144416
771.862893	0.144172
772.057450	0.144016
772.251988	0.143858
772.446509	0.143471
772.641011	0.143840
772.835494	0.143804
773.029960	0.143901
773.224407	0.143866
773.418836	0.143986
773.613247	0.143521
773.807640	0.143213
774.002014	0.142892
774.196370	0.143105
774.390708	0.143011
774.585028	0.142978
774.779330	0.143148
774.973613	0.143243
775.167878	0.143491
775.362125	0.143864
775.556354	0.144241
775.750564	0.144730
775.944756	0.144489
776.138930	0.144213
776.333086	0.143816
776.527223	0.143360
776.721343	0.143195
776.915444	0.142719
777.109526	0.142919
777.303591	0.142811
777.497637	0.143079
777.691666	0.143092
777.885676	0.143474
778.079667	0.143735
778.273641	0.143989
778.467596	0.144025
778.661533	0.144576
778.855452	0.144955
779.049352	0.144787
779.243235	0.144527
779.437099	0.144712
779.630945	0.144253
779.824773	0.144389
780.018582	0.144085
780.212373	0.143959
780.406146	0.143826
780.599901	0.143469
780.793638	0.143278
780.987356	0.143201
781.181056	0.143270
781.374738	0.143582
781.568402	0.143538
781.762047	0.143966
781.955674	0.144278
782.149283	0.144370
782.342874	0.144383
782.536447	0.144587
782.730001	0.144555
782.923537	0.144709
783.117055	0.144511
783.310555	0.144281
783.504036	0.143842
783.697499	0.143266
783.890944	0.142834
784.084371	0.142979
784.277780	0.143044
784.471170	0.142994
784.664542	0.142923
784.857896	0.142665
785.051231	0.142719
785.244549	0.142898
785.437848	0.143543
785.631129	0.143318
785.824392	0.142986
786.017636	0.142994
786.210863	0.143341
786.404071	0.143151
786.597260	0.143623
786.790432	0.143420
786.983585	0.143164
787.176721	0.142755
787.369838	0.143385
787.562936	0.143234
787.756017	0.142907
787.949079	0.142668
788.142123	0.142373
788.335149	0.142026
788.528156	0.142404
788.721146	0.142446
788.914117	0.142514
789.107070	0.142282
789.300005	0.142354
789.492921	0.142775
789.685819	0.143009
789.878699	0.143421
790.071561	0.143229
790.264405	0.143241
790.457230	0.143567
790.650037	0.143875
790.842826	0.143839
791.035597	0.143797
791.228349	0.144042
791.421084	0.144390
791.613800	0.144301
791.806497	0.144448
791.999177	0.144224
792.191838	0.143991
792.384481	0.143909
792.577106	0.144193
792.769713	0.144558
792.962301	0.144571
793.154871	0.144414
793.347423	0.144482
793.539957	0.144775
793.732473	0.145119
793.924970	0.145398
794.117449	0.145370
794.309910	0.145226
794.502353	0.145146
794.694777	0.144893
794.887183	0.144885
795.079571	0.144946
795.271941	0.145097
795.464293	0.145237
795.656626	0.145479
795.848941	0.145408
796.041238	0.145456
796.233516	0.145424
796.425777	0.146066
796.618019	0.145783
796.810243	0.146070
797.002449	0.146230
797.194636	0.146021
797.386805	0.145568
797.578956	0.145761
797.771089	0.146057
797.963204	0.146283
798.155300	0.145792
798.347378	0.146217
798.539438	0.145959
798.731480	0.145519
798.923503	0.145904
799.115509	0.146227
799.307496	0.146515
799.499465	0.146585
799.691415	0.146879
799.883348	0.147119
800.075262	0.147119
800.267158	0.147845
800.459035	0.148520
800.650895	0.148262
800.842736	0.148625
801.034559	0.148464
801.226364	0.148486
801.418150	0.148639
801.609919	0.148940
801.801669	0.148809
801.993401	0.148486
802.185114	0.148461
802.376810	0.149001
802.568487	0.148829
802.760146	0.149065
802.951787	0.148989
803.143409	0.149073
803.335014	0.149054
803.526600	0.149259
803.718168	0.149310
803.909717	0.149768
804.101249	0.150064
804.292762	0.150422
804.484257	0.150671
804.675734	0.150967
804.867192	0.150802
805.058632	0.150901
805.250054	0.151279
805.441458	0.151431
805.632844	0.151243
805.824211	0.150777
806.015561	0.150844
806.206891	0.151115
806.398204	0.151014
806.589499	0.151060
806.780775	0.151091
806.972033	0.151160
807.163273	0.151501
807.354495	0.151517
807.545698	0.151747
807.736883	0.151783
807.928050	0.151407
808.119199	0.151853
808.310329	0.151890
808.501441	0.151988
808.692535	0.152007
808.883611	0.151962
809.074669	0.152078
809.265708	0.152454
809.456729	0.152129
809.647732	0.152418
809.838717	0.152573
810.029683	0.152517
810.220632	0.152666
810.411562	0.152597
810.602474	0.152970
810.793367	0.152728
810.984242	0.152661
811.175100	0.153030
811.365938	0.152988
811.556759	0.153126
811.747562	0.153757
811.938346	0.153686
812.129112	0.154074
812.319860	0.153822
812.510589	0.154163
812.701300	0.154434
812.891994	0.154239
813.082668	0.154656
813.273325	0.154591
813.463964	0.154564
813.654584	0.155039
813.845186	0.155151
814.035769	0.155241
814.226335	0.155497
814.416882	0.155585
814.607411	0.156176
814.797922	0.156164
814.988415	0.156074
815.178889	0.156105
815.369345	0.155819
815.559783	0.156010
815.750203	0.155814
815.940605	0.155932
816.130988	0.155781
816.321353	0.155822
816.511700	0.155700
816.702028	0.156105
816.892339	0.156302
817.082631	0.156812
817.272905	0.156656
817.463161	0.156816
817.653398	0.156451
817.843617	0.156337
818.033819	0.156728
818.224001	0.157050
818.414166	0.156928
818.604312	0.156929
818.794440	0.156671
818.984550	0.156620
819.174642	0.157086
819.364716	0.156857
819.554771	0.157130
819.744808	0.156634
819.934827	0.156799
820.124827	0.156659
820.314810	0.156740
820.504774	0.156737
820.694720	0.156437
820.884647	0.156307
821.074557	0.157072
821.264448	0.157200
821.454321	0.157572
821.644176	0.157233
821.834012	0.157682
822.023831	0.157871
822.213631	0.158160
822.403413	0.158892
822.593176	0.158971
822.782922	0.158853
822.972649	0.158877
823.162358	0.158697
823.352049	0.158913
823.541721	0.158920
823.731376	0.159089
823.921012	0.158744
824.110629	0.158404
824.300229	0.158570
824.489811	0.158744
824.679374	0.158477
824.868919	0.158772
825.058445	0.158848
825.247954	0.158669
825.437444	0.158626
825.626916	0.159449
825.816370	0.159954
826.005806	0.159869
826.195223	0.159863
826.384622	0.160452
826.574003	0.160624
826.763366	0.160983
826.952711	0.161684
827.142037	0.162168
827.331345	0.161783
827.520635	0.161994
827.709906	0.162330
827.899160	0.162947
828.088395	0.163181
828.277612	0.163455
828.466810	0.163808
828.655991	0.163449
828.845153	0.163172
829.034297	0.163575
829.223423	0.163697
829.412531	0.163754
829.601620	0.163553
829.790691	0.163662
829.979744	0.163419
830.168779	0.163188
830.357795	0.163917
830.546793	0.164175
830.735773	0.163665
830.924735	0.163632
831.113679	0.164117
831.302604	0.164632
831.491511	0.164493
831.680400	0.165159
831.869271	0.165296
832.058123	0.164960
832.246957	0.165714
832.435773	0.166788
832.624571	0.166842
832.813351	0.166965
833.002112	0.166643
833.190855	0.167064
833.379580	0.167380
833.568287	0.167792
833.756975	0.167682
833.945645	0.167431
834.134297	0.167263
834.322931	0.167617
834.511547	0.167641
834.700144	0.168244
834.888723	0.168635
835.077284	0.168429
835.265826	0.168440
835.454351	0.169190
835.642857	0.169231
835.831345	0.169754
836.019815	0.170400
836.208266	0.170570
836.396699	0.171007
836.585114	0.171247
836.773511	0.171434
836.961890	0.171662
837.150250	0.171940
837.338592	0.172137
837.526916	0.172185
837.715222	0.172184
837.903510	0.172426
838.091779	0.171775
838.280030	0.171674
838.468263	0.171709
838.656477	0.172040
838.844674	0.172152
839.032852	0.172064
839.221012	0.171992
839.409153	0.171956
839.597277	0.171702
839.785382	0.172876
839.973469	0.172759
840.161538	0.173444
840.349589	0.173732
840.537621	0.173957
840.725635	0.174771
840.913631	0.174886
841.101609	0.174928
841.289568	0.175712
841.477509	0.175159
841.665432	0.176095
841.853337	0.176405
842.041224	0.176451
842.229092	0.176558
842.416942	0.176119
842.604774	0.176545
842.792588	0.176898
842.980383	0.176920
843.168160	0.177324
843.355919	0.177248
843.543660	0.177534
843.731382	0.177411
843.919087	0.177545
844.106773	0.178167
844.294441	0.178472
844.482090	0.178519
844.669722	0.179668
844.857335	0.179384
845.044930	0.179531
845.232507	0.179477
845.420065	0.179955
845.607605	0.180058
845.795127	0.180020
845.982631	0.180418
846.170117	0.180566
846.357584	0.180322
846.545033	0.180922
846.732464	0.181232
846.919877	0.181162
847.107272	0.181276
847.294648	0.181575
847.482006	0.182248
847.669346	0.182180
847.856667	0.182539
848.043971	0.182573
848.231256	0.182863
848.418523	0.182907
848.605771	0.183640
848.793002	0.184389
848.980214	0.184983
849.167408	0.185019
849.354584	0.185304
849.541742	0.185721
849.728881	0.185845
849.916002	0.186516
850.103105	0.186843
850.290190	0.186489
850.477256	0.186860
850.664304	0.186521
850.851334	0.186993
851.038346	0.187523
851.225340	0.187803
851.412315	0.187754
851.599272	0.187903
851.786211	0.188245
851.973132	0.188132
852.160034	0.188514
852.346918	0.189146
852.533784	0.189506
852.720632	0.189341
852.907462	0.190101
853.094273	0.190531
853.281066	0.190681
853.467841	0.190716
853.654598	0.191746
853.841336	0.191619
854.028056	0.191985
854.214758	0.191538
854.401442	0.192415
854.588107	0.192088
854.774755	0.192395
854.961384	0.192429
855.147995	0.193151
855.334587	0.193369
855.521162	0.193251
855.707718	0.193087
855.894256	0.193527
856.080775	0.193563
856.267277	0.193447
856.453760	0.193613
856.640225	0.193763
856.826672	0.193724
857.013101	0.193790
857.199511	0.193492
857.385903	0.193840
857.572277	0.194046
857.758633	0.193853
857.944970	0.194643
858.131290	0.194718
858.317591	0.194808
858.503873	0.194226
858.690138	0.193789
858.876384	0.194444
859.062612	0.194430
859.248822	0.194496
859.435014	0.194269
859.621188	0.194033
859.807343	0.193557
859.993480	0.193801
860.179599	0.194156
860.365699	0.194651
860.551781	0.194708
860.737846	0.194935
860.923891	0.195003
861.109919	0.195101
861.295929	0.195195
861.481920	0.196000
861.667893	0.196121
861.853848	0.196645
862.039784	0.196487
862.225702	0.196786
862.411603	0.196244
862.597484	0.196244
862.783348	0.196816
862.969193	0.196769
863.155021	0.197093
863.340830	0.197111
863.526620	0.197300
863.712393	0.197607
863.898147	0.197529
864.083883	0.198014
864.269601	0.198144
864.455301	0.197549
864.640982	0.197385
864.826645	0.197461
865.012290	0.197950
865.197917	0.198171
865.383526	0.197740
865.569116	0.198489
865.754688	0.199517
865.940242	0.199583
866.125777	0.200531
866.311295	0.201173
866.496794	0.200236
866.682275	0.199859
866.867737	0.199851
867.053182	0.200878
867.238608	0.200837
867.424016	0.200390
867.609406	0.200820
867.794778	0.201237
867.980131	0.202317
868.165466	0.203025
868.350783	0.203788
868.536082	0.204162
868.721362	0.204366
868.906625	0.204488
869.091869	0.204483
869.277094	0.204764
869.462302	0.204261
869.647491	0.203481
869.832662	0.203730
870.017815	0.204053
870.202950	0.203545
870.388066	0.203843
870.573165	0.203935
870.758245	0.204159
870.943306	0.203625
871.128350	0.204214
871.313375	0.204607
871.498382	0.204551
871.683371	0.204342
871.868342	0.204841
872.053294	0.204578
872.238229	0.204342
872.423144	0.204409
872.608042	0.205345
872.792922	0.205314
872.977783	0.205401
873.162626	0.205845
873.347451	0.206224
873.532258	0.206048
873.717046	0.206052
873.901816	0.206270
874.086568	0.206943
874.271302	0.206585
874.456017	0.206764
874.640715	0.205955
874.825394	0.206022
875.010055	0.205384
875.194697	0.205666
875.379322	0.205495
875.563928	0.205365
875.748516	0.205347
875.933085	0.205560
876.117637	0.205375
876.302170	0.205990
876.486685	0.206086
876.671182	0.205675
876.855661	0.205705
877.040121	0.206380
877.224563	0.205964
877.408987	0.205468
877.593393	0.205936
877.777780	0.206338
877.962150	0.206312
878.146501	0.207255
878.330833	0.207735
878.515148	0.207919
878.699444	0.207903
878.883722	0.208771
879.067982	0.209413
879.252224	0.209113
879.436447	0.208409
879.620653	0.208834
879.804840	0.208007
879.989008	0.208245
880.173159	0.209078
880.357291	0.209558
880.541405	0.209257
880.725501	0.208981
880.909579	0.209288
881.093638	0.210041
881.277680	0.210114
881.461703	0.210561
881.645707	0.211273
881.829694	0.211207
882.013662	0.211488
882.197612	0.212132
882.381544	0.212256
882.565458	0.211722
882.749353	0.211387
882.933230	0.211917
883.117089	0.211654
883.300930	0.211416
883.484753	0.210954
883.668557	0.211168
883.852343	0.210920
884.036111	0.211410
884.219861	0.212022
884.403592	0.212519
884.587305	0.212017
884.771000	0.211788
884.954677	0.211669
885.138335	0.211612
885.321976	0.211222
885.505598	0.211527
885.689201	0.211128
885.872787	0.211077
886.056354	0.211554
886.239904	0.211625
886.423434	0.211958
886.606947	0.211763
886.790442	0.211824
886.973918	0.211443
887.157376	0.210934
887.340816	0.210617
887.524237	0.210604
887.707641	0.210564
887.891026	0.211458
888.074393	0.212244
888.257741	0.212631
888.441072	0.212743
888.624384	0.212344
888.807678	0.212523
888.990954	0.212787
889.174211	0.212733
889.357451	0.212110
889.540672	0.211497
889.723875	0.210523
889.907059	0.210466
890.090226	0.210724
890.273374	0.210986
890.456504	0.211211
890.639616	0.210937
890.822709	0.210981
891.005785	0.211014
891.188842	0.211127
891.371881	0.211150
891.554901	0.211104
891.737904	0.210663
891.920888	0.210812
892.103854	0.210776
892.286802	0.211960
892.469731	0.211466
892.652643	0.211971
892.835536	0.211684
893.018410	0.211283
893.201267	0.211726
893.384106	0.211806
893.566926	0.211902
893.749728	0.211685
893.932511	0.210927
894.115277	0.211133
894.298024	0.210500
894.480753	0.210318
894.663464	0.210344
894.846157	0.209752
895.028831	0.209762
895.211487	0.209253
895.394125	0.209052
895.576745	0.209470
895.759346	0.209181
895.941930	0.210344
896.124495	0.209987
896.307041	0.210321
896.489570	0.210177
896.672080	0.210170
896.854573	0.210296
897.037046	0.209903
897.219502	0.209057
897.401940	0.208789
897.584359	0.207366
897.766760	0.207325
897.949143	0.206720
898.131507	0.206196
898.313854	0.205495
898.496182	0.205163
898.678492	0.204935
898.860783	0.205069
899.043057	0.205458
899.225312	0.205879
899.407549	0.205709
899.589768	0.206007
899.771968	0.206373
899.954151	0.206624
900.136315	0.207234
900.318461	0.208436
900.500588	0.208779
900.682698	0.209461
900.864789	0.208585
901.046862	0.208028
901.228917	0.208196
901.410953	0.208828
901.592971	0.208167
901.774972	0.207115
901.956953	0.205935
902.138917	0.204418
902.320862	0.203930
902.502790	0.204171
902.684699	0.204649
902.866589	0.204597
903.048462	0.203859
903.230316	0.204319
903.412152	0.204594
903.593970	0.204810
903.775770	0.206009
903.957551	0.204407
904.139314	0.203929
904.321059	0.204063
904.502786	0.203442
904.684494	0.203424
904.866185	0.202316
905.047857	0.201881
905.229510	0.200995
905.411146	0.199758
905.592763	0.200774
905.774363	0.200944
905.955943	0.200336
906.137506	0.200568
906.319051	0.200297
906.500577	0.200681
906.682085	0.200187
906.863575	0.200157
907.045046	0.200261
907.226500	0.199664
907.407935	0.198671
907.589352	0.198135
907.770750	0.197976
907.952131	0.197257
908.133493	0.197559
908.314837	0.197381
908.496163	0.197655
908.677470	0.197405
908.858760	0.196253
909.040031	0.196127
909.221284	0.196793
909.402518	0.196317
909.583735	0.196696
909.764933	0.195641
909.946113	0.196229
910.127275	0.196063
910.308418	0.196427
910.489544	0.196953
910.670651	0.197210
910.851740	0.195932
911.032810	0.194809
911.213863	0.194384
911.394897	0.195298
911.575913	0.195101
911.756911	0.194924
911.937890	0.193575
912.118851	0.193490
912.299794	0.193473
912.480719	0.193505
912.661626	0.194040
912.842514	0.193445
913.023384	0.192870
913.204236	0.191682
913.385070	0.190897
913.565886	0.191081
913.746683	0.190961
913.927462	0.190874
914.108223	0.190180
914.288965	0.190082
914.469690	0.190181
914.650396	0.189782
914.831084	0.189956
915.011754	0.189557
915.192405	0.189357
915.373038	0.189342
915.553653	0.189038
915.734250	0.189021
915.914829	0.189249
916.095389	0.188854
916.275931	0.188078
916.456455	0.187660
916.636961	0.187561
916.817448	0.186423
916.997917	0.185909
917.178368	0.184861
917.358801	0.183659
917.539216	0.182613
917.719612	0.182220
917.899990	0.181705
918.080350	0.181460
918.260692	0.180281
918.441015	0.179859
918.621320	0.179480
918.801607	0.180025
918.981876	0.180877
919.162127	0.179221
919.342359	0.179275
919.522573	0.179641
919.702769	0.179437
919.882947	0.178961
920.063106	0.179558
920.243247	0.179837
920.423370	0.179356
920.603475	0.179756
920.783562	0.180995
920.963630	0.179266
921.143680	0.179487
921.323712	0.178674
921.503725	0.179512
921.683721	0.180024
921.863698	0.178042
922.043657	0.177394
922.223598	0.175657
922.403520	0.174412
922.583424	0.173910
922.763311	0.171918
922.943178	0.171603
923.123028	0.170915
923.302859	0.168848
923.482673	0.169083
923.662467	0.169319
923.842244	0.169743
924.022003	0.170989
924.201743	0.171883
924.381465	0.172177
924.561169	0.171409
924.740854	0.170805
924.920522	0.171049
925.100171	0.170536
925.279802	0.169424
925.459414	0.168418
925.639009	0.167337
925.818585	0.166591
925.998143	0.165982
926.177683	0.165937
926.357205	0.165289
926.536708	0.163342
926.716193	0.163145
926.895660	0.162786
927.075109	0.161649
927.254539	0.160940
927.433951	0.160031
927.613345	0.159846
927.792721	0.159194
927.972079	0.160115
928.151418	0.161013
928.330739	0.160852
928.510042	0.159326
928.689327	0.159502
928.868593	0.157722
929.047841	0.156769
929.227071	0.156238
929.406283	0.154998
929.585476	0.153542
929.764652	0.153764
929.943809	0.151985
930.122948	0.153199
930.302068	0.153433
930.481171	0.152853
930.660255	0.153484
930.839321	0.152786
931.018369	0.153312
931.197398	0.154381
931.376409	0.153343
931.555402	0.154530
931.734377	0.153482
931.913334	0.153062
932.092272	0.153247
932.271192	0.152728
932.450094	0.151794
932.628978	0.152924
932.807844	0.152676
932.986691	0.153114
933.165520	0.151357
933.344331	0.149887
933.523123	0.149441
933.701898	0.148916
933.880654	0.148772
934.059392	0.148403
934.238111	0.146813
934.416813	0.144248
934.595496	0.142507
934.774161	0.142951
934.952808	0.144339
935.131437	0.144264
935.310047	0.144015
935.488639	0.145248
935.667213	0.144464
935.845769	0.143535
936.024306	0.144140
936.202825	0.144747
936.381326	0.143296
936.559809	0.143297
936.738274	0.142332
936.916720	0.143192
937.095148	0.140227
937.273558	0.140553
937.451950	0.140222
937.630323	0.139077
937.808678	0.138351
937.987015	0.139762
938.165334	0.137439
938.343635	0.136952
938.521917	0.136073
938.700181	0.134545
938.878427	0.133349
939.056655	0.131961
939.234864	0.131848
939.413055	0.129804
939.591228	0.126950
939.769383	0.125288
939.947519	0.123011
940.125638	0.121324
940.303738	0.121381
940.481820	0.121869
940.659883	0.122637
940.837929	0.121280
941.015956	0.123800
941.193965	0.123370
941.371955	0.125556
941.549928	0.126097
941.727882	0.124938
941.905818	0.123942
942.083736	0.122102
942.261636	0.122945
942.439517	0.123055
942.617380	0.121250
942.795225	0.123102
942.973052	0.120575
943.150860	0.120894
943.328651	0.122832
943.506423	0.123161
943.684176	0.124439
943.861912	0.120576
944.039629	0.120571
944.217328	0.118142
944.395009	0.115851
944.572672	0.114354
944.750317	0.112209
944.927943	0.112535
945.105551	0.111506
945.283141	0.110016
945.460712	0.111179
945.638265	0.107544
945.815801	0.108414
945.993317	0.108793
946.170816	0.110696
946.348297	0.109282
946.525759	0.106641
946.703203	0.107044
946.880629	0.108668
947.058036	0.107962
947.235425	0.109817
947.412797	0.108223
947.590149	0.104943
947.767484	0.104877
947.944800	0.103334
948.122099	0.102196
948.299379	0.100365
948.476640	0.096032
948.653884	0.095534
948.831109	0.096614
949.008316	0.097885
949.185505	0.100926
949.362676	0.099559
949.539828	0.101216
949.716962	0.100304
949.894078	0.101446
950.071176	0.100667
950.248256	0.099184
950.425317	0.096244
950.602360	0.091205
950.779385	0.091768
950.956391	0.089016
951.133380	0.090442
951.310350	0.090522
951.487302	0.087731
951.664235	0.092191
951.841151	0.094090
952.018048	0.096707
952.194927	0.098492
952.371788	0.094786
952.548631	0.096711
952.725455	0.096467
952.902261	0.095197
953.079049	0.093441
953.255819	0.090575
953.432570	0.088062
953.609303	0.084862
953.786018	0.089470
953.962715	0.088174
954.139394	0.085482
954.316054	0.084765
954.492696	0.090320
954.669320	0.094937
954.845926	0.093398
955.022513	0.092755
955.199083	0.094780
955.375634	0.090190
955.552166	0.091321
955.728681	0.090428
955.905177	0.089875
956.081655	0.087016
956.258115	0.084636
956.434557	0.083339
956.610980	0.082101
956.787385	0.079487
956.963772	0.074797
957.140141	0.076778
957.316492	0.076047
957.492824	0.078143
957.669138	0.075436
957.845434	0.073194
958.021712	0.074403
958.197971	0.072341
958.374212	0.074589
958.550435	0.080470
958.726640	0.080849
958.902826	0.085643
959.078995	0.083666
959.255145	0.085237
959.431277	0.089675
959.607390	0.093897
959.783486	0.101811
959.959563	0.100399
960.135622	0.096171
960.311662	0.087782
960.487685	0.084229
960.663689	0.080890
960.839675	0.081605
961.015643	0.077533
961.191593	0.075380
961.367524	0.074066
961.543437	0.073864
961.719332	0.079413
961.895209	0.087477
962.071067	0.090636
962.246907	0.097957
962.422730	0.097151
962.598533	0.095842
962.774319	0.093184
962.950086	0.089742
963.125835	0.089696
963.301566	0.088774
963.477279	0.084936
963.652973	0.083121
963.828650	0.080964
964.004308	0.079361
964.179947	0.084707
964.355569	0.084279
964.531172	0.083707
964.706757	0.083259
964.882324	0.081584
965.057873	0.080472
965.233403	0.079536
965.408916	0.077200
965.584410	0.075395
965.759885	0.076432
965.935343	0.077069
966.110782	0.076715
966.286203	0.077246
966.461606	0.074637
966.636991	0.077299
966.812357	0.074029
966.987705	0.074721
967.163035	0.075148
967.338347	0.069416
967.513641	0.068609
967.688916	0.071641
967.864173	0.067346
968.039412	0.065678
968.214632	0.065495
968.389835	0.066076
968.565019	0.061543
968.740185	0.066691
968.915333	0.068278
969.090462	0.068774
969.265573	0.067350
969.440667	0.071679
969.615741	0.072053
969.790798	0.070914
969.965836	0.073522
970.140856	0.079047
970.315858	0.073380
970.490842	0.077713
970.665808	0.074930
970.840755	0.076656
971.015684	0.071556
971.190595	0.069762
971.365487	0.071769
971.540362	0.074932
971.715218	0.077076
971.890056	0.083075
972.064875	0.077581
972.239677	0.078631
972.414460	0.074256
972.589225	0.077508
972.763972	0.083268
972.938700	0.084904
973.113411	0.079741
973.288103	0.074964
973.462777	0.073383
973.637432	0.075510
973.812070	0.076146
973.986689	0.082379
974.161290	0.085126
974.335873	0.087047
974.510437	0.078477
974.684984	0.079684
974.859512	0.085478
975.034022	0.079035
975.208513	0.078824
975.382987	0.083210
975.557442	0.080257
975.731879	0.081774
975.906298	0.079561
976.080698	0.088712
976.255080	0.085896
976.429445	0.083791
976.603790	0.086819
976.778118	0.089131
976.952427	0.085121
977.126719	0.082595
977.300992	0.076038
977.475246	0.075970
977.649483	0.067434
977.823701	0.073698
977.997901	0.066742
978.172083	0.065729
978.346247	0.069144
978.520392	0.066208
978.694519	0.072830
978.868628	0.079367
979.042719	0.080039
979.216791	0.086636
979.390845	0.080444
979.564882	0.081656
979.738899	0.080828
979.912899	0.075816
980.086880	0.081899
980.260843	0.074743
980.434788	0.068373
980.608715	0.068780
980.782623	0.066532
980.956514	0.066683
981.130386	0.068359
981.304240	0.072081
981.478075	0.070297
981.651892	0.068873
981.825692	0.068650
981.999472	0.072870
982.173235	0.071250
982.346980	0.070927
982.520706	0.071084
982.694414	0.072262
982.868104	0.073052
983.041775	0.077341
983.215428	0.073729
983.389064	0.076658
983.562680	0.073980
983.736279	0.071710
983.909860	0.073591
984.083422	0.075440
984.256966	0.071645
984.430491	0.068145
984.603999	0.061340
984.777488	0.066465
984.950959	0.069648
985.124412	0.073028
985.297847	0.068589
985.471263	0.070095
985.644661	0.066748
985.818041	0.067957
985.991403	0.072176
986.164747	0.074047
986.338072	0.070658
986.511379	0.067204
986.684668	0.066574
986.857938	0.079486
987.031191	0.072557
987.204425	0.073632
987.377641	0.074674
987.550839	0.071718
987.724018	0.075809
987.897179	0.076872
988.070322	0.079083
988.243447	0.082114
988.416554	0.077511
988.589642	0.080772
988.762712	0.083489
988.935764	0.085233
989.108798	0.093960
989.281813	0.091451
989.454811	0.090661
989.627790	0.086095
989.800751	0.082248
989.973693	0.081434
990.146617	0.081189
990.319524	0.086335
990.492412	0.087697
990.665281	0.079225
990.838133	0.077600
991.010966	0.078622
991.183781	0.080732
991.356578	0.081828
991.529356	0.084764
991.702117	0.084909
991.874859	0.082160
992.047583	0.076191
992.220288	0.075268
992.392976	0.075600
992.565645	0.076338
992.738296	0.075746
992.910929	0.072102
993.083543	0.071254
993.256139	0.071780
993.428718	0.070868
993.601277	0.070928
993.773819	0.072208
993.946342	0.073942
994.118848	0.071585
994.291335	0.071830
994.463803	0.075591
994.636254	0.075470
994.808686	0.078028
994.981100	0.079413
995.153496	0.081830
995.325874	0.078222
995.498233	0.078972
995.670574	0.077802
995.842897	0.077484
996.015202	0.075889
996.187488	0.071753
996.359757	0.070970
996.532007	0.067802
996.704239	0.070283
996.876452	0.075387
997.048648	0.075724
997.220825	0.078318
997.392984	0.077628
997.565124	0.080062
997.737247	0.085062
997.909351	0.086617
998.081437	0.086360
998.253505	0.088323
998.425554	0.089802
998.597586	0.087061
998.769599	0.087742
998.941594	0.086176
999.113571	0.082429
999.285529	0.078757
999.457469	0.077254
999.629391	0.078921
999.801295	0.073450
999.973181	0.072005
1000.145048	0.070292
1000.316897	0.068770
1000.488728	0.069632
1000.660541	0.073835
1000.832335	0.078422
1001.004111	0.074886
1001.175869	0.075656
1001.347609	0.076182
1001.519331	0.075441
1001.691034	0.082366
1001.862719	0.079596
1002.034386	0.080824
1002.206035	0.081343
1002.377665	0.080239
1002.549277	0.088118
1002.720871	0.088394
1002.892447	0.089376
1003.064004	0.086621
1003.235544	0.081865
1003.407065	0.084212
1003.578568	0.087919
1003.750052	0.085351
1003.921519	0.084090
1004.092967	0.078486
1004.264397	0.074601
1004.435809	0.074864
1004.607202	0.080881
1004.778577	0.082396
1004.949934	0.080687
1005.121273	0.076978
1005.292594	0.077354
1005.463896	0.077548
1005.635180	0.078508
1005.806446	0.082535
1005.977694	0.082011
1006.148923	0.078200
1006.320135	0.080053
1006.491328	0.084311
1006.662503	0.084671
1006.833659	0.085051
1007.004798	0.087037
1007.175918	0.084903
1007.347020	0.079080
1007.518103	0.080017
1007.689169	0.074279
1007.860216	0.071688
1008.031245	0.068990
1008.202256	0.071539
1008.373248	0.070802
1008.544223	0.070375
1008.715179	0.072615
1008.886117	0.076443
1009.057036	0.077520
1009.227938	0.080131
1009.398821	0.081899
1009.569686	0.083927
1009.740533	0.082602
1009.911361	0.080433
1010.082172	0.077519
1010.252964	0.081182
1010.423738	0.082652
1010.594493	0.081877
1010.765231	0.086548
1010.935950	0.083314
1011.106651	0.085385
1011.277334	0.080224
1011.447998	0.083662
1011.618645	0.079967
1011.789273	0.074570
1011.959882	0.070538
1012.130474	0.070068
1012.301048	0.067970
1012.471603	0.067425
1012.642140	0.065723
1012.812658	0.069186
1012.983159	0.067063
1013.153641	0.070087
1013.324105	0.068756
1013.494551	0.071227
1013.664979	0.069820
1013.835388	0.071414
1014.005779	0.074587
1014.176152	0.072226
1014.346507	0.074038
1014.516843	0.071530
1014.687162	0.075927
1014.857462	0.079267
1015.027744	0.080777
1015.198007	0.082292
1015.368252	0.077418
1015.538480	0.075742
1015.708689	0.078235
1015.878879	0.075747
1016.049052	0.081056
1016.219206	0.077589
1016.389342	0.076052
1016.559460	0.074914
1016.729559	0.072418
1016.899641	0.076170
1017.069704	0.079538
1017.239749	0.078879
1017.409775	0.078634
1017.579784	0.075497
1017.749774	0.074176
1017.919746	0.074498
1018.089700	0.074401
1018.259635	0.079196
1018.429553	0.084337
1018.599452	0.082708
1018.769333	0.083912
1018.939195	0.083982
1019.109040	0.084007
1019.278866	0.088096
1019.448674	0.087588
1019.618464	0.084775
1019.788235	0.085093
1019.957989	0.078796
1020.127724	0.077709
1020.297441	0.073371
1020.467139	0.071238
1020.636820	0.069179
1020.806482	0.063853
1020.976126	0.068750
1021.145752	0.070866
1021.315359	0.069371
1021.484948	0.068851
1021.654519	0.069188
1021.824072	0.073307
1021.993607	0.075429
1022.163123	0.078952
1022.332621	0.080493
1022.502101	0.075872
1022.671563	0.075577
1022.841007	0.072431
1023.010432	0.071603
1023.179839	0.072419
1023.349228	0.069561
1023.518598	0.071628
1023.687951	0.071380
1023.857285	0.071073
1024.026601	0.074276
1024.195899	0.076668
1024.365178	0.078099
1024.534439	0.079155
1024.703682	0.076570
1024.872907	0.080107
1025.042114	0.079704
1025.211302	0.071643
1025.380472	0.071242
1025.549624	0.067194
1025.718758	0.064482
1025.887873	0.063907
1026.056970	0.068335
1026.226049	0.065696
1026.395110	0.064610
1026.564153	0.065450
1026.733177	0.073916
1026.902183	0.075102
1027.071171	0.077388
1027.240141	0.076916
1027.409092	0.079406
1027.578026	0.076518
1027.746940	0.077705
1027.915837	0.076384
1028.084716	0.080249
1028.253576	0.079909
1028.422418	0.078416
1028.591242	0.077610
1028.760048	0.075648
1028.928835	0.077834
1029.097604	0.076372
1029.266355	0.076670
1029.435088	0.075880
1029.603803	0.067854
1029.772499	0.068157
1029.941177	0.071052
1030.109837	0.073628
1030.278478	0.074350
1030.447102	0.068654
1030.615707	0.070922
1030.784294	0.076347
1030.952863	0.077112
1031.121413	0.079356
1031.289945	0.075156
1031.458460	0.069663
1031.626955	0.064902
1031.795433	0.066389
1031.963892	0.069064
1032.132334	0.067813
1032.300756	0.065549
1032.469161	0.066013
1032.637548	0.063027
1032.805916	0.067855
1032.974266	0.067143
1033.142598	0.066046
1033.310911	0.062948
1033.479207	0.063349
1033.647484	0.061486
1033.815743	0.057615
1033.983983	0.058425
1034.152206	0.065261
1034.320410	0.062329
1034.488596	0.070224
1034.656764	0.072791
1034.824914	0.082743
1034.993045	0.078416
1035.161158	0.078222
1035.329253	0.081578
1035.497330	0.081827
1035.665388	0.080650
1035.833428	0.081241
1036.001450	0.077683
1036.169454	0.076181
1036.337440	0.072359
1036.505407	0.077363
1036.673356	0.083839
1036.841287	0.080797
1037.009200	0.080870
1037.177094	0.080088
1037.344970	0.082093
1037.512828	0.083539
1037.680668	0.082713
1037.848489	0.083110
1038.016293	0.081805
1038.184078	0.077778
1038.351845	0.077275
1038.519593	0.075451
1038.687324	0.074556
1038.855036	0.074702
1039.022730	0.072882
1039.190406	0.073941
1039.358063	0.071641
1039.525702	0.072379
1039.693323	0.070438
1039.860926	0.070495
1040.028511	0.071309
1040.196077	0.069328
1040.363625	0.070346
1040.531155	0.073094
1040.698667	0.074776
1040.866161	0.076155
1041.033636	0.075520
1041.201093	0.075811
1041.368532	0.080295
1041.535952	0.073884
1041.703355	0.074728
1041.870739	0.073806
1042.038105	0.074611
1042.205452	0.075322
1042.372782	0.073063
1042.540093	0.072052
1042.707386	0.070656
1042.874661	0.071438
1043.041918	0.080199
1043.209156	0.079098
1043.376376	0.073669
1043.543578	0.068557
1043.710762	0.069039
1043.877927	0.070552
1044.045074	0.068558
1044.212203	0.070129
1044.379314	0.068704
1044.546407	0.065685
1044.713481	0.067145
1044.880537	0.067791
1045.047575	0.074693
1045.214595	0.074295
1045.381596	0.073088
1045.548579	0.074041
1045.715544	0.075794
1045.882491	0.073297
1046.049420	0.071392
1046.216330	0.070922
1046.383222	0.073028
1046.550096	0.067197
1046.716951	0.064161
1046.883789	0.064402
1047.050608	0.064795
1047.217409	0.060418
1047.384192	0.061505
1047.550956	0.065113
1047.717703	0.066181
1047.884431	0.064620
1048.051140	0.067840
1048.217832	0.073508
1048.384505	0.075797
1048.551161	0.077660
1048.717798	0.079139
1048.884416	0.076429
1049.051017	0.075769
1049.217599	0.077887
1049.384163	0.078285
1049.550709	0.075489
1049.717237	0.070858
1049.883746	0.069287
1050.050237	0.067359
1050.216710	0.069756
1050.383165	0.070050
1050.549601	0.071634
1050.716019	0.066988
1050.882420	0.068110
1051.048801	0.071962
1051.215165	0.074109
1051.381510	0.076369
1051.547837	0.077268
1051.714146	0.075468
1051.880437	0.078426
1052.046709	0.074848
1052.212964	0.074044
1052.379200	0.069451
1052.545417	0.066948
1052.711617	0.062493
1052.877798	0.058930
1053.043961	0.057606
1053.210106	0.055550
1053.376233	0.055798
1053.542341	0.054955
1053.708432	0.061773
1053.874504	0.064220
1054.040557	0.067644
1054.206593	0.069841
1054.372610	0.071443
1054.538609	0.074158
1054.704590	0.074850
1054.870553	0.074470
1055.036497	0.079084
1055.202424	0.076166
1055.368331	0.078880
1055.534221	0.072735
1055.700093	0.075433
1055.865946	0.076010
1056.031781	0.071878
1056.197598	0.069660
1056.363397	0.070340
1056.529177	0.068966
1056.694939	0.068807
1056.860683	0.063404
1057.026409	0.065770
1057.192116	0.063797
1057.357806	0.058620
1057.523477	0.059574
1057.689130	0.064788
1057.854764	0.064534
1058.020381	0.068822
1058.185979	0.066236
1058.351559	0.072578
1058.517120	0.069743
1058.682664	0.069478
1058.848189	0.075732
1059.013696	0.074968
1059.179185	0.075724
1059.344656	0.074496
1059.510108	0.064913
1059.675542	0.067973
1059.840958	0.064712
1060.006356	0.065047
1060.171735	0.066500
1060.337096	0.068654
1060.502439	0.071066
1060.667764	0.066205
1060.833071	0.070409
1060.998359	0.072438
1061.163629	0.068390
1061.328881	0.068672
1061.494115	0.071132
1061.659330	0.073064
1061.824527	0.066508
1061.989706	0.069972
1062.154867	0.072359
1062.320010	0.070856
1062.485134	0.071508
1062.650240	0.070660
1062.815328	0.071171
1062.980398	0.071368
1063.145449	0.068057
1063.310482	0.071000
1063.475497	0.067743
1063.640494	0.070884
1063.805473	0.069014
1063.970433	0.069873
1064.135375	0.072118
1064.300299	0.073550
1064.465204	0.070186
1064.630092	0.068700
1064.794961	0.071207
1064.959812	0.070913
1065.124645	0.067749
1065.289459	0.068853
1065.454256	0.071300
1065.619034	0.076122
1065.783793	0.075441
1065.948535	0.077472
1066.113258	0.080833
1066.277964	0.073358
1066.442651	0.078523
1066.607319	0.084869
1066.771970	0.084166
1066.936602	0.081936
1067.101216	0.074246
1067.265812	0.069850
1067.430389	0.069373
1067.594949	0.069310
1067.759490	0.073357
1067.924013	0.070493
1068.088518	0.067796
1068.253004	0.068570
1068.417472	0.072789
1068.581922	0.077799
1068.746354	0.086105
1068.910768	0.091587
1069.075163	0.092331
1069.239540	0.091455
1069.403899	0.089444
1069.568240	0.085532
1069.732562	0.085873
1069.896866	0.078845
1070.061152	0.077567
1070.225420	0.077163
1070.389670	0.079553
1070.553901	0.082992
1070.718114	0.084643
1070.882309	0.087083
1071.046486	0.085581
1071.210644	0.085067
1071.374784	0.090290
1071.538906	0.091634
1071.703010	0.088658
1071.867096	0.080565
1072.031163	0.070255
1072.195212	0.069670
1072.359243	0.068441
1072.523256	0.069907
1072.687250	0.066972
1072.851226	0.066195
1073.015184	0.063107
1073.179124	0.068601
1073.343045	0.070726
1073.506949	0.072309
1073.670834	0.073703
1073.834701	0.073893
1073.998549	0.077360
1074.162380	0.079492
1074.326192	0.083426
1074.489986	0.085742
1074.653761	0.077072
1074.817519	0.073590
1074.981258	0.076975
1075.144979	0.078064
1075.308682	0.074378
1075.472367	0.073909
1075.636033	0.075671
1075.799681	0.070499
1075.963311	0.068705
1076.126923	0.072808
1076.290516	0.079542
1076.454092	0.076062
1076.617649	0.072719
1076.781187	0.077540
1076.944708	0.075737
1077.108210	0.077037
1077.271695	0.075632
1077.435160	0.073530
1077.598608	0.071315
1077.762038	0.062921
1077.925449	0.065741
1078.088842	0.071599
1078.252217	0.068836
1078.415573	0.070541
1078.578912	0.061612
1078.742232	0.068723
1078.905534	0.069537
1079.068817	0.072101
1079.232083	0.080410
1079.395330	0.085098
1079.558559	0.078185
1079.721770	0.076675
1079.884962	0.072193
1080.048136	0.078523
1080.211293	0.070604
1080.374430	0.072193
1080.537550	0.074644
1080.700651	0.075327
1080.863735	0.071085
1081.026800	0.075114
1081.189846	0.080397
1081.352875	0.075306
1081.515885	0.078465
1081.678877	0.076611
1081.841851	0.075282
1082.004807	0.078889
1082.167744	0.072064
1082.330663	0.072299
1082.493564	0.073374
1082.656447	0.069796
1082.819312	0.077595
1082.982158	0.064860
1083.144986	0.064036
1083.307796	0.068285
1083.470587	0.064610
1083.633361	0.067853
1083.796116	0.068356
1083.958853	0.064875
1084.121571	0.066543
1084.284272	0.064911
1084.446954	0.070412
1084.609618	0.070811
1084.772264	0.072214
1084.934892	0.068346
1085.097501	0.062591
1085.260092	0.067227
1085.422665	0.066746
1085.585220	0.066027
1085.747756	0.074805
1085.910274	0.076842
1086.072774	0.082367
1086.235256	0.076342
1086.397720	0.076914
1086.560165	0.080653
1086.722592	0.078945
1086.885001	0.077382
1087.047392	0.071678
1087.209764	0.060110
1087.372119	0.063458
1087.534455	0.057379
1087.696772	0.054699
1087.859072	0.048390
1088.021353	0.043899
1088.183616	0.043546
1088.345861	0.041765
1088.508088	0.049211
1088.670296	0.054387
1088.832486	0.048732
1088.994658	0.051965
1089.156812	0.053723
1089.318948	0.062649
1089.481065	0.074575
1089.643164	0.068771
1089.805245	0.067251
1089.967308	0.061680
1090.129352	0.068596
1090.291378	0.068515
1090.453386	0.065231
1090.615376	0.070807
1090.777347	0.066882
1090.939301	0.061343
1091.101236	0.060710
1091.263153	0.065825
1091.425051	0.075807
1091.586932	0.066531
1091.748794	0.069485
1091.910638	0.067009
1092.072463	0.056892
1092.234271	0.050742
1092.396060	0.046983
1092.557831	0.044641
1092.719584	0.038236
1092.881319	0.026718
1093.043035	0.022571
1093.204733	0.027223
1093.366413	0.036302
1093.528075	0.043350
1093.689718	0.056998
1093.851343	0.060433
1094.012950	0.064057
1094.174539	0.070052
1094.336110	0.079306
1094.497662	0.083689
1094.659196	0.076347
1094.820712	0.078069
1094.982210	0.085204
1095.143689	0.076522
1095.305151	0.080145
1095.466594	0.084337
1095.628018	0.089157
1095.789425	0.081992
1095.950813	0.082614
1096.112183	0.077348
1096.273535	0.065959
1096.434869	0.059750
1096.596184	0.065110
1096.757482	0.067927
1096.918761	0.062367
1097.080021	0.065630
1097.241264	0.064493
1097.402488	0.065723
1097.563694	0.070319
1097.724882	0.084744
1097.886052	0.086015
1098.047203	0.076691
1098.208336	0.072366
1098.369451	0.069581
1098.530548	0.062570
1098.691627	0.062855
1098.852687	0.067639
1099.013729	0.057502
1099.174753	0.057202
1099.335758	0.056349
1099.496746	0.060415
1099.657715	0.063549
1099.818666	0.069578
1099.979599	0.068209
1100.140513	0.065560
1100.301409	0.057805
1100.462287	0.080863
1100.623147	0.074393
1100.783989	0.079319
1100.944812	0.086909
1101.105617	0.085347
1101.266404	0.091016
1101.427173	0.106149
1101.587923	0.115379
1101.748656	0.119976
1101.909370	0.102051
1102.070066	0.101602
1102.230743	0.099723
1102.391403	0.087896
1102.552044	0.077276
1102.712667	0.069821
1102.873271	0.059186
1103.033858	0.068214
1103.194426	0.073915
1103.354976	0.084134
1103.515508	0.079771
1103.676021	0.073592
1103.836517	0.083942
1103.996994	0.095143
1104.157453	0.089737
1104.317893	0.100758
1104.478316	0.086783
1104.638720	0.075483
1104.799106	0.077519
1104.959474	0.090154
1105.119823	0.101261
1105.280155	0.086669
1105.440468	0.072450
1105.600763	0.083465
1105.761039	0.066772
1105.921298	0.068168
1106.081538	0.078821
1106.241760	0.073665
1106.401964	0.065867
1106.562149	0.051377
1106.722316	0.056214
1106.882465	0.064334
1107.042596	0.060779
1107.202709	0.055374
1107.362803	0.060190
1107.522879	0.049305
1107.682937	0.051329
1107.842977	0.054754
1108.002999	0.060139
1108.163002	0.063370
1108.322987	0.054884
1108.482954	0.059710
1108.642902	0.068163
1108.802833	0.066274
1108.962745	0.071058
1109.122639	0.074503
1109.282515	0.072577
1109.442372	0.063160
1109.602211	0.068792
1109.762032	0.077348
1109.921835	0.073973
1110.081620	0.075297
1110.241386	0.057362
1110.401134	0.057185
1110.560864	0.062936
1110.720576	0.061159
1110.880269	0.077987
1111.039945	0.074001
1111.199602	0.072999
1111.359240	0.061976
1111.518861	0.061220
1111.678463	0.080995
1111.838047	0.075081
1111.997613	0.053161
1112.157161	0.057476
1112.316690	0.055388
1112.476202	0.050542
1112.635695	0.058069
1112.795169	0.065247
1112.954626	0.054622
1113.114064	0.048880
1113.273484	0.054263
1113.432886	0.079065
1113.592270	0.081423
1113.751635	0.075617
1113.910983	0.082387
1114.070312	0.080983
1114.229622	0.080172
1114.388915	0.075881
1114.548189	0.070481
1114.707445	0.069286
1114.866683	0.056619
1115.025903	0.047821
1115.185104	0.044063
1115.344287	0.049965
1115.503452	0.033285
1115.662599	0.035818
1115.821727	0.047371
1115.980838	0.063431
1116.139930	0.078372
1116.299004	0.072587
1116.458059	0.066945
1116.617097	0.063966
1116.776116	0.060776
1116.935117	0.076172
1117.094099	0.074438
1117.253064	0.068563
1117.412010	0.053614
1117.570938	0.048160
1117.729848	0.044627
1117.888740	0.047772
1118.047613	0.053131
1118.206468	0.041064
1118.365305	0.028028
1118.524124	0.032051
1118.682924	0.033021
1118.841707	0.044936
1119.000471	0.033481
1119.159216	0.038562
1119.317944	0.041288
1119.476653	0.042265
1119.635344	0.038561
1119.794017	0.056599
1119.952672	0.052944
1120.111308	0.065135
1120.269927	0.049060
1120.428527	0.047049
1120.587108	0.052308
1120.745672	0.046333
1120.904217	0.043097
1121.062744	0.048408
1121.221253	0.038466
1121.379744	0.037125
1121.538216	0.023130
1121.696671	0.031991
1121.855107	0.037872
1122.013524	0.036145
1122.171924	0.045460
1122.330305	0.054456
1122.488668	0.072311
1122.647013	0.075552
1122.805340	0.085202
1122.963648	0.105522
1123.121938	0.098858
1123.280210	0.092550
1123.438464	0.080907
1123.596700	0.077765
1123.754917	0.085565
1123.913116	0.063144
1124.071297	0.064679
1124.229459	0.068341
1124.387604	0.060046
1124.545730	0.063865
1124.703838	0.079584
1124.861928	0.075940
1125.019999	0.066293
1125.178052	0.057435
1125.336088	0.060054
1125.494104	0.064849
1125.652103	0.065041
1125.810083	0.048962
1125.968045	0.045353
1126.125989	0.038277
1126.283915	0.057538
1126.441823	0.079819
1126.599712	0.070207
1126.757583	0.066045
1126.915436	0.051434
1127.073270	0.057013
1127.231087	0.065005
1127.388885	0.074831
1127.546665	0.067738
1127.704426	0.052920
1127.862170	0.046757
1128.019895	0.056159
1128.177602	0.074983
1128.335291	0.088212
1128.492961	0.075721
1128.650614	0.086179
1128.808248	0.084345
1128.965864	0.111125
1129.123461	0.120155
1129.281041	0.124035
1129.438602	0.109698
1129.596145	0.096994
1129.753670	0.097953
1129.911176	0.085868
1130.068665	0.076460
1130.226135	0.081645
1130.383587	0.057023
1130.541020	0.061340
1130.698436	0.059707
1130.855833	0.061347
1131.013212	0.075030
1131.170573	0.070899
1131.327915	0.081862
1131.485239	0.084680
1131.642545	0.082125
1131.799833	0.081044
1131.957103	0.066744
1132.114354	0.072304
1132.271588	0.078302
1132.428803	0.074031
1132.585999	0.053756
1132.743178	0.047452
1132.900338	0.043749
1133.057480	0.041971
1133.214604	0.048198
1133.371710	0.052760
1133.528797	0.036249
1133.685866	0.045873
1133.842917	0.038575
1133.999950	0.032717
1134.156964	0.025127
1134.313960	0.021792
1134.470938	0.016679
1134.627898	0.019567
1134.784840	0.020024
1134.941763	0.027850
1135.098668	0.019019
1135.255555	0.015316
1135.412424	0.036415
1135.569274	0.039061
1135.726107	0.049197
1135.882921	0.044726
1136.039716	0.049608
1136.196494	0.050975
1136.353253	0.054367
1136.509995	0.050378
1136.666717	0.049404
1136.823422	0.043125
1136.980109	0.037574
1137.136777	0.042539
1137.293427	0.075723
1137.450059	0.066116
1137.606672	0.062261
1137.763267	0.060630
1137.919844	0.053838
1138.076403	0.062450
1138.232944	0.064858
1138.389466	0.072352
1138.545971	0.078520
1138.702457	0.043142
1138.858924	0.037173
1139.015374	0.040756
1139.171805	0.038312
1139.328218	0.047941
1139.484613	0.031070
1139.640990	0.034808
1139.797348	0.038415
1139.953688	0.017935
1140.110010	0.024532
1140.266314	0.032916
1140.422600	0.013704
1140.578867	0.005443
1140.735116	0.019066
1140.891347	0.026403
1141.047559	0.027423
1141.203754	0.011622
1141.359930	0.019107
1141.516088	0.030202
1141.672228	0.033384
1141.828349	0.074965
1141.984452	0.090220
1142.140537	0.066437
1142.296604	0.065173
1142.452653	0.056690
1142.608683	0.080921
1142.764695	0.100077
1142.920689	0.087438
1143.076665	0.081528
1143.232622	0.072966
1143.388562	0.049552
1143.544483	0.062251
1143.700385	0.070299
1143.856270	0.080165
1144.012136	0.074469
1144.167985	0.049104
1144.323814	0.038057
1144.479626	0.036873
1144.635420	0.056220
1144.791195	0.070053
1144.946952	0.067164
1145.102691	0.056372
1145.258411	0.036225
1145.414113	0.046820
1145.569798	0.082613
1145.725463	0.073020
1145.881111	0.085517
1146.036741	0.051322
1146.192352	0.048106
1146.347945	0.052194
1146.503519	0.064013
1146.659076	0.103366
1146.814614	0.087866
1146.970134	0.062838
1147.125636	0.074944
1147.281120	0.069864
1147.436585	0.088765
1147.592032	0.088685
1147.747461	0.087483
1147.902872	0.090758
1148.058265	0.084943
1148.213639	0.098604
1148.368995	0.119081
1148.524333	0.112452
1148.679653	0.100303
1148.834954	0.067988
1148.990237	0.075649
1149.145502	0.082991
1149.300749	0.075102
1149.455977	0.061584
1149.611188	0.067391
1149.766380	0.040744
1149.921553	0.044532
1150.076709	0.051088
1150.231846	0.073735
1150.386966	0.075783
1150.542066	0.058133
1150.697149	0.067946
1150.852214	0.069072
1151.007260	0.053738
1151.162288	0.054663
1151.317298	0.068277
1151.472289	0.055117
1151.627263	0.046719
1151.782218	0.055353
1151.937155	0.055862
1152.092073	0.036383
1152.246974	0.043462
1152.401856	0.037001
1152.556720	0.037146
1152.711566	0.024536
1152.866393	0.020222
1153.021203	0.028123
1153.175994	0.027040
1153.330767	0.044747
1153.485521	0.054208
1153.640258	0.048229
1153.794976	0.043616
1153.949676	0.012321
1154.104358	0.015353
1154.259021	0.023589
1154.413667	0.020110
1154.568294	-0.000702
1154.722903	-0.005916
1154.877493	-0.008866
1155.032066	-0.016162
1155.186620	0.001205
1155.341156	0.020491
1155.495674	0.039570
1155.650173	0.044607
1155.804654	0.028017
1155.959118	0.016004
1156.113562	0.023488
1156.267989	0.040987
1156.422397	0.044722
1156.576788	0.043069
1156.731160	0.057530
1156.885513	0.047150
1157.039849	0.040309
1157.194166	0.052415
1157.348465	0.075930
1157.502746	0.061100
1157.657009	0.057396
1157.811253	0.058373
1157.965479	0.042218
1158.119687	0.019934
1158.273877	0.021357
1158.428048	0.026608
1158.582201	0.019949
1158.736337	0.013077
1158.890453	0.009582
1159.044552	0.002176
1159.198632	0.000488
1159.352694	0.006609
1159.506738	0.023958
1159.660764	0.013750
1159.814771	0.024849
1159.968761	0.029753
1160.122732	0.016401
1160.276685	0.024284
1160.430619	0.015258
1160.584535	0.018939
1160.738434	0.001315
1160.892313	-0.015975
1161.046175	-0.007991
1161.200019	-0.000641
1161.353844	-0.008392
1161.507651	0.015326
1161.661440	-0.009479
1161.815210	-0.006542
1161.968962	-0.009374
1162.122697	0.008399
1162.276412	0.023242
1162.430110	0.029474
1162.583789	0.012073
1162.737451	0.007310
1162.891094	-0.003263
1163.044718	0.022789
1163.198325	0.005381
1163.351913	0.011753
1163.505483	0.006598
1163.659035	0.010583
1163.812569	-0.000518
1163.966084	-0.003541
1164.119581	0.015357
1164.273060	0.018434
1164.426521	0.012425
1164.579964	0.032949
1164.733388	0.043257
1164.886794	0.053595
1165.040182	0.047961
1165.193551	0.046159
1165.346903	0.054016
1165.500236	0.050547
1165.653551	0.050067
1165.806848	0.041318
1165.960126	0.065515
1166.113386	0.057571
1166.266628	0.032937
1166.419852	0.043455
1166.573058	0.064522
1166.726245	0.052362
1166.879414	0.038380
1167.032565	0.032374
1167.185698	0.033273
1167.338812	0.011874
1167.491909	-0.012168
1167.644987	0.009979
1167.798046	0.013689
1167.951088	0.015783
1168.104111	0.007356
1168.257117	0.008519
1168.410103	0.009243
1168.563072	-0.009268
1168.716023	-0.020094
1168.868955	0.006304
1169.021869	0.028128
1169.174765	-0.005828
1169.327642	0.006343
1169.480501	0.006533
1169.633343	0.007763
1169.786165	0.012543
1169.938970	0.028589
1170.091757	0.039494
1170.244525	0.035426
1170.397275	-0.005551
1170.550007	0.025579
1170.702720	-0.008645
1170.855415	-0.000791
1171.008092	-0.003004
1171.160751	-0.008475
1171.313392	-0.012289
1171.466014	-0.005027
1171.618619	-0.070053
1171.771205	-0.070053
1171.923772	-0.070053
