sample name	sample
index	1138
start time	 04-22-2021  02:40:06 PM


Wavelength (nm)	Absorbance
494.344910	-0.898273
494.563924	-0.898273
494.782919	-0.898273
495.001897	-0.231001
495.220856	-0.249677
495.439797	-0.202904
495.658719	-0.082392
495.877624	-0.108748
496.096510	-0.055105
496.315378	-0.063387
496.534227	0.049140
496.753059	-0.014707
496.971872	-0.020763
497.190667	0.136782
497.409444	0.131693
497.628203	0.130634
497.846943	0.134055
498.065665	0.134384
498.284369	0.135018
498.503055	0.133193
498.721723	0.132018
498.940372	0.131564
499.159003	0.130523
499.377616	0.130612
499.596210	0.131301
499.814787	0.129979
500.033345	0.130879
500.251885	0.130104
500.470406	0.129667
500.688910	0.130909
500.907395	0.131003
501.125862	0.132018
501.344311	0.133518
501.562742	0.132706
501.781154	0.132795
501.999548	0.130910
502.217924	0.131386
502.436282	0.132761
502.654621	0.133660
502.872942	0.134960
503.091245	0.135258
503.309530	0.135086
503.527797	0.135986
503.746045	0.137739
503.964275	0.138780
504.182487	0.139559
504.400681	0.139163
504.618856	0.138184
504.837013	0.138229
505.055152	0.137328
505.273273	0.137703
505.491376	0.137990
505.709460	0.137203
505.927526	0.138099
506.145574	0.137958
506.363604	0.138150
506.581615	0.138110
506.799608	0.138544
507.017583	0.139443
507.235540	0.139062
507.453478	0.139229
507.671399	0.139321
507.889301	0.138353
508.107185	0.139178
508.325050	0.138885
508.542898	0.139617
508.760727	0.138136
508.978538	0.137069
509.196330	0.137576
509.414105	0.136648
509.631861	0.136405
509.849599	0.136795
510.067319	0.136766
510.285021	0.138386
510.502704	0.138827
510.720369	0.139899
510.938016	0.140972
511.155645	0.141516
511.373255	0.142381
511.590848	0.143027
511.808422	0.143317
512.025977	0.142864
512.243515	0.142097
512.461034	0.143057
512.678536	0.144066
512.896018	0.145089
513.113483	0.144305
513.330930	0.144575
513.548358	0.145162
513.765768	0.145131
513.983160	0.145689
514.200533	0.145870
514.417889	0.145620
514.635226	0.145263
514.852545	0.144329
515.069845	0.145150
515.287128	0.145519
515.504392	0.146200
515.721638	0.146854
515.938866	0.146532
516.156075	0.148191
516.373267	0.148662
516.590440	0.148774
516.807594	0.148810
517.024731	0.149872
517.241850	0.149876
517.458950	0.150092
517.676032	0.150548
517.893095	0.151312
518.110141	0.150187
518.327168	0.150159
518.544177	0.151010
518.761168	0.151412
518.978141	0.150721
519.195095	0.151061
519.412031	0.150290
519.628949	0.150967
519.845849	0.151688
520.062731	0.151691
520.279594	0.151974
520.496439	0.151539
520.713266	0.152288
520.930074	0.152286
521.146865	0.151661
521.363637	0.152252
521.580391	0.151621
521.797127	0.151388
522.013844	0.152107
522.230543	0.152348
522.447224	0.153016
522.663887	0.152448
522.880532	0.153097
523.097158	0.154586
523.313766	0.155943
523.530356	0.156736
523.746928	0.156869
523.963481	0.157690
524.180017	0.157951
524.396534	0.158400
524.613032	0.159000
524.829513	0.159001
525.045975	0.158478
525.262420	0.158416
525.478845	0.158154
525.695253	0.158146
525.911643	0.158099
526.128014	0.159069
526.344367	0.159511
526.560702	0.159783
526.777018	0.160431
526.993316	0.160937
527.209597	0.160445
527.425858	0.160564
527.642102	0.161385
527.858328	0.161632
528.074535	0.161619
528.290724	0.161761
528.506894	0.162232
528.723047	0.162238
528.939181	0.162357
529.155297	0.162710
529.371395	0.163514
529.587475	0.163900
529.803536	0.164252
530.019579	0.164461
530.235604	0.164543
530.451611	0.165014
530.667600	0.165246
530.883570	0.165900
531.099522	0.166728
531.315456	0.166908
531.531372	0.167383
531.747269	0.168270
531.963148	0.168668
532.179009	0.168966
532.394852	0.169366
532.610676	0.170163
532.826482	0.170492
533.042271	0.170809
533.258040	0.171460
533.473792	0.171398
533.689525	0.170659
533.905240	0.170402
534.120937	0.170679
534.336616	0.171052
534.552277	0.171433
534.767919	0.171731
534.983543	0.171697
535.199149	0.171964
535.414736	0.172374
535.630306	0.172994
535.845857	0.173189
536.061390	0.172989
536.276904	0.173120
536.492401	0.173054
536.707879	0.173461
536.923339	0.173809
537.138781	0.173764
537.354204	0.174288
537.569610	0.174948
537.784997	0.174747
538.000366	0.175774
538.215716	0.175883
538.431049	0.175956
538.646363	0.176477
538.861659	0.176788
539.076937	0.177521
539.292196	0.177408
539.507438	0.177767
539.722661	0.178699
539.937866	0.178952
540.153052	0.179471
540.368221	0.179936
540.583371	0.180105
540.798503	0.180230
541.013617	0.179863
541.228712	0.179913
541.443789	0.180392
541.658848	0.180938
541.873889	0.180854
542.088912	0.181640
542.303916	0.182000
542.518902	0.182185
542.733870	0.182581
542.948820	0.183027
543.163752	0.183504
543.378665	0.183242
543.593560	0.183043
543.808437	0.183878
544.023295	0.183987
544.238136	0.183996
544.452958	0.184250
544.667762	0.184671
544.882548	0.185276
545.097315	0.185641
545.312064	0.186169
545.526795	0.186493
545.741508	0.186090
545.956203	0.186349
546.170879	0.186887
546.385537	0.187233
546.600177	0.187718
546.814799	0.187958
547.029402	0.187998
547.243988	0.188098
547.458555	0.188374
547.673103	0.188583
547.887634	0.188624
548.102146	0.188873
548.316640	0.189572
548.531116	0.189219
548.745574	0.189471
548.960013	0.189965
549.174435	0.189848
549.388838	0.190120
549.603222	0.191130
549.817589	0.191207
550.031937	0.191605
550.246267	0.191370
550.460579	0.191784
550.674873	0.191937
550.889148	0.192267
551.103405	0.192619
551.317644	0.192955
551.531865	0.192651
551.746068	0.192738
551.960252	0.192494
552.174418	0.192851
552.388566	0.192701
552.602696	0.192865
552.816807	0.192751
553.030900	0.193023
553.244975	0.193478
553.459032	0.193906
553.673070	0.194241
553.887091	0.194485
554.101093	0.194397
554.315077	0.194921
554.529042	0.194769
554.742990	0.195240
554.956919	0.195619
555.170830	0.195380
555.384722	0.195333
555.598597	0.195358
555.812453	0.195279
556.026291	0.194908
556.240111	0.195416
556.453913	0.195641
556.667696	0.195285
556.881461	0.195312
557.095208	0.195708
557.308937	0.195868
557.522647	0.195720
557.736339	0.196186
557.950013	0.196805
558.163669	0.196509
558.377307	0.196707
558.590926	0.197384
558.804527	0.197716
559.018110	0.197625
559.231675	0.197963
559.445221	0.198742
559.658749	0.198820
559.872259	0.198850
560.085751	0.198890
560.299225	0.199374
560.512680	0.199584
560.726117	0.199832
560.939536	0.199994
561.152937	0.199402
561.366319	0.199120
561.579683	0.199379
561.793029	0.200053
562.006357	0.200184
562.219667	0.199967
562.432958	0.199695
562.646231	0.199598
562.859486	0.200058
563.072723	0.200443
563.285941	0.200476
563.499141	0.200246
563.712323	0.200018
563.925487	0.200726
564.138632	0.201265
564.351760	0.201817
564.564869	0.201786
564.777960	0.201913
564.991032	0.201947
565.204087	0.202191
565.417123	0.202443
565.630141	0.202357
565.843140	0.202395
566.056122	0.202029
566.269085	0.201747
566.482030	0.201485
566.694957	0.201162
566.907866	0.201719
567.120756	0.202062
567.333628	0.202343
567.546482	0.202432
567.759318	0.202118
567.972135	0.202332
568.184935	0.202768
568.397716	0.203325
568.610478	0.203630
568.823223	0.203761
569.035949	0.203729
569.248657	0.203515
569.461347	0.203612
569.674019	0.203580
569.886672	0.203746
570.099308	0.204056
570.311925	0.203841
570.524523	0.204027
570.737104	0.204087
570.949666	0.203970
571.162210	0.204291
571.374736	0.204256
571.587244	0.205039
571.799733	0.205332
572.012205	0.204872
572.224658	0.205153
572.437092	0.205372
572.649509	0.205255
572.861907	0.205368
573.074287	0.205409
573.286649	0.205593
573.498993	0.205032
573.711318	0.204805
573.923625	0.205220
574.135914	0.205427
574.348185	0.205310
574.560438	0.205357
574.772672	0.205984
574.984888	0.206208
575.197086	0.206252
575.409266	0.206722
575.621427	0.207247
575.833570	0.207168
576.045695	0.207325
576.257802	0.207481
576.469890	0.207787
576.681961	0.208048
576.894013	0.207830
577.106046	0.208218
577.318062	0.208737
577.530059	0.208647
577.742039	0.208919
577.954000	0.208933
578.165942	0.208708
578.377867	0.208720
578.589773	0.208736
578.801661	0.209069
579.013531	0.209325
579.225382	0.208956
579.437216	0.209216
579.649031	0.209326
579.860828	0.209625
580.072606	0.210184
580.284367	0.210993
580.496109	0.210889
580.707833	0.211075
580.919539	0.211155
581.131227	0.211292
581.342896	0.210985
581.554547	0.211487
581.766180	0.211756
581.977795	0.211554
582.189391	0.210836
582.400969	0.210987
582.612529	0.211155
582.824071	0.211114
583.035595	0.211041
583.247100	0.211603
583.458587	0.211465
583.670056	0.211495
583.881506	0.211821
584.092939	0.211940
584.304353	0.211756
584.515749	0.211645
584.727127	0.211965
584.938486	0.212369
585.149828	0.212556
585.361151	0.212325
585.572456	0.212413
585.783742	0.212489
585.995011	0.212863
586.206261	0.213133
586.417493	0.213357
586.628706	0.213253
586.839902	0.213657
587.051079	0.213436
587.262238	0.213755
587.473379	0.213817
587.684502	0.214138
587.895606	0.214322
588.106692	0.214413
588.317760	0.214445
588.528810	0.214428
588.739841	0.214664
588.950855	0.214789
589.161850	0.215331
589.372827	0.215514
589.583785	0.216086
589.794726	0.215991
590.005648	0.216302
590.216552	0.216896
590.427437	0.217125
590.638305	0.217081
590.849154	0.217687
591.059985	0.217448
591.270798	0.217441
591.481592	0.217480
591.692369	0.217907
591.903127	0.218227
592.113867	0.218485
592.324588	0.218902
592.535292	0.219521
592.745977	0.219386
592.956644	0.219945
593.167293	0.220456
593.377923	0.220148
593.588536	0.220409
593.799130	0.220573
594.009706	0.220868
594.220263	0.220930
594.430803	0.220716
594.641324	0.220779
594.851827	0.220676
595.062312	0.220687
595.272778	0.221029
595.483227	0.220842
595.693657	0.221161
595.904069	0.221243
596.114462	0.221534
596.324838	0.221604
596.535195	0.221760
596.745534	0.221865
596.955855	0.222093
597.166157	0.222131
597.376441	0.222275
597.586707	0.221951
597.796955	0.221761
598.007185	0.221826
598.217396	0.222003
598.427589	0.221961
598.637764	0.222177
598.847921	0.222115
599.058060	0.221933
599.268180	0.221872
599.478282	0.221907
599.688366	0.221998
599.898431	0.222406
600.108479	0.222246
600.318508	0.222707
600.528519	0.222790
600.738511	0.222757
600.948486	0.223479
601.158442	0.223961
601.368380	0.224254
601.578300	0.224577
601.788202	0.224408
601.998085	0.224494
602.207950	0.224083
602.417797	0.224089
602.627626	0.224132
602.837436	0.224083
603.047228	0.224071
603.257002	0.224237
603.466758	0.224160
603.676496	0.224209
603.886215	0.224153
604.095916	0.224453
604.305599	0.224458
604.515264	0.225223
604.724910	0.225062
604.934538	0.225470
605.144148	0.225461
605.353740	0.225606
605.563314	0.225883
605.772869	0.226378
605.982406	0.226604
606.191925	0.226820
606.401425	0.226534
606.610908	0.226688
606.820372	0.226690
607.029818	0.226738
607.239246	0.226464
607.448655	0.226465
607.658047	0.226332
607.867420	0.226017
608.076775	0.226037
608.286111	0.226166
608.495430	0.226313
608.704730	0.226440
608.914012	0.226858
609.123275	0.227514
609.332521	0.227642
609.541748	0.228044
609.750957	0.228901
609.960148	0.229347
610.169321	0.229422
610.378475	0.229788
610.587611	0.229633
610.796729	0.230024
611.005829	0.230205
611.214910	0.230371
611.423974	0.230769
611.633019	0.231081
611.842045	0.231034
612.051054	0.231288
612.260044	0.231593
612.469017	0.232196
612.677970	0.231691
612.886906	0.231410
613.095824	0.231335
613.304723	0.231054
613.513604	0.230592
613.722467	0.230453
613.931311	0.230272
614.140138	0.230179
614.348946	0.230243
614.557736	0.230323
614.766507	0.230675
614.975261	0.230987
615.183996	0.231134
615.392713	0.231544
615.601412	0.231987
615.810092	0.232373
616.018754	0.232378
616.227399	0.232681
616.436024	0.233121
616.644632	0.233449
616.853222	0.233180
617.061793	0.233224
617.270346	0.232962
617.478880	0.232809
617.687397	0.232692
617.895895	0.232579
618.104375	0.232324
618.312837	0.232462
618.521281	0.232298
618.729706	0.232533
618.938113	0.232834
619.146502	0.233441
619.354873	0.233653
619.563226	0.233779
619.771560	0.234016
619.979876	0.234182
620.188174	0.234229
620.396453	0.234593
620.604715	0.234855
620.812958	0.235049
621.021183	0.235000
621.229390	0.235178
621.437578	0.235398
621.645748	0.235415
621.853900	0.235221
622.062034	0.235329
622.270150	0.235363
622.478247	0.235431
622.686326	0.235557
622.894387	0.235354
623.102430	0.235416
623.310454	0.235403
623.518461	0.235821
623.726449	0.236045
623.934418	0.236112
624.142370	0.236337
624.350303	0.236463
624.558218	0.236470
624.766115	0.237042
624.973994	0.237261
625.181855	0.237384
625.389697	0.237370
625.597521	0.237573
625.805327	0.237787
626.013114	0.238075
626.220883	0.238399
626.428634	0.238499
626.636367	0.238427
626.844082	0.238492
627.051778	0.238843
627.259457	0.239067
627.467117	0.239327
627.674758	0.239542
627.882382	0.239250
628.089987	0.239535
628.297574	0.239851
628.505143	0.239859
628.712694	0.239787
628.920226	0.240107
629.127740	0.240306
629.335236	0.240158
629.542714	0.240034
629.750174	0.240283
629.957615	0.240148
630.165038	0.239889
630.372443	0.240221
630.579829	0.240520
630.787198	0.240244
630.994548	0.240080
631.201880	0.240445
631.409194	0.240588
631.616489	0.240630
631.823766	0.240696
632.031025	0.241096
632.238266	0.241084
632.445489	0.241022
632.652693	0.241298
632.859879	0.241704
633.067047	0.241811
633.274197	0.242076
633.481329	0.242206
633.688442	0.242522
633.895537	0.242557
634.102614	0.242795
634.309672	0.243213
634.516713	0.243395
634.723735	0.243555
634.930739	0.243575
635.137724	0.243808
635.344692	0.243986
635.551641	0.244092
635.758572	0.244131
635.965485	0.244203
636.172379	0.244237
636.379256	0.244415
636.586114	0.244358
636.792954	0.244541
636.999775	0.244708
637.206579	0.244915
637.413364	0.245236
637.620131	0.245474
637.826880	0.245803
638.033610	0.246005
638.240323	0.246059
638.447017	0.246228
638.653692	0.246457
638.860350	0.246758
639.066990	0.246840
639.273611	0.246856
639.480214	0.246992
639.686798	0.247355
639.893365	0.247565
640.099913	0.247688
640.306443	0.247815
640.512955	0.248004
640.719449	0.247898
640.925924	0.248230
641.132381	0.248434
641.338820	0.248542
641.545241	0.248350
641.751644	0.248373
641.958028	0.248555
642.164394	0.248848
642.370742	0.248854
642.577071	0.249140
642.783383	0.249265
642.989676	0.249214
643.195951	0.249319
643.402207	0.249388
643.608446	0.249663
643.814666	0.249785
644.020868	0.249759
644.227052	0.250051
644.433218	0.249822
644.639365	0.249696
644.845494	0.249999
645.051605	0.250143
645.257698	0.250546
645.463772	0.250535
645.669828	0.250868
645.875866	0.251164
646.081886	0.251539
646.287888	0.251767
646.493871	0.252133
646.699836	0.252139
646.905783	0.252503
647.111712	0.252660
647.317622	0.252836
647.523514	0.253110
647.729388	0.253372
647.935244	0.253233
648.141082	0.253685
648.346901	0.254054
648.552702	0.254239
648.758485	0.254489
648.964250	0.254630
649.169996	0.254976
649.375724	0.255066
649.581434	0.255006
649.787126	0.255506
649.992800	0.255564
650.198455	0.255453
650.404092	0.255437
650.609711	0.255599
650.815311	0.255609
651.020894	0.255820
651.226458	0.255947
651.432004	0.256314
651.637532	0.256024
651.843041	0.256206
652.048532	0.256603
652.254006	0.257025
652.459460	0.256957
652.664897	0.257186
652.870315	0.257360
653.075716	0.257333
653.281097	0.257470
653.486461	0.257812
653.691807	0.257972
653.897134	0.257901
654.102443	0.257798
654.307734	0.257991
654.513006	0.258090
654.718261	0.258418
654.923497	0.258782
655.128715	0.258839
655.333915	0.259230
655.539096	0.259515
655.744259	0.259871
655.949404	0.260410
656.154531	0.260598
656.359640	0.260981
656.564730	0.261112
656.769802	0.261214
656.974856	0.261499
657.179892	0.261513
657.384909	0.261614
657.589908	0.261783
657.794889	0.262110
657.999852	0.262377
658.204797	0.262504
658.409723	0.262572
658.614631	0.262787
658.819521	0.262971
659.024393	0.263028
659.229246	0.263123
659.434081	0.263492
659.638898	0.263455
659.843697	0.263628
660.048478	0.263777
660.253240	0.263661
660.457984	0.263758
660.662710	0.263833
660.867417	0.264147
661.072107	0.264546
661.276778	0.264374
661.481431	0.264588
661.686066	0.264627
661.890682	0.264901
662.095281	0.265258
662.299861	0.265269
662.504422	0.265316
662.708966	0.265553
662.913491	0.265521
663.117999	0.265578
663.322488	0.265614
663.526958	0.265867
663.731411	0.265751
663.935845	0.265633
664.140261	0.265980
664.344659	0.266379
664.549038	0.266515
664.753400	0.266555
664.957743	0.266842
665.162068	0.267115
665.366375	0.267204
665.570663	0.267485
665.774933	0.268046
665.979185	0.268319
666.183419	0.268548
666.387635	0.268734
666.591832	0.269081
666.796011	0.269296
667.000172	0.269462
667.204315	0.270085
667.408439	0.270208
667.612545	0.270423
667.816634	0.270715
668.020703	0.270786
668.224755	0.270890
668.428788	0.271125
668.632803	0.271486
668.836800	0.271611
669.040779	0.271557
669.244739	0.271802
669.448681	0.271923
669.652605	0.271937
669.856511	0.272453
670.060399	0.272817
670.264268	0.273127
670.468119	0.273308
670.671952	0.273865
670.875767	0.274256
671.079563	0.274725
671.283341	0.275174
671.487101	0.275655
671.690843	0.275726
671.894567	0.275860
672.098272	0.276032
672.301959	0.276359
672.505628	0.276176
672.709278	0.276332
672.912911	0.276398
673.116525	0.276515
673.320121	0.276703
673.523699	0.276972
673.727258	0.277267
673.930799	0.277542
674.134322	0.277730
674.337827	0.278160
674.541314	0.278383
674.744782	0.278784
674.948232	0.279042
675.151664	0.279046
675.355078	0.279426
675.558474	0.279726
675.761851	0.279766
675.965210	0.279833
676.168551	0.279775
676.371873	0.279802
676.575178	0.279904
676.778464	0.279772
676.981732	0.279984
677.184981	0.279781
677.388213	0.279994
677.591426	0.280306
677.794621	0.280587
677.997798	0.280958
678.200956	0.281152
678.404097	0.281409
678.607219	0.281896
678.810323	0.281892
679.013408	0.282375
679.216476	0.282510
679.419525	0.282637
679.622556	0.282817
679.825569	0.283526
680.028563	0.283696
680.231540	0.283797
680.434498	0.284199
680.637438	0.284789
680.840359	0.285007
681.043263	0.285077
681.246148	0.285220
681.449015	0.285455
681.651864	0.285196
681.854694	0.285522
682.057506	0.285808
682.260301	0.285500
682.463076	0.285664
682.665834	0.285801
682.868573	0.286178
683.071295	0.286601
683.273998	0.286766
683.476682	0.287081
683.679349	0.287377
683.881997	0.287554
684.084627	0.288049
684.287239	0.288207
684.489833	0.288497
684.692408	0.288616
684.894965	0.288642
685.097504	0.288634
685.300025	0.288485
685.502527	0.288513
685.705012	0.288411
685.907478	0.288347
686.109925	0.288281
686.312355	0.288272
686.514766	0.288373
686.717159	0.288421
686.919534	0.288662
687.121891	0.288729
687.324230	0.289029
687.526550	0.289175
687.728852	0.289234
687.931136	0.289775
688.133401	0.289963
688.335649	0.289984
688.537878	0.290187
688.740089	0.290273
688.942281	0.290608
689.144456	0.290455
689.346612	0.290603
689.548750	0.290831
689.750870	0.290825
689.952971	0.290936
690.155055	0.291072
690.357120	0.291261
690.559167	0.291299
690.761195	0.291177
690.963206	0.291200
691.165198	0.291272
691.367172	0.291551
691.569128	0.291628
691.771065	0.291536
691.972984	0.291434
692.174885	0.291329
692.376768	0.291518
692.578633	0.292173
692.780479	0.292394
692.982308	0.292820
693.184118	0.292916
693.385909	0.292995
693.587683	0.293419
693.789438	0.293817
693.991175	0.294079
694.192894	0.294289
694.394595	0.294290
694.596277	0.294616
694.797941	0.294974
694.999587	0.295226
695.201215	0.295253
695.402824	0.295301
695.604416	0.295485
695.805989	0.295825
696.007543	0.296156
696.209080	0.296186
696.410598	0.296114
696.612099	0.295971
696.813580	0.295830
697.015044	0.296048
697.216490	0.295930
697.417917	0.295866
697.619326	0.295948
697.820717	0.295777
698.022089	0.295847
698.223444	0.296212
698.424780	0.296284
698.626098	0.296573
698.827397	0.296832
699.028679	0.297181
699.229942	0.297283
699.431187	0.297043
699.632414	0.297464
699.833622	0.297571
700.034813	0.297521
700.235985	0.297336
700.437139	0.297280
700.638274	0.297176
700.839392	0.297388
701.040491	0.297626
701.241572	0.298202
701.442635	0.298030
701.643679	0.298235
701.844706	0.298127
702.045714	0.298359
702.246704	0.298500
702.447675	0.298562
702.648629	0.298383
702.849564	0.298245
703.050481	0.298102
703.251380	0.298110
703.452260	0.298046
703.653122	0.298118
703.853966	0.298118
704.054792	0.298206
704.255600	0.298301
704.456389	0.298366
704.657160	0.298587
704.857913	0.298236
705.058648	0.298434
705.259365	0.298473
705.460063	0.298624
705.660743	0.298613
705.861405	0.298428
706.062048	0.298316
706.262674	0.298070
706.463281	0.297941
706.663870	0.298027
706.864441	0.297766
707.064993	0.297608
707.265527	0.297748
707.466043	0.297798
707.666541	0.297925
707.867021	0.298180
708.067482	0.298207
708.267925	0.298425
708.468350	0.298451
708.668757	0.298642
708.869145	0.298763
709.069516	0.298710
709.269868	0.298509
709.470201	0.298629
709.670517	0.298420
709.870814	0.298748
710.071093	0.298691
710.271354	0.299036
710.471597	0.299217
710.671821	0.299318
710.872028	0.299353
711.072216	0.299707
711.272385	0.299736
711.472537	0.299775
711.672670	0.299579
711.872785	0.299626
712.072882	0.299546
712.272961	0.299422
712.473021	0.299500
712.673063	0.299400
712.873087	0.299504
713.073093	0.299491
713.273081	0.299669
713.473050	0.299691
713.673001	0.299595
713.872934	0.299575
714.072849	0.299576
714.272745	0.299607
714.472623	0.299581
714.672483	0.299485
714.872325	0.299374
715.072148	0.299245
715.271954	0.299087
715.471741	0.299070
715.671509	0.299046
715.871260	0.298797
716.070992	0.298422
716.270707	0.298450
716.470403	0.298341
716.670080	0.298350
716.869740	0.298092
717.069381	0.298012
717.269004	0.297945
717.468609	0.297887
717.668195	0.297706
717.867764	0.297829
718.067314	0.297611
718.266846	0.297250
718.466360	0.296931
718.665855	0.296943
718.865332	0.297082
719.064791	0.296958
719.264232	0.296670
719.463655	0.296762
719.663059	0.296828
719.862445	0.296709
720.061813	0.296970
720.261163	0.297176
720.460494	0.297102
720.659807	0.297041
720.859102	0.297009
721.058379	0.296952
721.257638	0.296648
721.456878	0.296669
721.656100	0.296710
721.855304	0.296537
722.054490	0.296425
722.253657	0.296604
722.452806	0.296402
722.651937	0.296161
722.851050	0.296178
723.050145	0.296320
723.249221	0.295863
723.448279	0.295682
723.647319	0.295707
723.846340	0.295554
724.045344	0.295144
724.244329	0.295167
724.443296	0.295137
724.642245	0.295068
724.841175	0.294819
725.040088	0.294662
725.238982	0.294650
725.437857	0.294428
725.636715	0.294307
725.835554	0.294231
726.034376	0.294311
726.233179	0.294107
726.431963	0.293879
726.630730	0.293849
726.829478	0.293756
727.028208	0.293674
727.226920	0.293591
727.425614	0.293241
727.624289	0.293142
727.822946	0.292723
728.021585	0.292383
728.220206	0.292200
728.418808	0.291970
728.617392	0.291837
728.815958	0.291448
729.014506	0.291059
729.213036	0.290865
729.411547	0.290488
729.610040	0.290247
729.808515	0.290262
730.006972	0.290105
730.205410	0.289963
730.403831	0.289706
730.602233	0.289658
730.800616	0.289527
730.998982	0.289531
731.197329	0.289619
731.395658	0.289419
731.593969	0.289406
731.792262	0.289265
731.990536	0.289039
732.188793	0.289123
732.387031	0.289056
732.585250	0.289106
732.783452	0.288991
732.981635	0.288803
733.179800	0.288932
733.377947	0.288948
733.576076	0.288861
733.774186	0.288974
733.972278	0.288601
734.170352	0.288417
734.368408	0.288039
734.566446	0.288061
734.764465	0.287963
734.962466	0.287810
735.160449	0.287342
735.358413	0.287259
735.556360	0.286983
735.754288	0.287168
735.952198	0.286969
736.150090	0.286836
736.347963	0.286884
736.545818	0.286840
736.743655	0.286557
736.941474	0.286802
737.139275	0.286363
737.337057	0.286308
737.534821	0.286197
737.732567	0.285741
737.930295	0.285766
738.128005	0.285409
738.325696	0.284991
738.523369	0.284756
738.721024	0.284377
738.918660	0.284412
739.116279	0.284107
739.313879	0.283734
739.511461	0.283922
739.709024	0.283586
739.906570	0.283277
740.104097	0.283182
740.301606	0.283088
740.499097	0.282886
740.696569	0.282821
740.894024	0.282845
741.091460	0.282813
741.288878	0.282553
741.486277	0.282334
741.683659	0.281967
741.881022	0.281870
742.078367	0.281573
742.275694	0.281280
742.473002	0.281108
742.670293	0.280952
742.867565	0.280489
743.064819	0.280275
743.262054	0.280316
743.459272	0.280098
743.656471	0.279696
743.853652	0.279547
744.050815	0.279285
744.247959	0.278768
744.445085	0.278323
744.642194	0.278084
744.839283	0.278111
745.036355	0.277791
745.233408	0.277996
745.430444	0.277948
745.627461	0.277581
745.824459	0.277550
746.021440	0.277523
746.218402	0.277373
746.415346	0.277387
746.612272	0.277211
746.809180	0.276960
747.006069	0.276441
747.202940	0.276155
747.399793	0.276023
747.596628	0.275745
747.793444	0.275521
747.990243	0.275356
748.187023	0.274955
748.383784	0.274756
748.580528	0.274692
748.777253	0.274662
748.973960	0.274518
749.170649	0.274481
749.367320	0.274484
749.563973	0.274378
749.760607	0.274093
749.957223	0.274204
750.153821	0.273724
750.350400	0.273433
750.546962	0.273220
750.743505	0.273027
750.940030	0.272816
751.136536	0.272365
751.333025	0.272107
751.529495	0.271992
751.725947	0.271479
751.922381	0.271346
752.118796	0.271013
752.315194	0.270646
752.511573	0.270508
752.707934	0.270452
752.904276	0.270581
753.100601	0.270628
753.296907	0.270424
753.493195	0.270286
753.689465	0.270329
753.885716	0.270435
754.081949	0.270287
754.278164	0.269672
754.474361	0.269334
754.670540	0.268945
754.866700	0.268481
755.062843	0.268542
755.258967	0.268440
755.455072	0.267928
755.651160	0.267709
755.847229	0.267563
756.043280	0.267736
756.239313	0.267630
756.435328	0.267569
756.631324	0.267438
756.827302	0.267160
757.023262	0.267275
757.219204	0.267514
757.415127	0.267393
757.611033	0.267545
757.806920	0.267393
758.002788	0.267282
758.198639	0.267036
758.394471	0.267057
758.590286	0.266865
758.786081	0.266470
758.981859	0.265889
759.177619	0.265921
759.373360	0.265746
759.569083	0.265621
759.764788	0.265380
759.960474	0.265111
760.156143	0.264967
760.351793	0.264860
760.547425	0.264534
760.743038	0.264520
760.938634	0.264042
761.134211	0.263551
761.329770	0.263599
761.525311	0.263472
761.720833	0.263331
761.916338	0.263032
762.111824	0.262526
762.307292	0.262331
762.502741	0.262071
762.698173	0.261983
762.893586	0.262074
763.088981	0.261586
763.284358	0.261280
763.479716	0.261288
763.675057	0.261084
763.870379	0.261376
764.065683	0.261408
764.260968	0.261451
764.456236	0.261201
764.651485	0.261046
764.846716	0.261190
765.041929	0.261400
765.237123	0.261552
765.432299	0.261664
765.627457	0.261468
765.822597	0.261845
766.017719	0.262123
766.212822	0.262259
766.407907	0.262112
766.602974	0.262068
766.798023	0.261811
766.993054	0.261769
767.188066	0.261880
767.383060	0.261730
767.578036	0.261110
767.772993	0.260749
767.967933	0.260633
768.162854	0.260541
768.357757	0.260283
768.552642	0.260269
768.747508	0.259708
768.942356	0.259332
769.137186	0.259359
769.331998	0.259453
769.526792	0.259429
769.721567	0.259470
769.916324	0.259208
770.111063	0.259171
770.305784	0.259047
770.500486	0.258974
770.695171	0.258914
770.889837	0.258607
771.084484	0.258165
771.279114	0.257970
771.473725	0.257606
771.668318	0.257882
771.862893	0.257851
772.057450	0.257684
772.251988	0.258085
772.446509	0.257763
772.641011	0.257991
772.835494	0.258186
773.029960	0.257875
773.224407	0.257751
773.418836	0.257266
773.613247	0.257182
773.807640	0.257200
774.002014	0.256714
774.196370	0.256846
774.390708	0.256346
774.585028	0.256365
774.779330	0.256293
774.973613	0.256368
775.167878	0.256538
775.362125	0.256312
775.556354	0.256091
775.750564	0.256059
775.944756	0.256034
776.138930	0.256247
776.333086	0.255985
776.527223	0.256146
776.721343	0.256294
776.915444	0.256470
777.109526	0.256551
777.303591	0.256662
777.497637	0.256691
777.691666	0.256834
777.885676	0.256715
778.079667	0.257043
778.273641	0.257025
778.467596	0.256844
778.661533	0.256402
778.855452	0.256538
779.049352	0.256346
779.243235	0.256157
779.437099	0.256068
779.630945	0.256309
779.824773	0.256241
780.018582	0.256294
780.212373	0.256504
780.406146	0.256659
780.599901	0.256436
780.793638	0.256718
780.987356	0.256744
781.181056	0.256633
781.374738	0.256617
781.568402	0.256453
781.762047	0.256370
781.955674	0.256225
782.149283	0.256185
782.342874	0.256444
782.536447	0.256563
782.730001	0.256819
782.923537	0.256896
783.117055	0.256786
783.310555	0.256712
783.504036	0.256729
783.697499	0.256650
783.890944	0.256956
784.084371	0.256847
784.277780	0.256808
784.471170	0.256655
784.664542	0.256835
784.857896	0.257147
785.051231	0.257100
785.244549	0.257002
785.437848	0.257212
785.631129	0.257206
785.824392	0.257164
786.017636	0.257314
786.210863	0.257187
786.404071	0.257011
786.597260	0.256771
786.790432	0.257290
786.983585	0.257205
787.176721	0.257181
787.369838	0.257068
787.562936	0.257243
787.756017	0.256900
787.949079	0.257448
788.142123	0.257549
788.335149	0.257716
788.528156	0.257502
788.721146	0.257908
788.914117	0.257839
789.107070	0.257826
789.300005	0.257764
789.492921	0.257991
789.685819	0.257833
789.878699	0.258024
790.071561	0.258011
790.264405	0.258128
790.457230	0.258184
790.650037	0.258343
790.842826	0.258608
791.035597	0.258841
791.228349	0.259029
791.421084	0.259052
791.613800	0.258778
791.806497	0.258854
791.999177	0.258846
792.191838	0.258916
792.384481	0.258959
792.577106	0.259152
792.769713	0.259215
792.962301	0.259248
793.154871	0.259415
793.347423	0.259928
793.539957	0.259904
793.732473	0.260014
793.924970	0.260090
794.117449	0.260482
794.309910	0.260489
794.502353	0.260742
794.694777	0.260997
794.887183	0.261236
795.079571	0.261049
795.271941	0.261472
795.464293	0.262016
795.656626	0.262320
795.848941	0.262338
796.041238	0.262544
796.233516	0.262857
796.425777	0.262978
796.618019	0.263158
796.810243	0.263541
797.002449	0.263502
797.194636	0.263868
797.386805	0.264164
797.578956	0.264311
797.771089	0.264662
797.963204	0.264535
798.155300	0.264692
798.347378	0.264835
798.539438	0.264960
798.731480	0.265123
798.923503	0.264897
799.115509	0.264787
799.307496	0.264908
799.499465	0.265040
799.691415	0.265427
799.883348	0.265327
800.075262	0.265533
800.267158	0.265832
800.459035	0.266223
800.650895	0.266325
800.842736	0.266914
801.034559	0.267159
801.226364	0.267134
801.418150	0.267105
801.609919	0.267308
801.801669	0.267451
801.993401	0.267638
802.185114	0.267883
802.376810	0.268143
802.568487	0.267968
802.760146	0.268196
802.951787	0.268259
803.143409	0.268599
803.335014	0.269021
803.526600	0.269153
803.718168	0.269470
803.909717	0.269631
804.101249	0.269788
804.292762	0.269869
804.484257	0.270143
804.675734	0.270619
804.867192	0.270929
805.058632	0.271081
805.250054	0.271378
805.441458	0.271516
805.632844	0.272042
805.824211	0.272285
806.015561	0.272821
806.206891	0.273289
806.398204	0.273496
806.589499	0.273796
806.780775	0.274435
806.972033	0.274938
807.163273	0.275158
807.354495	0.275292
807.545698	0.275598
807.736883	0.275895
807.928050	0.276061
808.119199	0.276475
808.310329	0.276849
808.501441	0.276790
808.692535	0.276912
808.883611	0.277186
809.074669	0.277262
809.265708	0.277347
809.456729	0.277611
809.647732	0.277876
809.838717	0.277759
810.029683	0.277689
810.220632	0.278370
810.411562	0.278686
810.602474	0.279062
810.793367	0.279504
810.984242	0.279917
811.175100	0.280128
811.365938	0.280167
811.556759	0.281033
811.747562	0.281213
811.938346	0.281167
812.129112	0.281656
812.319860	0.282109
812.510589	0.282360
812.701300	0.282631
812.891994	0.283355
813.082668	0.283928
813.273325	0.284112
813.463964	0.284885
813.654584	0.285368
813.845186	0.285645
814.035769	0.285838
814.226335	0.286176
814.416882	0.286787
814.607411	0.286539
814.797922	0.286809
814.988415	0.286848
815.178889	0.286872
815.369345	0.286985
815.559783	0.287155
815.750203	0.287454
815.940605	0.287620
816.130988	0.287834
816.321353	0.288345
816.511700	0.288743
816.702028	0.289248
816.892339	0.289592
817.082631	0.289810
817.272905	0.290163
817.463161	0.290344
817.653398	0.290821
817.843617	0.291231
818.033819	0.291388
818.224001	0.291508
818.414166	0.291857
818.604312	0.292299
818.794440	0.293011
818.984550	0.293399
819.174642	0.293873
819.364716	0.294185
819.554771	0.294393
819.744808	0.294736
819.934827	0.295334
820.124827	0.295572
820.314810	0.295952
820.504774	0.296046
820.694720	0.296408
820.884647	0.296839
821.074557	0.297371
821.264448	0.298008
821.454321	0.298541
821.644176	0.298689
821.834012	0.299163
822.023831	0.298993
822.213631	0.299494
822.403413	0.299983
822.593176	0.300216
822.782922	0.300358
822.972649	0.300490
823.162358	0.301042
823.352049	0.301574
823.541721	0.302198
823.731376	0.303255
823.921012	0.303929
824.110629	0.304148
824.300229	0.304777
824.489811	0.305332
824.679374	0.305836
824.868919	0.306234
825.058445	0.306628
825.247954	0.306880
825.437444	0.306913
825.626916	0.307053
825.816370	0.307435
826.005806	0.307726
826.195223	0.307947
826.384622	0.308021
826.574003	0.308494
826.763366	0.308937
826.952711	0.309231
827.142037	0.309765
827.331345	0.310178
827.520635	0.310538
827.709906	0.310893
827.899160	0.311349
828.088395	0.312028
828.277612	0.312283
828.466810	0.312334
828.655991	0.312851
828.845153	0.313404
829.034297	0.314210
829.223423	0.314722
829.412531	0.315344
829.601620	0.315882
829.790691	0.316541
829.979744	0.317017
830.168779	0.317785
830.357795	0.318188
830.546793	0.318655
830.735773	0.318665
830.924735	0.319190
831.113679	0.319349
831.302604	0.319914
831.491511	0.320110
831.680400	0.320588
831.869271	0.321088
832.058123	0.321660
832.246957	0.322180
832.435773	0.322747
832.624571	0.323323
832.813351	0.323959
833.002112	0.324436
833.190855	0.325078
833.379580	0.325488
833.568287	0.325626
833.756975	0.326088
833.945645	0.326415
834.134297	0.327060
834.322931	0.327283
834.511547	0.327470
834.700144	0.327780
834.888723	0.328033
835.077284	0.328670
835.265826	0.329391
835.454351	0.329736
835.642857	0.329910
835.831345	0.330167
836.019815	0.330992
836.208266	0.331938
836.396699	0.332551
836.585114	0.333311
836.773511	0.333410
836.961890	0.334045
837.150250	0.334519
837.338592	0.335418
837.526916	0.335802
837.715222	0.335723
837.903510	0.336090
838.091779	0.336639
838.280030	0.337281
838.468263	0.338103
838.656477	0.338413
838.844674	0.338946
839.032852	0.339103
839.221012	0.339693
839.409153	0.340563
839.597277	0.341068
839.785382	0.341354
839.973469	0.341582
840.161538	0.342296
840.349589	0.342821
840.537621	0.343220
840.725635	0.344013
840.913631	0.344369
841.101609	0.344722
841.289568	0.345414
841.477509	0.346132
841.665432	0.346481
841.853337	0.346725
842.041224	0.347192
842.229092	0.347631
842.416942	0.347858
842.604774	0.348505
842.792588	0.349284
842.980383	0.349442
843.168160	0.349656
843.355919	0.350202
843.543660	0.350375
843.731382	0.351197
843.919087	0.352144
844.106773	0.353107
844.294441	0.353446
844.482090	0.353961
844.669722	0.354755
844.857335	0.355507
845.044930	0.356326
845.232507	0.357566
845.420065	0.358024
845.607605	0.358488
845.795127	0.359128
845.982631	0.359789
846.170117	0.360129
846.357584	0.360839
846.545033	0.361484
846.732464	0.362003
846.919877	0.362395
847.107272	0.362728
847.294648	0.363247
847.482006	0.363553
847.669346	0.364363
847.856667	0.365246
848.043971	0.365746
848.231256	0.366019
848.418523	0.366366
848.605771	0.366799
848.793002	0.367269
848.980214	0.367537
849.167408	0.367821
849.354584	0.368186
849.541742	0.368390
849.728881	0.368367
849.916002	0.368879
850.103105	0.369417
850.290190	0.369643
850.477256	0.370354
850.664304	0.371063
850.851334	0.371813
851.038346	0.372322
851.225340	0.373056
851.412315	0.373904
851.599272	0.374350
851.786211	0.375090
851.973132	0.375304
852.160034	0.375856
852.346918	0.376065
852.533784	0.376172
852.720632	0.376496
852.907462	0.376458
853.094273	0.376723
853.281066	0.377037
853.467841	0.377132
853.654598	0.377758
853.841336	0.377686
854.028056	0.377885
854.214758	0.378355
854.401442	0.378419
854.588107	0.378827
854.774755	0.379386
854.961384	0.379815
855.147995	0.380280
855.334587	0.380790
855.521162	0.381327
855.707718	0.382026
855.894256	0.382459
856.080775	0.383379
856.267277	0.383952
856.453760	0.384241
856.640225	0.384943
856.826672	0.385240
857.013101	0.385641
857.199511	0.386378
857.385903	0.387039
857.572277	0.387866
857.758633	0.387947
857.944970	0.388305
858.131290	0.388584
858.317591	0.388815
858.503873	0.389250
858.690138	0.389866
858.876384	0.390320
859.062612	0.390292
859.248822	0.390064
859.435014	0.390740
859.621188	0.391606
859.807343	0.392085
859.993480	0.392298
860.179599	0.392549
860.365699	0.393084
860.551781	0.393633
860.737846	0.394063
860.923891	0.394745
861.109919	0.395019
861.295929	0.394908
861.481920	0.395478
861.667893	0.396122
861.853848	0.396725
862.039784	0.396738
862.225702	0.396744
862.411603	0.397493
862.597484	0.398180
862.783348	0.398782
862.969193	0.399654
863.155021	0.399946
863.340830	0.400420
863.526620	0.400963
863.712393	0.401707
863.898147	0.402136
864.083883	0.402527
864.269601	0.403103
864.455301	0.403303
864.640982	0.403506
864.826645	0.404173
865.012290	0.404732
865.197917	0.405254
865.383526	0.405712
865.569116	0.406056
865.754688	0.406586
865.940242	0.406821
866.125777	0.407609
866.311295	0.408063
866.496794	0.408345
866.682275	0.408523
866.867737	0.409117
867.053182	0.409567
867.238608	0.409993
867.424016	0.410089
867.609406	0.410510
867.794778	0.410782
867.980131	0.411447
868.165466	0.411526
868.350783	0.412169
868.536082	0.412139
868.721362	0.412473
868.906625	0.413013
869.091869	0.413734
869.277094	0.413684
869.462302	0.414219
869.647491	0.414058
869.832662	0.414551
870.017815	0.414858
870.202950	0.415353
870.388066	0.415236
870.573165	0.415290
870.758245	0.415229
870.943306	0.415848
871.128350	0.415700
871.313375	0.416374
871.498382	0.416883
871.683371	0.417297
871.868342	0.417714
872.053294	0.418146
872.238229	0.419184
872.423144	0.420044
872.608042	0.420669
872.792922	0.420987
872.977783	0.420951
873.162626	0.421140
873.347451	0.421100
873.532258	0.421030
873.717046	0.421575
873.901816	0.421350
874.086568	0.421225
874.271302	0.421573
874.456017	0.422161
874.640715	0.422767
874.825394	0.423320
875.010055	0.423159
875.194697	0.423377
875.379322	0.423080
875.563928	0.423678
875.748516	0.423792
875.933085	0.423360
876.117637	0.423172
876.302170	0.423065
876.486685	0.422911
876.671182	0.423605
876.855661	0.424335
877.040121	0.424837
877.224563	0.424858
877.408987	0.425122
877.593393	0.425546
877.777780	0.426398
877.962150	0.426552
878.146501	0.426602
878.330833	0.427613
878.515148	0.427863
878.699444	0.428335
878.883722	0.428230
879.067982	0.428283
879.252224	0.428499
879.436447	0.428406
879.620653	0.429145
879.804840	0.429548
879.989008	0.429277
880.173159	0.429491
880.357291	0.429557
880.541405	0.430044
880.725501	0.430680
880.909579	0.431279
881.093638	0.431319
881.277680	0.431461
881.461703	0.431871
881.645707	0.432051
881.829694	0.432536
882.013662	0.433163
882.197612	0.433177
882.381544	0.433755
882.565458	0.433610
882.749353	0.434328
882.933230	0.433667
883.117089	0.433222
883.300930	0.432914
883.484753	0.432079
883.668557	0.431769
883.852343	0.432022
884.036111	0.431185
884.219861	0.431211
884.403592	0.430572
884.587305	0.431420
884.771000	0.431716
884.954677	0.431880
885.138335	0.432235
885.321976	0.432424
885.505598	0.432077
885.689201	0.432669
885.872787	0.432400
886.056354	0.432898
886.239904	0.432707
886.423434	0.432837
886.606947	0.432537
886.790442	0.432283
886.973918	0.432053
887.157376	0.432264
887.340816	0.431583
887.524237	0.431462
887.707641	0.430981
887.891026	0.430733
888.074393	0.430718
888.257741	0.431210
888.441072	0.431165
888.624384	0.430984
888.807678	0.431083
888.990954	0.431684
889.174211	0.432283
889.357451	0.432387
889.540672	0.432293
889.723875	0.432301
889.907059	0.432312
890.090226	0.432371
890.273374	0.432601
890.456504	0.432396
890.639616	0.431954
890.822709	0.431843
891.005785	0.432259
891.188842	0.432374
891.371881	0.432461
891.554901	0.432193
891.737904	0.431781
891.920888	0.431874
892.103854	0.432126
892.286802	0.431856
892.469731	0.431436
892.652643	0.431282
892.835536	0.431093
893.018410	0.431211
893.201267	0.431018
893.384106	0.431659
893.566926	0.431839
893.749728	0.431961
893.932511	0.432006
894.115277	0.432177
894.298024	0.431951
894.480753	0.431899
894.663464	0.431506
894.846157	0.431528
895.028831	0.431872
895.211487	0.430716
895.394125	0.430234
895.576745	0.431052
895.759346	0.430953
895.941930	0.430728
896.124495	0.430565
896.307041	0.430165
896.489570	0.429905
896.672080	0.429290
896.854573	0.429906
897.037046	0.430125
897.219502	0.428837
897.401940	0.428396
897.584359	0.428235
897.766760	0.428540
897.949143	0.428737
898.131507	0.428777
898.313854	0.427716
898.496182	0.427454
898.678492	0.426404
898.860783	0.426743
899.043057	0.426477
899.225312	0.426346
899.407549	0.426706
899.589768	0.426331
899.771968	0.426008
899.954151	0.427111
900.136315	0.426568
900.318461	0.426406
900.500588	0.426034
900.682698	0.426039
900.864789	0.425679
901.046862	0.424130
901.228917	0.423868
901.410953	0.423342
901.592971	0.422591
901.774972	0.422572
901.956953	0.422847
902.138917	0.422746
902.320862	0.422411
902.502790	0.422136
902.684699	0.422137
902.866589	0.422080
903.048462	0.421739
903.230316	0.421471
903.412152	0.421365
903.593970	0.420510
903.775770	0.419880
903.957551	0.419261
904.139314	0.418815
904.321059	0.418416
904.502786	0.417435
904.684494	0.417229
904.866185	0.416336
905.047857	0.415079
905.229510	0.414815
905.411146	0.414648
905.592763	0.414927
905.774363	0.415000
905.955943	0.414362
906.137506	0.413714
906.319051	0.413551
906.500577	0.413418
906.682085	0.413461
906.863575	0.413249
907.045046	0.412515
907.226500	0.411919
907.407935	0.410924
907.589352	0.411031
907.770750	0.411645
907.952131	0.411289
908.133493	0.410657
908.314837	0.409802
908.496163	0.409264
908.677470	0.409068
908.858760	0.407706
909.040031	0.407060
909.221284	0.405949
909.402518	0.404974
909.583735	0.403992
909.764933	0.403466
909.946113	0.403337
910.127275	0.402629
910.308418	0.401532
910.489544	0.401150
910.670651	0.400653
910.851740	0.400056
911.032810	0.399353
911.213863	0.399075
911.394897	0.398029
911.575913	0.396954
911.756911	0.395534
911.937890	0.395425
912.118851	0.394530
912.299794	0.394034
912.480719	0.393674
912.661626	0.392881
912.842514	0.391910
913.023384	0.391974
913.204236	0.391842
913.385070	0.391879
913.565886	0.390582
913.746683	0.390151
913.927462	0.389487
914.108223	0.388511
914.288965	0.388051
914.469690	0.387574
914.650396	0.386509
914.831084	0.386177
915.011754	0.385420
915.192405	0.385246
915.373038	0.384552
915.553653	0.384051
915.734250	0.383257
915.914829	0.381883
916.095389	0.381216
916.275931	0.380698
916.456455	0.379447
916.636961	0.379199
916.817448	0.378447
916.997917	0.377297
917.178368	0.375734
917.358801	0.375681
917.539216	0.376202
917.719612	0.375089
917.899990	0.374483
918.080350	0.373708
918.260692	0.372863
918.441015	0.371802
918.621320	0.371553
918.801607	0.371395
918.981876	0.369943
919.162127	0.368182
919.342359	0.367462
919.522573	0.366815
919.702769	0.366319
919.882947	0.365936
920.063106	0.365367
920.243247	0.365082
920.423370	0.364356
920.603475	0.363898
920.783562	0.362572
920.963630	0.362037
921.143680	0.361650
921.323712	0.360393
921.503725	0.359509
921.683721	0.358282
921.863698	0.357549
922.043657	0.356059
922.223598	0.355564
922.403520	0.355815
922.583424	0.354720
922.763311	0.353399
922.943178	0.353089
923.123028	0.351972
923.302859	0.351444
923.482673	0.350341
923.662467	0.350140
923.842244	0.349263
924.022003	0.348473
924.201743	0.348035
924.381465	0.346716
924.561169	0.346012
924.740854	0.344997
924.920522	0.344833
925.100171	0.344399
925.279802	0.343642
925.459414	0.342170
925.639009	0.340505
925.818585	0.339426
925.998143	0.338525
926.177683	0.337045
926.357205	0.336212
926.536708	0.334715
926.716193	0.333519
926.895660	0.331902
927.075109	0.330997
927.254539	0.329837
927.433951	0.328592
927.613345	0.327281
927.792721	0.326882
927.972079	0.326070
928.151418	0.324870
928.330739	0.323226
928.510042	0.322516
928.689327	0.321789
928.868593	0.321346
929.047841	0.320742
929.227071	0.319779
929.406283	0.318127
929.585476	0.317346
929.764652	0.316466
929.943809	0.316158
930.122948	0.314907
930.302068	0.314454
930.481171	0.314699
930.660255	0.313678
930.839321	0.312916
931.018369	0.311857
931.197398	0.310083
931.376409	0.309440
931.555402	0.308079
931.734377	0.307181
931.913334	0.304802
932.092272	0.302603
932.271192	0.301203
932.450094	0.301139
932.628978	0.300459
932.807844	0.299009
932.986691	0.297307
933.165520	0.296384
933.344331	0.295505
933.523123	0.295420
933.701898	0.294437
933.880654	0.292923
934.059392	0.290676
934.238111	0.288861
934.416813	0.288540
934.595496	0.287369
934.774161	0.286390
934.952808	0.284966
935.131437	0.283896
935.310047	0.282526
935.488639	0.281969
935.667213	0.280664
935.845769	0.280402
936.024306	0.278799
936.202825	0.278469
936.381326	0.277167
936.559809	0.276774
936.738274	0.274591
936.916720	0.272900
937.095148	0.271917
937.273558	0.271476
937.451950	0.269831
937.630323	0.268157
937.808678	0.265940
937.987015	0.264649
938.165334	0.262782
938.343635	0.261605
938.521917	0.260640
938.700181	0.258802
938.878427	0.257024
939.056655	0.256037
939.234864	0.255243
939.413055	0.254610
939.591228	0.254009
939.769383	0.253107
939.947519	0.252112
940.125638	0.251273
940.303738	0.251057
940.481820	0.249385
940.659883	0.248292
940.837929	0.246779
941.015956	0.245613
941.193965	0.243586
941.371955	0.241950
941.549928	0.240467
941.727882	0.239089
941.905818	0.236747
942.083736	0.235480
942.261636	0.233948
942.439517	0.232860
942.617380	0.230782
942.795225	0.230077
942.973052	0.230014
943.150860	0.229008
943.328651	0.228458
943.506423	0.227442
943.684176	0.226891
943.861912	0.226540
944.039629	0.225142
944.217328	0.225196
944.395009	0.224079
944.572672	0.223168
944.750317	0.222137
944.927943	0.220763
945.105551	0.219591
945.283141	0.218160
945.460712	0.215747
945.638265	0.214316
945.815801	0.213439
945.993317	0.210301
946.170816	0.206215
946.348297	0.206123
946.525759	0.203487
946.703203	0.203985
946.880629	0.204036
947.058036	0.203447
947.235425	0.203553
947.412797	0.201333
947.590149	0.200662
947.767484	0.201007
947.944800	0.198948
948.122099	0.198695
948.299379	0.195337
948.476640	0.192039
948.653884	0.190792
948.831109	0.188473
949.008316	0.186210
949.185505	0.185739
949.362676	0.184515
949.539828	0.183523
949.716962	0.182154
949.894078	0.180424
950.071176	0.180406
950.248256	0.179756
950.425317	0.179786
950.602360	0.179779
950.779385	0.177959
950.956391	0.178170
951.133380	0.176419
951.310350	0.174334
951.487302	0.175166
951.664235	0.173133
951.841151	0.170625
952.018048	0.170201
952.194927	0.169232
952.371788	0.170206
952.548631	0.168133
952.725455	0.166744
952.902261	0.166754
953.079049	0.164771
953.255819	0.165663
953.432570	0.166000
953.609303	0.162702
953.786018	0.160835
953.962715	0.159566
954.139394	0.158342
954.316054	0.158619
954.492696	0.158438
954.669320	0.158613
954.845926	0.156323
955.022513	0.154487
955.199083	0.155133
955.375634	0.156372
955.552166	0.154874
955.728681	0.154114
955.905177	0.151888
956.081655	0.150438
956.258115	0.151081
956.434557	0.150136
956.610980	0.150342
956.787385	0.149949
956.963772	0.148835
957.140141	0.150074
957.316492	0.149201
957.492824	0.148319
957.669138	0.147946
957.845434	0.143165
958.021712	0.144364
958.197971	0.142793
958.374212	0.142026
958.550435	0.140599
958.726640	0.136969
958.902826	0.137881
959.078995	0.140383
959.255145	0.141471
959.431277	0.141802
959.607390	0.140530
959.783486	0.140974
959.959563	0.140682
960.135622	0.141735
960.311662	0.143948
960.487685	0.143730
960.663689	0.142925
960.839675	0.141916
961.015643	0.142108
961.191593	0.142043
961.367524	0.141829
961.543437	0.142650
961.719332	0.140358
961.895209	0.138723
962.071067	0.137428
962.246907	0.136005
962.422730	0.135188
962.598533	0.136160
962.774319	0.135042
962.950086	0.134568
963.125835	0.133113
963.301566	0.133937
963.477279	0.130842
963.652973	0.128240
963.828650	0.128179
964.004308	0.126461
964.179947	0.124094
964.355569	0.123318
964.531172	0.122394
964.706757	0.121732
964.882324	0.120173
965.057873	0.120994
965.233403	0.121414
965.408916	0.120807
965.584410	0.121863
965.759885	0.122066
965.935343	0.122289
966.110782	0.124175
966.286203	0.124750
966.461606	0.126305
966.636991	0.128440
966.812357	0.129240
966.987705	0.129200
967.163035	0.125532
967.338347	0.126601
967.513641	0.127123
967.688916	0.127232
967.864173	0.125598
968.039412	0.124949
968.214632	0.124504
968.389835	0.124532
968.565019	0.125309
968.740185	0.130332
968.915333	0.130860
969.090462	0.129653
969.265573	0.129410
969.440667	0.130072
969.615741	0.128235
969.790798	0.127497
969.965836	0.129466
970.140856	0.128142
970.315858	0.128521
970.490842	0.128595
970.665808	0.130851
970.840755	0.129136
971.015684	0.130026
971.190595	0.132037
971.365487	0.132465
971.540362	0.130360
971.715218	0.129631
971.890056	0.129948
972.064875	0.129707
972.239677	0.129954
972.414460	0.129100
972.589225	0.126112
972.763972	0.125469
972.938700	0.125490
973.113411	0.125813
973.288103	0.126482
973.462777	0.124700
973.637432	0.123284
973.812070	0.123230
973.986689	0.124995
974.161290	0.127385
974.335873	0.129097
974.510437	0.128877
974.684984	0.129261
974.859512	0.130366
975.034022	0.130571
975.208513	0.131437
975.382987	0.130310
975.557442	0.129933
975.731879	0.130321
975.906298	0.127394
976.080698	0.126859
976.255080	0.126772
976.429445	0.129165
976.603790	0.129775
976.778118	0.130805
976.952427	0.130450
977.126719	0.127755
977.300992	0.126547
977.475246	0.128746
977.649483	0.128480
977.823701	0.129882
977.997901	0.127743
978.172083	0.127161
978.346247	0.127367
978.520392	0.126597
978.694519	0.129655
978.868628	0.129138
979.042719	0.129836
979.216791	0.131290
979.390845	0.128095
979.564882	0.127887
979.738899	0.126678
979.912899	0.126616
980.086880	0.127293
980.260843	0.127464
980.434788	0.127923
980.608715	0.127528
980.782623	0.126980
980.956514	0.129423
981.130386	0.130001
981.304240	0.130560
981.478075	0.127739
981.651892	0.128629
981.825692	0.127646
981.999472	0.129198
982.173235	0.127474
982.346980	0.125015
982.520706	0.124056
982.694414	0.123564
982.868104	0.124577
983.041775	0.126857
983.215428	0.127022
983.389064	0.128249
983.562680	0.126750
983.736279	0.127995
983.909860	0.131116
984.083422	0.132818
984.256966	0.131854
984.430491	0.129508
984.603999	0.126619
984.777488	0.126467
984.950959	0.121969
985.124412	0.122185
985.297847	0.120328
985.471263	0.121622
985.644661	0.121671
985.818041	0.122132
985.991403	0.122935
986.164747	0.124795
986.338072	0.123346
986.511379	0.127079
986.684668	0.126415
986.857938	0.128292
987.031191	0.127326
987.204425	0.126717
987.377641	0.125426
987.550839	0.126644
987.724018	0.128287
987.897179	0.128206
988.070322	0.127996
988.243447	0.127984
988.416554	0.128456
988.589642	0.127541
988.762712	0.125960
988.935764	0.125881
989.108798	0.124549
989.281813	0.124778
989.454811	0.125930
989.627790	0.125697
989.800751	0.124636
989.973693	0.123650
990.146617	0.121800
990.319524	0.123712
990.492412	0.125412
990.665281	0.125382
990.838133	0.125300
991.010966	0.122797
991.183781	0.122139
991.356578	0.123152
991.529356	0.123830
991.702117	0.127018
991.874859	0.128656
992.047583	0.128704
992.220288	0.129583
992.392976	0.129069
992.565645	0.129577
992.738296	0.129509
992.910929	0.129703
993.083543	0.129786
993.256139	0.127455
993.428718	0.124126
993.601277	0.121310
993.773819	0.122366
993.946342	0.120236
994.118848	0.121917
994.291335	0.121717
994.463803	0.121155
994.636254	0.119661
994.808686	0.119965
994.981100	0.120856
995.153496	0.124042
995.325874	0.123172
995.498233	0.125284
995.670574	0.126459
995.842897	0.127251
996.015202	0.129741
996.187488	0.130052
996.359757	0.129981
996.532007	0.129437
996.704239	0.127129
996.876452	0.127816
997.048648	0.126089
997.220825	0.124922
997.392984	0.124949
997.565124	0.125853
997.737247	0.126092
997.909351	0.125994
998.081437	0.128153
998.253505	0.129682
998.425554	0.130094
998.597586	0.131931
998.769599	0.133204
998.941594	0.133656
999.113571	0.131471
999.285529	0.132102
999.457469	0.134244
999.629391	0.132327
999.801295	0.134700
999.973181	0.132400
1000.145048	0.131965
1000.316897	0.130788
1000.488728	0.131555
1000.660541	0.132138
1000.832335	0.132748
1001.004111	0.131495
1001.175869	0.131837
1001.347609	0.129584
1001.519331	0.131150
1001.691034	0.130475
1001.862719	0.132516
1002.034386	0.131619
1002.206035	0.132802
1002.377665	0.132025
1002.549277	0.131602
1002.720871	0.131568
1002.892447	0.131435
1003.064004	0.131055
1003.235544	0.131634
1003.407065	0.130046
1003.578568	0.129010
1003.750052	0.127094
1003.921519	0.127385
1004.092967	0.127840
1004.264397	0.128619
1004.435809	0.129891
1004.607202	0.130001
1004.778577	0.130746
1004.949934	0.129623
1005.121273	0.130189
1005.292594	0.129499
1005.463896	0.131496
1005.635180	0.129634
1005.806446	0.129609
1005.977694	0.128450
1006.148923	0.127291
1006.320135	0.124856
1006.491328	0.126766
1006.662503	0.127027
1006.833659	0.128511
1007.004798	0.125909
1007.175918	0.126740
1007.347020	0.125882
1007.518103	0.126961
1007.689169	0.128994
1007.860216	0.131142
1008.031245	0.130329
1008.202256	0.131946
1008.373248	0.131352
1008.544223	0.131075
1008.715179	0.130620
1008.886117	0.130752
1009.057036	0.128052
1009.227938	0.125921
1009.398821	0.125189
1009.569686	0.123035
1009.740533	0.122756
1009.911361	0.121945
1010.082172	0.122650
1010.252964	0.123207
1010.423738	0.123316
1010.594493	0.126048
1010.765231	0.125366
1010.935950	0.126566
1011.106651	0.128198
1011.277334	0.124282
1011.447998	0.124226
1011.618645	0.122643
1011.789273	0.122464
1011.959882	0.121652
1012.130474	0.119215
1012.301048	0.121600
1012.471603	0.121105
1012.642140	0.121943
1012.812658	0.124802
1012.983159	0.125608
1013.153641	0.127962
1013.324105	0.127035
1013.494551	0.128440
1013.664979	0.128615
1013.835388	0.128074
1014.005779	0.127543
1014.176152	0.127737
1014.346507	0.127961
1014.516843	0.128215
1014.687162	0.129121
1014.857462	0.132774
1015.027744	0.130073
1015.198007	0.131601
1015.368252	0.130663
1015.538480	0.130168
1015.708689	0.128767
1015.878879	0.128695
1016.049052	0.128424
1016.219206	0.126189
1016.389342	0.124828
1016.559460	0.129510
1016.729559	0.128178
1016.899641	0.128603
1017.069704	0.127362
1017.239749	0.127672
1017.409775	0.127266
1017.579784	0.126900
1017.749774	0.126774
1017.919746	0.126952
1018.089700	0.122655
1018.259635	0.123682
1018.429553	0.123103
1018.599452	0.125779
1018.769333	0.127238
1018.939195	0.129049
1019.109040	0.128675
1019.278866	0.129322
1019.448674	0.127836
1019.618464	0.129788
1019.788235	0.129833
1019.957989	0.130661
1020.127724	0.127554
1020.297441	0.126665
1020.467139	0.124382
1020.636820	0.124221
1020.806482	0.122875
1020.976126	0.125106
1021.145752	0.124183
1021.315359	0.122567
1021.484948	0.122150
1021.654519	0.125041
1021.824072	0.123590
1021.993607	0.122707
1022.163123	0.123886
1022.332621	0.124418
1022.502101	0.123750
1022.671563	0.124675
1022.841007	0.124193
1023.010432	0.121854
1023.179839	0.119543
1023.349228	0.119381
1023.518598	0.119584
1023.687951	0.118988
1023.857285	0.117519
1024.026601	0.115949
1024.195899	0.115183
1024.365178	0.116435
1024.534439	0.119267
1024.703682	0.119251
1024.872907	0.120986
1025.042114	0.120704
1025.211302	0.120755
1025.380472	0.122725
1025.549624	0.122256
1025.718758	0.121150
1025.887873	0.123030
1026.056970	0.121173
1026.226049	0.121113
1026.395110	0.120664
1026.564153	0.122242
1026.733177	0.122520
1026.902183	0.123087
1027.071171	0.123424
1027.240141	0.123082
1027.409092	0.121943
1027.578026	0.123203
1027.746940	0.124145
1027.915837	0.124243
1028.084716	0.121911
1028.253576	0.120702
1028.422418	0.118356
1028.591242	0.118429
1028.760048	0.118895
1028.928835	0.118101
1029.097604	0.116789
1029.266355	0.115527
1029.435088	0.113633
1029.603803	0.116314
1029.772499	0.115763
1029.941177	0.117134
1030.109837	0.117673
1030.278478	0.118474
1030.447102	0.120163
1030.615707	0.121803
1030.784294	0.123328
1030.952863	0.124421
1031.121413	0.123377
1031.289945	0.125172
1031.458460	0.125758
1031.626955	0.125234
1031.795433	0.124365
1031.963892	0.122918
1032.132334	0.122609
1032.300756	0.122797
1032.469161	0.123651
1032.637548	0.123477
1032.805916	0.122464
1032.974266	0.122958
1033.142598	0.122390
1033.310911	0.123209
1033.479207	0.122946
1033.647484	0.122759
1033.815743	0.124093
1033.983983	0.124366
1034.152206	0.124615
1034.320410	0.126337
1034.488596	0.126193
1034.656764	0.126989
1034.824914	0.126347
1034.993045	0.126903
1035.161158	0.126088
1035.329253	0.123869
1035.497330	0.123196
1035.665388	0.124578
1035.833428	0.123135
1036.001450	0.121571
1036.169454	0.120865
1036.337440	0.121687
1036.505407	0.121464
1036.673356	0.123912
1036.841287	0.125597
1037.009200	0.124889
1037.177094	0.121649
1037.344970	0.120966
1037.512828	0.121183
1037.680668	0.121964
1037.848489	0.121821
1038.016293	0.122215
1038.184078	0.121264
1038.351845	0.119985
1038.519593	0.120841
1038.687324	0.122355
1038.855036	0.122945
1039.022730	0.122902
1039.190406	0.122208
1039.358063	0.121135
1039.525702	0.120353
1039.693323	0.118927
1039.860926	0.119194
1040.028511	0.119180
1040.196077	0.119374
1040.363625	0.119313
1040.531155	0.119572
1040.698667	0.120077
1040.866161	0.122301
1041.033636	0.121410
1041.201093	0.122246
1041.368532	0.119993
1041.535952	0.119718
1041.703355	0.119325
1041.870739	0.119417
1042.038105	0.121679
1042.205452	0.121281
1042.372782	0.119607
1042.540093	0.122423
1042.707386	0.122271
1042.874661	0.125952
1043.041918	0.126029
1043.209156	0.126734
1043.376376	0.128174
1043.543578	0.125381
1043.710762	0.126111
1043.877927	0.126114
1044.045074	0.124677
1044.212203	0.124787
1044.379314	0.122218
1044.546407	0.120663
1044.713481	0.120425
1044.880537	0.118943
1045.047575	0.120560
1045.214595	0.120996
1045.381596	0.120527
1045.548579	0.118652
1045.715544	0.117839
1045.882491	0.118953
1046.049420	0.120328
1046.216330	0.120519
1046.383222	0.121497
1046.550096	0.119285
1046.716951	0.120364
1046.883789	0.123412
1047.050608	0.125905
1047.217409	0.129891
1047.384192	0.129025
1047.550956	0.127882
1047.717703	0.128514
1047.884431	0.128061
1048.051140	0.131250
1048.217832	0.131137
1048.384505	0.127781
1048.551161	0.128463
1048.717798	0.127500
1048.884416	0.127683
1049.051017	0.125783
1049.217599	0.124958
1049.384163	0.124364
1049.550709	0.122735
1049.717237	0.122701
1049.883746	0.125486
1050.050237	0.123204
1050.216710	0.121368
1050.383165	0.120589
1050.549601	0.124293
1050.716019	0.123685
1050.882420	0.124138
1051.048801	0.122685
1051.215165	0.122030
1051.381510	0.119989
1051.547837	0.120709
1051.714146	0.119615
1051.880437	0.120330
1052.046709	0.116321
1052.212964	0.117506
1052.379200	0.117942
1052.545417	0.119174
1052.711617	0.119061
1052.877798	0.118042
1053.043961	0.117231
1053.210106	0.117732
1053.376233	0.117839
1053.542341	0.120243
1053.708432	0.119464
1053.874504	0.119408
1054.040557	0.120229
1054.206593	0.119920
1054.372610	0.121597
1054.538609	0.122716
1054.704590	0.123078
1054.870553	0.123641
1055.036497	0.124779
1055.202424	0.126299
1055.368331	0.126005
1055.534221	0.123532
1055.700093	0.123270
1055.865946	0.121209
1056.031781	0.120978
1056.197598	0.121003
1056.363397	0.121274
1056.529177	0.121283
1056.694939	0.120319
1056.860683	0.122532
1057.026409	0.125475
1057.192116	0.124909
1057.357806	0.124474
1057.523477	0.124453
1057.689130	0.122681
1057.854764	0.119931
1058.020381	0.119012
1058.185979	0.116625
1058.351559	0.115162
1058.517120	0.115679
1058.682664	0.113114
1058.848189	0.114018
1059.013696	0.113008
1059.179185	0.115690
1059.344656	0.115291
1059.510108	0.115613
1059.675542	0.118457
1059.840958	0.117142
1060.006356	0.116018
1060.171735	0.117982
1060.337096	0.120815
1060.502439	0.122878
1060.667764	0.120392
1060.833071	0.123672
1060.998359	0.123490
1061.163629	0.121399
1061.328881	0.122143
1061.494115	0.124552
1061.659330	0.126355
1061.824527	0.126423
1061.989706	0.125708
1062.154867	0.125884
1062.320010	0.126402
1062.485134	0.128789
1062.650240	0.130700
1062.815328	0.132501
1062.980398	0.128547
1063.145449	0.125626
1063.310482	0.125655
1063.475497	0.125053
1063.640494	0.126542
1063.805473	0.126284
1063.970433	0.123129
1064.135375	0.123942
1064.300299	0.122213
1064.465204	0.122708
1064.630092	0.121479
1064.794961	0.119949
1064.959812	0.121687
1065.124645	0.122872
1065.289459	0.123317
1065.454256	0.123746
1065.619034	0.122708
1065.783793	0.125264
1065.948535	0.124894
1066.113258	0.127326
1066.277964	0.124628
1066.442651	0.123853
1066.607319	0.120983
1066.771970	0.121685
1066.936602	0.123870
1067.101216	0.125498
1067.265812	0.124161
1067.430389	0.125470
1067.594949	0.126391
1067.759490	0.129496
1067.924013	0.129075
1068.088518	0.130908
1068.253004	0.127512
1068.417472	0.126907
1068.581922	0.125418
1068.746354	0.125993
1068.910768	0.123847
1069.075163	0.125517
1069.239540	0.126348
1069.403899	0.128792
1069.568240	0.127233
1069.732562	0.129773
1069.896866	0.129125
1070.061152	0.127606
1070.225420	0.126861
1070.389670	0.130385
1070.553901	0.128692
1070.718114	0.128315
1070.882309	0.125014
1071.046486	0.125351
1071.210644	0.123989
1071.374784	0.124674
1071.538906	0.126282
1071.703010	0.124823
1071.867096	0.123658
1072.031163	0.123356
1072.195212	0.123405
1072.359243	0.123697
1072.523256	0.124121
1072.687250	0.125263
1072.851226	0.122729
1073.015184	0.121127
1073.179124	0.120700
1073.343045	0.120969
1073.506949	0.122428
1073.670834	0.120265
1073.834701	0.123371
1073.998549	0.122207
1074.162380	0.121908
1074.326192	0.125960
1074.489986	0.127471
1074.653761	0.128118
1074.817519	0.128055
1074.981258	0.128548
1075.144979	0.127922
1075.308682	0.127708
1075.472367	0.130702
1075.636033	0.129641
1075.799681	0.125565
1075.963311	0.127572
1076.126923	0.128621
1076.290516	0.125446
1076.454092	0.123673
1076.617649	0.128994
1076.781187	0.127509
1076.944708	0.128839
1077.108210	0.131072
1077.271695	0.134027
1077.435160	0.133291
1077.598608	0.133000
1077.762038	0.136362
1077.925449	0.137751
1078.088842	0.134197
1078.252217	0.133757
1078.415573	0.133384
1078.578912	0.134374
1078.742232	0.133586
1078.905534	0.131990
1079.068817	0.132986
1079.232083	0.130110
1079.395330	0.128454
1079.558559	0.129945
1079.721770	0.131785
1079.884962	0.129280
1080.048136	0.128712
1080.211293	0.131777
1080.374430	0.129987
1080.537550	0.130965
1080.700651	0.133989
1080.863735	0.135107
1081.026800	0.136719
1081.189846	0.135035
1081.352875	0.136245
1081.515885	0.137943
1081.678877	0.136025
1081.841851	0.140000
1082.004807	0.137128
1082.167744	0.137682
1082.330663	0.137379
1082.493564	0.134429
1082.656447	0.134702
1082.819312	0.135575
1082.982158	0.134871
1083.144986	0.137089
1083.307796	0.133808
1083.470587	0.133107
1083.633361	0.134693
1083.796116	0.134529
1083.958853	0.138268
1084.121571	0.142129
1084.284272	0.140597
1084.446954	0.139120
1084.609618	0.136204
1084.772264	0.141325
1084.934892	0.140921
1085.097501	0.140353
1085.260092	0.138470
1085.422665	0.139030
1085.585220	0.131274
1085.747756	0.132879
1085.910274	0.132575
1086.072774	0.133733
1086.235256	0.130814
1086.397720	0.131205
1086.560165	0.130705
1086.722592	0.131051
1086.885001	0.126427
1087.047392	0.132155
1087.209764	0.131850
1087.372119	0.130550
1087.534455	0.129558
1087.696772	0.127122
1087.859072	0.131829
1088.021353	0.132583
1088.183616	0.136197
1088.345861	0.138092
1088.508088	0.131102
1088.670296	0.128012
1088.832486	0.128782
1088.994658	0.127700
1089.156812	0.132212
1089.318948	0.129702
1089.481065	0.128132
1089.643164	0.128243
1089.805245	0.126656
1089.967308	0.133465
1090.129352	0.136121
1090.291378	0.137499
1090.453386	0.139952
1090.615376	0.138317
1090.777347	0.140317
1090.939301	0.140952
1091.101236	0.141236
1091.263153	0.141169
1091.425051	0.139822
1091.586932	0.138886
1091.748794	0.142344
1091.910638	0.144643
1092.072463	0.142955
1092.234271	0.140609
1092.396060	0.140760
1092.557831	0.134864
1092.719584	0.137592
1092.881319	0.139449
1093.043035	0.140273
1093.204733	0.133541
1093.366413	0.134830
1093.528075	0.135663
1093.689718	0.134886
1093.851343	0.134598
1094.012950	0.139463
1094.174539	0.139658
1094.336110	0.138488
1094.497662	0.141689
1094.659196	0.141899
1094.820712	0.135155
1094.982210	0.136012
1095.143689	0.134541
1095.305151	0.134561
1095.466594	0.135842
1095.628018	0.133628
1095.789425	0.129222
1095.950813	0.128454
1096.112183	0.129915
1096.273535	0.131235
1096.434869	0.131997
1096.596184	0.134084
1096.757482	0.134020
1096.918761	0.137209
1097.080021	0.138140
1097.241264	0.141404
1097.402488	0.138428
1097.563694	0.140890
1097.724882	0.141004
1097.886052	0.138494
1098.047203	0.136942
1098.208336	0.141011
1098.369451	0.133848
1098.530548	0.133738
1098.691627	0.133912
1098.852687	0.136291
1099.013729	0.132377
1099.174753	0.131257
1099.335758	0.130203
1099.496746	0.131964
1099.657715	0.124997
1099.818666	0.127219
1099.979599	0.126350
1100.140513	0.133635
1100.301409	0.131895
1100.462287	0.138098
1100.623147	0.139285
1100.783989	0.141851
1100.944812	0.144459
1101.105617	0.147698
1101.266404	0.145917
1101.427173	0.151183
1101.587923	0.145061
1101.748656	0.146443
1101.909370	0.142510
1102.070066	0.141736
1102.230743	0.139862
1102.391403	0.138426
1102.552044	0.139703
1102.712667	0.142198
1102.873271	0.136823
1103.033858	0.135509
1103.194426	0.128851
1103.354976	0.131956
1103.515508	0.133249
1103.676021	0.133690
1103.836517	0.133321
1103.996994	0.132802
1104.157453	0.132350
1104.317893	0.136771
1104.478316	0.135408
1104.638720	0.143905
1104.799106	0.142071
1104.959474	0.145562
1105.119823	0.145784
1105.280155	0.143861
1105.440468	0.145286
1105.600763	0.150635
1105.761039	0.145052
1105.921298	0.143194
1106.081538	0.140530
1106.241760	0.143523
1106.401964	0.144049
1106.562149	0.141456
1106.722316	0.143908
1106.882465	0.144887
1107.042596	0.140046
1107.202709	0.142317
1107.362803	0.140760
1107.522879	0.139278
1107.682937	0.132962
1107.842977	0.133090
1108.002999	0.136871
1108.163002	0.138513
1108.322987	0.131282
1108.482954	0.131613
1108.642902	0.131447
1108.802833	0.137838
1108.962745	0.140020
1109.122639	0.141553
1109.282515	0.141658
1109.442372	0.145215
1109.602211	0.144605
1109.762032	0.148704
1109.921835	0.151349
1110.081620	0.153930
1110.241386	0.152695
1110.401134	0.147516
1110.560864	0.147608
1110.720576	0.145548
1110.880269	0.144736
1111.039945	0.139134
1111.199602	0.138128
1111.359240	0.134870
1111.518861	0.138459
1111.678463	0.141023
1111.838047	0.147041
1111.997613	0.149111
1112.157161	0.146117
1112.316690	0.144114
1112.476202	0.146589
1112.635695	0.148015
1112.795169	0.150269
1112.954626	0.141090
1113.114064	0.140749
1113.273484	0.142191
1113.432886	0.143471
1113.592270	0.147525
1113.751635	0.146650
1113.910983	0.149877
1114.070312	0.150641
1114.229622	0.149887
1114.388915	0.160225
1114.548189	0.156116
1114.707445	0.157703
1114.866683	0.159380
1115.025903	0.156120
1115.185104	0.156908
1115.344287	0.157011
1115.503452	0.156895
1115.662599	0.159732
1115.821727	0.160446
1115.980838	0.167693
1116.139930	0.167420
1116.299004	0.167774
1116.458059	0.172990
1116.617097	0.174170
1116.776116	0.172764
1116.935117	0.167106
1117.094099	0.162342
1117.253064	0.162043
1117.412010	0.156573
1117.570938	0.149981
1117.729848	0.146356
1117.888740	0.140943
1118.047613	0.139212
1118.206468	0.145066
1118.365305	0.154519
1118.524124	0.159008
1118.682924	0.146002
1118.841707	0.152744
1119.000471	0.156996
1119.159216	0.161809
1119.317944	0.162791
1119.476653	0.165059
1119.635344	0.160622
1119.794017	0.155464
1119.952672	0.149413
1120.111308	0.152242
1120.269927	0.143343
1120.428527	0.140791
1120.587108	0.138540
1120.745672	0.139141
1120.904217	0.137769
1121.062744	0.141760
1121.221253	0.137377
1121.379744	0.145001
1121.538216	0.149310
1121.696671	0.152081
1121.855107	0.157076
1122.013524	0.149420
1122.171924	0.152366
1122.330305	0.150124
1122.488668	0.143200
1122.647013	0.148970
1122.805340	0.144839
1122.963648	0.153969
1123.121938	0.162793
1123.280210	0.157956
1123.438464	0.169867
1123.596700	0.159371
1123.754917	0.161399
1123.913116	0.166484
1124.071297	0.164108
1124.229459	0.163540
1124.387604	0.158479
1124.545730	0.152367
1124.703838	0.156694
1124.861928	0.149885
1125.019999	0.157315
1125.178052	0.156709
1125.336088	0.146046
1125.494104	0.148118
1125.652103	0.150653
1125.810083	0.150598
1125.968045	0.148777
1126.125989	0.146146
1126.283915	0.143441
1126.441823	0.153405
1126.599712	0.150392
1126.757583	0.165147
1126.915436	0.170327
1127.073270	0.165644
1127.231087	0.167442
1127.388885	0.165708
1127.546665	0.164012
1127.704426	0.167880
1127.862170	0.159215
1128.019895	0.159567
1128.177602	0.159110
1128.335291	0.156262
1128.492961	0.160539
1128.650614	0.153060
1128.808248	0.150852
1128.965864	0.151879
1129.123461	0.153355
1129.281041	0.149576
1129.438602	0.151646
1129.596145	0.142585
1129.753670	0.143263
1129.911176	0.141065
1130.068665	0.145685
1130.226135	0.148346
1130.383587	0.153757
1130.541020	0.153677
1130.698436	0.149197
1130.855833	0.150626
1131.013212	0.157264
1131.170573	0.156526
1131.327915	0.160320
1131.485239	0.158170
1131.642545	0.154429
1131.799833	0.149717
1131.957103	0.154055
1132.114354	0.154425
1132.271588	0.163725
1132.428803	0.158611
1132.585999	0.159617
1132.743178	0.169017
1132.900338	0.175458
1133.057480	0.191094
1133.214604	0.184149
1133.371710	0.170392
1133.528797	0.180628
1133.685866	0.177872
1133.842917	0.176017
1133.999950	0.172329
1134.156964	0.164376
1134.313960	0.167450
1134.470938	0.152010
1134.627898	0.164151
1134.784840	0.169704
1134.941763	0.163307
1135.098668	0.160361
1135.255555	0.161073
1135.412424	0.169375
1135.569274	0.159570
1135.726107	0.148897
1135.882921	0.167356
1136.039716	0.162433
1136.196494	0.169056
1136.353253	0.174151
1136.509995	0.165688
1136.666717	0.170926
1136.823422	0.161019
1136.980109	0.168523
1137.136777	0.168768
1137.293427	0.156762
1137.450059	0.153717
1137.606672	0.152307
1137.763267	0.149737
1137.919844	0.152554
1138.076403	0.159483
1138.232944	0.162268
1138.389466	0.162396
1138.545971	0.162609
1138.702457	0.162604
1138.858924	0.171443
1139.015374	0.163362
1139.171805	0.174386
1139.328218	0.179885
1139.484613	0.170641
1139.640990	0.172946
1139.797348	0.174610
1139.953688	0.175220
1140.110010	0.172352
1140.266314	0.164718
1140.422600	0.174172
1140.578867	0.166989
1140.735116	0.162050
1140.891347	0.163549
1141.047559	0.166887
1141.203754	0.162296
1141.359930	0.155996
1141.516088	0.162317
1141.672228	0.163796
1141.828349	0.160302
1141.984452	0.161781
1142.140537	0.167474
1142.296604	0.168707
1142.452653	0.159921
1142.608683	0.164316
1142.764695	0.176970
1142.920689	0.180129
1143.076665	0.186216
1143.232622	0.182748
1143.388562	0.181025
1143.544483	0.180751
1143.700385	0.179481
1143.856270	0.180308
1144.012136	0.175056
1144.167985	0.173003
1144.323814	0.164628
1144.479626	0.170368
1144.635420	0.164143
1144.791195	0.169315
1144.946952	0.165704
1145.102691	0.178720
1145.258411	0.179404
1145.414113	0.172233
1145.569798	0.165612
1145.725463	0.165717
1145.881111	0.155761
1146.036741	0.171238
1146.192352	0.171894
1146.347945	0.175840
1146.503519	0.161012
1146.659076	0.152229
1146.814614	0.162007
1146.970134	0.169399
1147.125636	0.167477
1147.281120	0.169170
1147.436585	0.169067
1147.592032	0.164431
1147.747461	0.158690
1147.902872	0.161572
1148.058265	0.179080
1148.213639	0.172791
1148.368995	0.167229
1148.524333	0.167798
1148.679653	0.165943
1148.834954	0.162030
1148.990237	0.163306
1149.145502	0.176373
1149.300749	0.180148
1149.455977	0.189862
1149.611188	0.192315
1149.766380	0.184508
1149.921553	0.197599
1150.076709	0.199835
1150.231846	0.197552
1150.386966	0.197622
1150.542066	0.190468
1150.697149	0.185782
1150.852214	0.174897
1151.007260	0.175015
1151.162288	0.175429
1151.317298	0.177809
1151.472289	0.177376
1151.627263	0.176236
1151.782218	0.171649
1151.937155	0.177124
1152.092073	0.168463
1152.246974	0.163049
1152.401856	0.175888
1152.556720	0.191054
1152.711566	0.189117
1152.866393	0.186449
1153.021203	0.175235
1153.175994	0.182352
1153.330767	0.180657
1153.485521	0.186242
1153.640258	0.189502
1153.794976	0.178517
1153.949676	0.160642
1154.104358	0.147104
1154.259021	0.166385
1154.413667	0.182206
1154.568294	0.180036
1154.722903	0.185169
1154.877493	0.187485
1155.032066	0.183032
1155.186620	0.186226
1155.341156	0.202316
1155.495674	0.208055
1155.650173	0.183675
1155.804654	0.175901
1155.959118	0.162155
1156.113562	0.154358
1156.267989	0.155855
1156.422397	0.158236
1156.576788	0.161354
1156.731160	0.154893
1156.885513	0.158200
1157.039849	0.159112
1157.194166	0.177150
1157.348465	0.189315
1157.502746	0.188266
1157.657009	0.185956
1157.811253	0.199269
1157.965479	0.188536
1158.119687	0.199863
1158.273877	0.216849
1158.428048	0.231082
1158.582201	0.232827
1158.736337	0.232968
1158.890453	0.243046
1159.044552	0.257105
1159.198632	0.231967
1159.352694	0.252750
1159.506738	0.222301
1159.660764	0.199331
1159.814771	0.192096
1159.968761	0.176621
1160.122732	0.191693
1160.276685	0.181141
1160.430619	0.173391
1160.584535	0.188745
1160.738434	0.175866
1160.892313	0.198783
1161.046175	0.201132
1161.200019	0.183480
1161.353844	0.184614
1161.507651	0.174220
1161.661440	0.181984
1161.815210	0.175956
1161.968962	0.178637
1162.122697	0.177179
1162.276412	0.184379
1162.430110	0.167873
1162.583789	0.183508
1162.737451	0.192488
1162.891094	0.176344
1163.044718	0.165042
1163.198325	0.160633
1163.351913	0.155497
1163.505483	0.155338
1163.659035	0.143456
1163.812569	0.159364
1163.966084	0.157825
1164.119581	0.144823
1164.273060	0.137977
1164.426521	0.146952
1164.579964	0.154333
1164.733388	0.140550
1164.886794	0.153258
1165.040182	0.156305
1165.193551	0.148660
1165.346903	0.140876
1165.500236	0.138868
1165.653551	0.137512
1165.806848	0.138630
1165.960126	0.152113
1166.113386	0.155547
1166.266628	0.162781
1166.419852	0.143923
1166.573058	0.131545
1166.726245	0.134818
1166.879414	0.138562
1167.032565	0.164266
1167.185698	0.142939
1167.338812	0.114225
1167.491909	0.124988
1167.644987	0.099885
1167.798046	0.125946
1167.951088	0.172089
1168.104111	0.170688
1168.257117	0.171487
1168.410103	0.153157
1168.563072	0.150764
1168.716023	0.169733
1168.868955	0.164770
1169.021869	0.176220
1169.174765	0.184817
1169.327642	0.135181
1169.480501	0.100634
1169.633343	0.115738
1169.786165	0.141392
1169.938970	0.185909
1170.091757	0.208765
1170.244525	0.187010
1170.397275	0.153887
1170.550007	0.119228
1170.702720	0.155349
1170.855415	0.202916
1171.008092	0.181054
1171.160751	0.166162
1171.313392	0.135899
1171.466014	0.146053
1171.618619	0.168780
1171.771205	0.168780
1171.923772	0.168780
