sample name	sample
index	1278
start time	 04-29-2021  02:32:40 PM
880	0.505384
Peak Time (s)	90.535
Peak Height 	0.5054
calc peak height	90,93
Baseline Time (s)	9.038
Baseline Value 	-0.003917
subtract baseline	10,4
Abs	0.296034
Peak Time (s)	92.036
Peak Height 	0.296
calc peak height	90,93
Baseline Time (s)	9.536
Baseline Value 	0.003126
subtract baseline	10,3
PK_550	0.167350
Peak Time (s)	92.036
Peak Height 	0.1673
calc peak height	90,93
Baseline Time (s)	11.037
Baseline Value 	8.8799E-4
subtract baseline	10,2
PK_880	0.281933
Peak Time (s)	91.536
Peak Height 	0.2819
calc peak height	90,93
Baseline Time (s)	8.538
Baseline Value 	0.002312
subtract baseline	10,1


Time (s)	A880-A510	A880-A775	A880-A975	A880	I510	I775	I975	I880	
0.036000	-0.000455	-0.000734	-0.001035	0.000737	6311.990864	41377.025168	3855.827756	20967.968110
0.817500	-0.003228	-0.001246	-0.005607	0.005774	6252.365387	40889.772248	3835.847975	20760.349120
1.184500	-0.001818	-0.000666	-0.001411	0.002195	6290.335041	41254.375649	3851.979687	20907.629290
1.536500	-0.001214	-0.000402	-0.000159	0.000396	6308.778870	41436.609929	3858.390078	20982.128143
2.036500	0.000997	-0.000053	0.002430	0.000004	6328.868495	41502.196637	3864.694449	20998.367261
2.537000	-0.002271	-0.000324	-0.001678	-0.000163	6304.946257	41492.993873	3856.367512	21005.332277
3.045500	-0.001163	0.000080	0.003821	0.001321	6302.058333	41397.401145	3864.851851	20943.787253
3.537500	0.001007	0.000209	0.002480	0.000387	6325.986401	41491.537405	3863.988805	20982.503067
4.035500	-0.000199	0.000354	-0.002927	0.000513	6315.695905	41493.136074	3852.327853	20977.257067
4.535000	-0.000083	0.000193	0.002301	0.000773	6314.580707	41455.864376	3862.791793	20966.475718
5.035500	-0.001290	-0.000106	-0.001202	-0.000064	6311.737251	41503.607163	3857.162185	21001.224980
5.536000	-0.002976	-0.000612	0.002493	-0.000611	6302.973229	41507.233373	3866.137066	21023.961034
6.038500	-0.002677	0.000137	0.001222	-0.000223	6302.282449	41539.190927	3862.615456	21007.808878
6.536500	0.001627	0.000799	-0.000098	0.000099	6333.014457	41569.463093	3859.144402	20994.452989
7.036500	-0.000410	-0.000057	-0.001418	-0.000333	6320.589961	41531.682652	3857.270529	21012.363328
7.537000	-0.000079	-0.000248	-0.003787	-0.000624	6325.404271	41540.672590	3852.908026	21024.499984
8.037500	-0.001004	0.000006	-0.000411	-0.000431	6316.764462	41545.986697	3859.602116	21016.448484
8.538000	0.000000	-0.000204	0.001903	0.000116	6320.293065	41478.907303	3863.338761	20993.728285
9.038000	-0.000118	0.000326	-0.003985	0.000000	6320.280614	41536.221411	3851.187268	20998.547715
9.535500	0.000244	-0.000111	0.000000	-0.000501	6326.948927	41541.836747	3860.618056	21019.372322
10.036500	-0.001739	-0.000674	-0.000472	-0.001043	6315.816857	41539.948861	3860.765991	21041.908187
10.536000	0.000631	0.000306	0.001684	0.000071	6325.516132	41528.043953	3862.969852	20995.587300
11.036500	0.000662	0.000000	-0.001391	-0.000425	6329.594453	41544.939912	3857.523123	21016.192440
11.536500	-0.000019	0.001050	0.002424	0.000123	6320.092615	41589.498618	3864.428031	20993.429616
12.036500	0.001500	0.000169	-0.000279	-0.000258	6334.796916	41545.147281	3859.514584	21009.247243
12.537500	0.000803	-0.000599	0.000793	-0.000915	6334.486928	41535.299761	3863.172717	21036.583344
13.034500	-0.000296	-0.000659	-0.002545	-0.001780	6332.676997	41606.811255	3857.947391	21072.629171
13.537500	-0.004561	-0.000847	-0.004125	0.004377	6252.853888	41046.850073	3841.788481	20817.702436
14.035000	-0.001955	-0.000586	0.000521	0.001016	6298.316384	41365.483197	3858.516220	20956.406890
14.535500	-0.000886	0.000195	0.000214	0.001553	6302.402018	41386.941426	3856.736178	20934.148279
15.035500	-0.000080	0.000066	0.002428	-0.000497	6324.407357	41557.231981	3865.753595	21019.188530
15.536000	-0.003502	-0.001387	0.001195	0.003874	6264.687212	41043.516358	3853.921039	20838.359046
16.036500	0.000809	-0.000764	0.001285	-0.001154	6336.381791	41541.796463	3864.721044	21046.517711
16.536500	-0.000179	-0.000477	-0.000479	-0.000992	6327.474485	41552.955595	3860.642998	21039.800108
17.037000	-0.000177	-0.000532	0.007808	-0.004538	6355.043858	41864.144366	3885.992426	21187.983267
17.536500	-0.001350	-0.000802	-0.003584	0.001288	6300.873419	41322.368361	3849.333001	20945.133783
18.037500	-0.002202	0.000490	0.001553	0.000785	6298.196123	41481.123444	3861.180498	20965.962873
18.535500	-0.000351	-0.000065	-0.002206	0.000599	6313.866607	41448.489988	3853.658305	20973.708516
19.035500	-0.000684	0.000838	-0.000421	0.001252	6306.269415	41470.566423	3856.034218	20946.620700
19.536000	-0.002222	-0.000303	0.000108	0.002438	6285.386834	41264.945616	3854.654707	20897.593579
20.035500	-0.001644	-0.000749	-0.000067	0.000118	6307.612485	41430.519724	3859.169276	20993.665840
20.536500	0.001121	0.000099	0.002794	0.000898	6322.909490	41436.404392	3863.568961	20961.279439
21.036500	-0.000643	-0.000364	-0.006289	0.000591	6311.667782	41422.635860	3845.151415	20974.023851
21.536500	-0.003116	-0.000329	0.001407	0.002065	6281.402586	41295.519688	3858.170688	20912.971187
22.037000	-0.002808	-0.000634	-0.001172	0.000409	6296.433477	41414.938527	3856.228734	20981.577309
22.537000	-0.000824	0.000393	0.005295	0.000911	6307.810168	41461.361151	3868.860697	20960.754054
23.037500	-0.001828	-0.000127	-0.002069	0.000629	6302.264069	41440.275727	3853.880689	20972.428824
23.534500	-0.002847	-0.000610	-0.000129	0.001866	6284.978769	41288.345894	3855.358251	20921.218929
24.035500	-0.000882	0.000133	-0.002429	0.000512	6310.432423	41473.609676	3853.372195	20977.280439
24.535500	-0.000624	-0.000364	0.004786	0.000402	6313.274249	41439.362115	3868.860026	20981.859252
25.036000	0.000509	-0.000632	-0.008564	-0.000106	6325.944157	41460.681861	3841.880300	21002.962404
25.536500	0.000077	-0.000376	-0.000996	0.001885	6307.250617	41307.307956	3853.498871	20920.429167
26.036500	0.001581	0.000513	-0.004251	0.001059	6325.229563	41458.943372	3848.419380	20954.635654
26.537000	0.000198	-0.000249	-0.003578	0.000026	6322.522869	41482.864186	3851.985023	20997.475430
27.033500	-0.001313	0.000231	0.001803	-0.001639	6323.708276	41673.469467	3866.854966	21066.744437
27.537000	0.002453	0.000840	0.004908	-0.001290	6350.225941	41696.634380	3872.736722	21052.192182
28.038000	0.000038	-0.001381	-0.004141	-0.001554	6333.510765	41522.582812	3854.113678	21063.191647
28.535000	0.000451	0.001015	0.001013	0.000190	6323.202482	41580.479364	3861.297707	20990.639787
29.035500	-0.001205	-0.000042	-0.001324	-0.000343	6314.540390	41534.023324	3857.490813	21012.806380
29.536000	0.001172	-0.000131	0.001268	-0.000792	6336.399430	41565.980823	3863.918331	21031.487416
30.036000	0.000740	0.001139	0.004772	-0.000480	6330.624224	41651.030024	3870.712796	21018.474595
30.536500	-0.002057	-0.000235	0.000662	0.001131	6296.653295	41386.345029	3858.571665	20951.657550
31.036500	-0.001634	0.000112	-0.002467	0.001437	6297.544179	41389.865898	3851.354741	20938.952876
31.536500	0.001897	-0.000051	0.003732	-0.000785	6341.975470	41572.405381	3869.144329	21031.193077
32.037500	-0.000991	-0.000416	0.003515	-0.001687	6326.569964	41620.146996	3870.605278	21068.736950
32.540500	-0.001362	-0.000358	0.002044	-0.000045	6311.030957	41479.509907	3863.978890	21000.420233
33.038000	-0.000573	0.000769	0.000265	0.000142	6315.674610	41562.927774	3859.818425	20992.651731
33.536000	0.000400	0.000736	0.005116	-0.002599	6344.438778	41804.135073	3875.990710	21106.816045
34.036000	0.000266	0.000363	-0.001236	0.000975	6315.721153	41453.076502	3854.904823	20958.121156
34.536000	-0.002214	-0.000352	-0.000882	0.000400	6301.056873	41440.646939	3856.857450	20981.959091
35.036000	-0.002405	0.000186	0.000829	0.001089	6294.309309	41427.307006	3859.012097	20953.385442
35.537000	-0.000775	0.000092	0.000865	0.002516	6295.865823	41292.916477	3856.082227	20894.370468
36.037000	-0.000479	0.000388	-0.001828	0.001203	6308.221246	41435.100763	3853.183755	20948.663415
36.537500	-0.000409	-0.001030	0.004310	-0.000001	6318.038311	41416.056980	3868.704431	20998.571689
37.035000	-0.001106	0.000498	0.001950	0.001261	6302.951193	41439.643441	3861.015057	20946.247006
37.535000	-0.001151	0.000019	0.000105	0.002500	6293.105422	41287.924529	3854.518494	20895.029596
38.035500	0.002223	0.000224	0.004202	0.001221	6328.938062	41418.958545	3865.872835	20947.897560
38.535000	0.001536	-0.000155	0.007238	0.001163	6324.069798	41390.489541	3872.472473	20950.300702
39.036000	-0.002755	-0.000131	0.000655	0.001107	6291.489420	41397.579729	3858.606007	20952.621213
39.536000	-0.005062	-0.000921	-0.004871	0.002193	6265.615696	41232.083533	3844.769441	20907.702687
40.036500	-0.001325	-0.000038	0.001603	0.001062	6302.798372	41409.830397	3860.701078	20954.490034
40.536500	-0.001945	0.000106	-0.000300	0.001067	6297.999626	41422.161522	3856.678788	20954.288944
41.037000	-0.000651	-0.000938	0.001000	0.000344	6313.515412	41393.711928	3860.944739	20984.269704
41.534000	-0.003169	0.000409	0.000268	0.003197	6272.372747	41260.764263	3853.397293	20866.255099
42.040000	-0.000120	0.000160	0.004402	0.001477	6308.875365	41390.651792	3865.753663	20937.297359
42.535000	-0.000744	-0.000125	0.004574	0.001886	6300.932462	41329.307101	3865.249747	20920.382180
43.035500	-0.000396	-0.000070	0.002435	0.000902	6311.172611	41421.101279	3862.800814	20961.108012
43.536500	-0.001948	-0.000064	0.004064	0.002816	6284.586763	41252.703151	3862.197867	20881.959201
44.036000	0.000667	0.000400	0.001921	-0.000735	6332.036763	41608.086612	3865.184232	21029.101780
44.536500	-0.002346	0.000337	0.000147	0.003448	6276.725878	41232.331496	3852.616665	20855.904535
45.036500	-0.000185	0.000007	0.002916	-0.000069	6320.295091	41514.030114	3865.882371	21001.407901
45.536500	-0.002984	-0.000889	-0.001386	0.004571	6263.334804	41026.114457	3847.071576	20809.712572
46.037000	-0.000352	0.000333	0.002020	-0.000267	6320.532054	41560.527884	3864.399473	21009.635403
46.537500	-0.002536	-0.000050	0.004730	0.002737	6280.705185	41260.880370	3863.776851	20885.231010
47.037500	-0.000146	0.001338	0.001629	0.001621	6307.566584	41482.192587	3859.577553	20931.367624
47.541500	-0.001746	-0.000077	-0.001321	0.004378	6274.212273	41114.195650	3847.608853	20817.630032
48.037000	0.001667	-0.000105	0.007534	-0.000047	6334.452984	41502.082085	3875.702499	21000.500008
48.544500	-0.000276	-0.000538	0.004610	0.003157	6294.774193	41181.020892	3862.631378	20867.921295
49.036000	0.001822	-0.000457	0.005370	-0.000602	6339.966473	41520.177155	3872.253686	21023.583941
49.536500	-0.002370	-0.000113	-0.003811	0.004089	6271.665761	41136.435122	3843.035533	20829.540667
50.037000	-0.000867	-0.000271	0.001289	0.000457	6310.975323	41442.765924	3861.316935	20979.568222
50.537000	-0.002197	-0.001805	0.001186	0.003873	6274.628835	41006.992029	3853.904961	20838.419025
51.037000	-0.010810	-0.035147	0.013805	0.419546	4211.790933	16511.801079	3303.002551	9826.582835
51.537500	-0.024634	-0.031190	-0.002596	-0.082587	6800.104521	46345.942298	4044.956356	24776.224921
52.034000	-0.031862	-0.051592	-0.006386	-0.221450	8157.427971	59940.908958	4447.020681	32995.196649
52.535500	-0.018230	-0.031419	0.001912	-0.173029	7757.833311	56354.846288	4314.283134	29826.671402
53.035500	-0.007455	-0.023848	0.009514	-0.143269	7552.884532	53696.938522	4246.063502	28047.422901
53.535500	-0.004416	-0.022295	0.015955	-0.103439	7180.349696	49419.411497	4149.627006	25849.149330
54.036000	-0.002446	-0.018676	0.018327	-0.063265	6825.482580	45671.545766	4049.026896	23826.969286
54.536000	0.004948	-0.010011	0.019582	-0.041169	6697.029548	44371.910300	3997.196236	22791.958173
55.037000	0.023809	-0.000081	0.033063	-0.043310	6881.873879	45538.161483	4035.812729	22889.951986
55.537000	0.034285	0.008106	0.045404	-0.039752	6944.749049	45994.072491	4058.140399	22727.372631
56.040000	0.049252	0.015421	0.060569	-0.040646	7092.725733	46814.598949	4100.155734	22768.114464
56.535000	0.064519	0.024750	0.073918	-0.007733	6928.427857	44498.359232	4049.176260	21322.587336
57.035000	0.074486	0.032516	0.082896	0.042334	6578.973882	40646.287649	3949.302519	19323.363959
57.535500	0.088537	0.039598	0.094166	0.059151	6556.043617	39811.710621	3936.530436	18701.931276
58.035000	0.103479	0.048017	0.114883	0.098617	6358.956760	37271.580838	3894.545604	17334.678093
58.536000	0.110898	0.053748	0.120665	0.138541	6114.312342	34676.257853	3822.592563	16072.344365
59.036500	0.125861	0.059892	0.141623	0.162022	6053.173730	33436.407064	3817.498045	15382.340305
59.536500	0.133196	0.065095	0.154391	0.185353	5941.543139	32191.790334	3796.479102	14732.700748
60.036000	0.142230	0.070841	0.164505	0.212193	5822.032395	30807.542213	3764.229948	14027.301963
60.537500	0.151265	0.075338	0.171658	0.226703	5786.254993	30173.589172	3750.430806	13663.707038
61.038000	0.157305	0.074226	0.178059	0.237571	5755.075839	29434.053995	3742.167645	13399.223059
61.535500	0.164336	0.085933	0.183992	0.360759	5100.631049	23448.029802	3553.037909	10821.584250
62.035500	0.174526	0.100806	0.177788	0.336763	5275.420464	25363.141461	3578.555412	11268.064660
62.535500	0.182723	0.108783	0.188109	0.343334	5284.077863	25435.647444	3584.066383	11143.327969
63.039000	0.188431	0.111270	0.201696	0.346805	5296.051457	25384.907108	3599.179832	11078.218088
63.536500	0.191607	0.115608	0.199223	0.353685	5276.262582	25254.183769	3585.195624	10950.655168
64.036000	0.195032	0.118892	0.206381	0.360630	5257.614696	25067.307127	3585.509155	10823.913331
64.537000	0.196562	0.120051	0.198140	0.371815	5207.242680	24563.573278	3557.398226	10624.034057
65.037000	0.202242	0.119977	0.205995	0.370172	5245.349739	24641.655907	3570.985881	10653.077657
65.539500	0.205404	0.123300	0.212904	0.375795	5232.468758	24527.318959	3572.848789	10554.135282
66.036500	0.209089	0.123954	0.209556	0.377926	5240.591656	24454.161444	3564.950630	10516.971992
66.535000	0.204344	0.126228	0.208979	0.387060	5169.066301	24117.856556	3551.193936	10359.747198
67.035000	0.211893	0.128414	0.214371	0.384746	5219.653984	24337.845130	3562.083350	10399.252567
67.535500	0.213540	0.129415	0.219863	0.393568	5182.737422	23956.942095	3557.354503	10249.706663
68.039000	0.219747	0.130572	0.231927	0.391825	5223.683244	24097.382160	3577.205130	10279.025653
68.536500	0.217389	0.131910	0.221854	0.401225	5163.387096	23709.222291	3549.389021	10122.348836
69.036500	0.224311	0.133574	0.222212	0.398474	5212.872081	23920.910104	3553.747616	10167.854268
69.536500	0.220066	0.133603	0.226989	0.407410	5145.714236	23496.086801	3547.925058	10021.103760
70.037000	0.224188	0.137188	0.240641	0.406359	5171.828678	23716.131734	3568.761053	10038.210703
70.534000	0.226249	0.136980	0.230022	0.408847	5169.659548	23587.870028	3550.152210	9997.784717
71.034500	0.234439	0.140224	0.230796	0.414314	5183.518915	23482.717405	3543.624697	9909.775146
71.535000	0.230952	0.140193	0.228344	0.422550	5124.471467	23096.381298	3529.020879	9779.261136
72.035500	0.234891	0.140945	0.243464	0.419648	5158.739589	23266.261510	3553.857457	9824.972501
72.536000	0.232027	0.140235	0.233771	0.426981	5107.862618	22894.262738	3530.366496	9710.063029
73.035500	0.239247	0.144014	0.245872	0.425454	5151.429213	23138.876538	3549.095182	9733.829522
73.536500	0.237340	0.142783	0.248785	0.432995	5104.404323	22736.023906	3542.668179	9617.258094
74.036500	0.242289	0.144890	0.252954	0.430586	5140.937427	22942.411198	3551.823771	9654.283890
74.537000	0.237713	0.146534	0.250117	0.438974	5076.984312	22635.039416	3536.284402	9526.264225
75.037000	0.245882	0.147644	0.254822	0.436750	5128.099826	22786.397150	3545.828714	9559.962740
75.538000	0.246346	0.148727	0.254567	0.439257	5117.955481	22721.579655	3542.004984	9521.984355
76.035000	0.246798	0.148248	0.259900	0.441016	5111.492213	22620.231607	3546.958333	9495.483200
76.535500	0.244594	0.147764	0.248827	0.447874	5067.193830	22291.193660	3522.522819	9393.116629
77.035500	0.254039	0.150264	0.260500	0.447145	5116.989545	22435.189054	3539.315023	9403.919846
77.536000	0.252025	0.149866	0.264262	0.448595	5099.907166	22352.628494	3542.499519	9382.450218
78.036000	0.251800	0.149983	0.260993	0.450753	5088.233974	22261.902177	3535.051999	9350.632073
78.536500	0.252550	0.150335	0.267162	0.459553	5049.262465	21890.663573	3531.474565	9222.477289
79.037000	0.257573	0.151890	0.270500	0.456839	5086.701522	22077.362198	3539.735986	9261.728928
79.540000	0.255654	0.152570	0.265607	0.459682	5063.583357	21982.559137	3529.196993	9220.626278
80.035000	0.259119	0.152950	0.270644	0.461543	5071.338507	21917.886333	3533.500659	9193.860235
80.535000	0.262367	0.154691	0.277078	0.464200	5074.205828	21878.049401	3538.660986	9155.855768
81.035500	0.262208	0.154019	0.269974	0.465799	5065.693147	21779.550988	3526.840084	9133.097457
81.535500	0.263842	0.153636	0.273779	0.466618	5069.637226	21727.627929	3530.868760	9121.466902
82.036000	0.265073	0.156291	0.277029	0.470505	5056.811533	21674.531759	3530.005489	9066.578028
82.536000	0.264174	0.157750	0.273313	0.478173	5015.980635	21409.388942	3514.815939	8959.749416
83.036500	0.266015	0.157859	0.284957	0.475618	5036.831200	21522.708238	3533.824777	8995.143424
83.536500	0.263702	0.159511	0.281382	0.485151	4981.119415	21189.469070	3516.254356	8864.151436
84.036000	0.270027	0.159278	0.277231	0.480529	5032.550896	21374.301269	3516.875997	8927.301112
84.537500	0.267164	0.159237	0.268156	0.488017	4983.885942	21058.369282	3495.395898	8825.330247
85.034500	0.271868	0.161256	0.278767	0.486669	5012.194910	21198.985716	3510.822637	8843.555019
85.535000	0.270226	0.162143	0.276669	0.494979	4965.850820	20890.458750	3497.373536	8732.097238
86.035000	0.277101	0.161878	0.281993	0.490416	5019.208341	21068.456305	3510.141419	8793.029280
86.535500	0.273311	0.161797	0.290677	0.491625	4995.715413	21014.840826	3519.990690	8776.819491
87.036000	0.274553	0.160483	0.288042	0.492571	4997.102654	20921.311309	3515.251929	8764.177507
87.536000	0.275138	0.164793	0.290718	0.497235	4978.114887	20906.720371	3512.636865	8702.197848
88.036500	0.278029	0.163585	0.293328	0.497144	4991.973513	20860.667349	3516.191990	8703.396169
88.537000	0.276784	0.164601	0.299703	0.498889	4978.079807	20830.719191	3522.337685	8680.377118
89.039500	0.279521	0.165211	0.288951	0.499630	4987.347103	20825.345611	3507.202461	8670.631385
89.537500	0.281806	0.167470	0.296776	0.501665	4988.509536	20834.513346	3514.776347	8643.938197
90.035000	0.278498	0.164809	0.289063	0.499546	4982.983596	20812.308170	3507.457603	8671.737933
90.535500	0.278049	0.165003	0.294920	0.505384	4953.994916	20582.201536	3507.482098	8595.491934
91.036000	0.280118	0.166312	0.295534	0.500711	4985.095758	20826.152965	3514.398574	8656.441902
91.536000	0.281933	0.167332	0.294660	0.500347	4995.246922	20883.085863	3513.726358	8661.208900
92.036000	0.281178	0.167350	0.296034	0.500963	4988.854753	20858.455694	3514.724120	8653.136824
92.536500	0.278128	0.166986	0.287085	0.503142	4964.650689	20754.173194	3500.257428	8624.658080
93.036500	0.277827	0.168168	0.297320	0.500238	4976.662822	20922.035679	3517.379378	8662.644919
93.537000	0.285285	0.170450	0.300174	0.501073	5007.556889	20981.897279	3520.056585	8651.697917
94.037500	0.286793	0.170848	0.296271	0.500296	5018.319335	21030.594876	3515.915726	8661.879308
94.534500	0.283033	0.169714	0.287159	0.503112	4987.486929	20867.309731	3500.391385	8625.046812
95.035000	0.283257	0.169922	0.299160	0.498619	5009.559216	21061.844758	3521.973441	8683.940318
95.535500	0.287800	0.170292	0.290507	0.499060	5028.948872	21058.920470	3509.972741	8678.133495
96.035500	0.284722	0.169125	0.292167	0.497324	5022.584520	21082.588725	3514.424721	8701.027862
