sample name	sample
index	127
start time	 02-15-2021  01:07:29 PM
880	0.374036
Peak Time (s)	92.035
Peak Height 	0.374
calc peak height	90,93
Baseline Time (s)	11.035
Baseline Value 	-0.00428
subtract baseline	10,4
Abs	0.245215
Peak Time (s)	91.534
Peak Height 	0.2452
calc peak height	90,93
Baseline Time (s)	9.037
Baseline Value 	0.004355
subtract baseline	10,3
PK_550	0.123753
Peak Time (s)	90.537
Peak Height 	0.1238
calc peak height	90,93
Baseline Time (s)	9.537
Baseline Value 	1.5814E-4
subtract baseline	10,2
PK_880	0.232667
Peak Time (s)	92.535
Peak Height 	0.2327
calc peak height	90,93
Baseline Time (s)	11.035
Baseline Value 	0.001912
subtract baseline	10,1


Time (s)	A880-A510	A880-A775	A880-A975	A880	I510	I775	I975	I880	
0.037000	0.001654	0.001301	-0.012531	0.003190	4300.508107	15967.158427	3257.364097	8995.035948
0.537000	-0.001440	-0.000232	-0.008972	0.002995	4292.008371	15927.458569	3259.803650	8997.734361
1.037500	0.001714	-0.000528	0.000581	0.002756	4301.965162	15925.771643	3266.266783	9001.039378
1.535000	-0.003677	-0.000472	0.005161	0.002942	4285.642536	15921.904318	3269.214762	8998.467245
2.035000	0.000929	-0.000161	-0.001607	0.000531	4306.212312	16002.804356	3266.291192	9031.852679
2.538500	-0.003852	0.001532	0.015213	0.001456	4289.458203	16025.731596	3277.098565	9019.016706
3.038500	-0.003693	0.000240	0.001847	-0.001354	4298.148408	16071.140741	3269.877423	9058.085997
3.536500	0.003189	-0.001967	0.003815	-0.000288	4315.345465	15973.418903	3270.487875	9043.243673
4.036500	-0.004356	0.000893	-0.001109	0.000839	4289.788844	16025.088690	3266.418471	9027.581471
4.537000	0.002157	0.000649	0.001024	0.000710	4309.315015	16021.644304	3267.932921	9029.365614
5.037000	0.000569	-0.000214	0.007604	0.000160	4306.244873	16012.296355	3272.759283	9037.006064
5.537500	0.001307	-0.000821	0.002560	-0.000472	4310.300022	16013.047129	3269.763606	9045.796796
6.035000	-0.002655	0.000669	0.005434	0.001380	4293.176436	16002.238959	3270.454670	9020.074550
6.535000	0.005297	0.001540	-0.001668	0.002062	4314.625831	16007.892783	3265.230480	9010.632481
7.035500	-0.000571	0.000996	0.003745	0.001502	4298.930347	16008.347877	3269.230908	9018.379476
7.535500	0.002694	0.001609	0.000337	0.001837	4307.572181	16016.663580	3266.717801	9013.751422
8.036000	0.000805	0.001500	0.000113	0.000345	4306.395914	16058.007627	3267.566802	9034.438170
8.536500	0.000800	0.000710	-0.001912	-0.000479	4308.821276	16059.040368	3266.762437	9045.902951
9.036500	-0.001892	0.000348	0.000000	0.000267	4298.677771	16025.867314	3267.543133	9035.521133
9.537000	-0.002610	0.000000	0.007468	0.000177	4296.834934	16018.179887	3272.654624	9036.774262
10.037000	-0.002615	-0.000950	0.005182	-0.000571	4299.016762	16012.148991	3271.607579	9047.182369
10.535000	0.000065	-0.000379	-0.003434	-0.000246	4305.954697	16019.497872	3265.591487	9042.655476
11.035000	0.000000	-0.000045	0.006016	0.000000	4305.036638	16022.128823	3271.786464	9039.233382
11.535500	0.001708	0.001895	-0.006592	0.001378	4306.010380	16038.897230	3262.424274	9020.101892
12.035500	-0.007922	-0.001217	0.002903	0.003363	4272.145679	15887.390007	3267.414133	8992.657803
12.539000	-0.002939	0.001971	0.001892	0.001115	4293.123816	16049.065204	3268.244422	9023.754796
13.036000	0.000341	0.000250	0.012264	-0.002004	4311.981787	16090.957528	3277.453272	9067.166554
13.536000	0.002359	-0.000047	0.012050	0.000127	4311.644920	16018.278143	3275.831907	9037.473365
14.058500	-0.006538	0.000631	-0.003332	0.005574	4269.768589	15876.673078	3261.807883	8962.222947
14.536500	-0.004129	0.000776	0.008088	0.002662	4285.143214	15967.284844	3271.385487	9002.340396
15.037000	0.002202	-0.001035	0.005787	0.000646	4309.638492	15973.364758	3271.191643	9030.257957
15.548500	-0.001446	-0.000231	-0.002457	-0.001042	4303.844709	16047.718216	3266.774899	9053.740849
16.035000	-0.007011	-0.001413	0.004479	0.005024	4269.990581	15832.623207	3267.356656	8969.780101
16.535500	0.002940	0.002187	0.000299	0.001814	4308.366966	16034.616083	3266.708178	9014.070607
17.035500	0.001488	0.000511	-0.004205	-0.000593	4311.196637	16056.485570	3265.308992	9047.486095
17.536500	-0.002579	0.000351	0.000337	-0.000897	4300.079735	16060.778381	3268.551188	9051.712844
18.036000	-0.002952	-0.000745	-0.000223	0.002400	4289.330037	15929.865233	3265.967677	9005.957410
18.536500	-0.002157	0.001310	0.006257	0.002088	4292.562635	16000.238956	3270.532355	9010.272657
19.037000	-0.001594	0.000721	0.009725	0.002056	4294.305518	15983.675391	3272.913157	9010.718511
19.537000	0.000130	0.001573	-0.009089	0.002365	4298.454049	15999.841340	3260.138732	9006.438489
20.037500	-0.003495	-0.000160	0.004287	0.001885	4289.251774	15962.546480	3269.338202	9013.085467
20.535500	-0.002867	-0.000351	0.016372	0.001241	4292.964918	15976.003016	3278.052225	9022.000432
21.035500	-0.001726	-0.000404	0.021334	0.001105	4296.703261	15978.454944	3281.613582	9023.882726
21.535500	0.002691	-0.001115	-0.003490	0.000217	4312.360404	15983.730250	3265.245508	9036.210612
22.038500	-0.001847	-0.000562	-0.004422	0.000713	4297.499577	15985.433345	3264.297184	9029.321697
22.536500	-0.005859	-0.000388	-0.000300	0.000336	4286.873251	16001.836179	3267.295495	9034.556538
23.036500	-0.002372	-0.000673	-0.004917	0.000839	4295.591225	15978.395269	3263.886205	9027.581471
23.539500	-0.002726	-0.000392	-0.006520	-0.000015	4297.057371	16012.217894	3263.390862	9039.446624
24.036500	-0.003624	-0.000999	-0.001161	0.000145	4293.957386	15989.356847	3266.847472	9037.221140
24.537500	-0.002538	0.001050	0.022808	0.002681	4289.718931	15974.843382	3281.542282	9002.067083
25.034500	-0.004815	-0.000003	0.000468	0.000918	4288.220867	15995.976762	3267.420743	9026.484822
25.538000	-0.000563	0.000204	0.005108	0.000332	4302.397338	16019.645145	3270.944384	9034.623497
26.035500	0.002018	0.002893	0.007827	0.004811	4296.815714	15966.311009	3269.752331	8972.707728
26.537000	-0.000808	0.000303	0.005981	0.001414	4298.491995	15990.308197	3270.802009	9019.602704
27.036000	0.000046	-0.000640	-0.008120	0.000996	4302.236464	15974.697776	3261.670466	9025.402432
27.536000	-0.001963	0.000668	0.000289	0.000804	4296.891655	16019.384418	3267.377089	9028.062642
28.036500	-0.004485	0.000256	-0.002902	0.004391	4279.093347	15900.553975	3262.870042	8978.481945
28.536500	-0.002621	0.000862	0.002659	0.000205	4296.720455	16043.104584	3269.373215	9036.384025
29.037500	-0.003254	-0.001049	-0.007650	0.001380	4291.424709	15951.106481	3261.726445	9020.070127
29.534500	-0.003324	0.001271	-0.006237	0.000288	4294.417527	16052.874393	3263.378003	9035.234676
30.035000	-0.008972	-0.001184	-0.006135	0.004790	4265.037878	15846.255050	3260.484506	8972.993375
30.535000	-0.000065	0.001756	-0.007130	0.000493	4303.388274	16061.222012	3262.652373	9032.376865
31.035500	-0.005079	0.000240	0.002404	0.001895	4284.607874	15974.132983	3268.063952	9012.940085
31.552000	-0.005947	-0.000044	-0.000292	-0.000527	4289.133441	16037.910119	3267.880178	9046.569296
32.036000	-0.004283	-0.001804	0.011779	0.002706	4284.565827	15889.489198	3273.873049	9001.731684
32.537000	-0.000771	-0.000269	0.009268	0.000245	4302.041053	16008.138806	3273.838794	9035.831656
33.045000	-0.009929	-0.000959	0.006726	0.001354	4272.149137	15954.572436	3271.348150	9020.432961
33.537000	-0.003607	0.001779	0.004236	0.001734	4289.363339	16024.814304	3269.405662	9015.173061
34.037000	-0.004040	0.000752	0.002511	0.006282	4274.918037	15859.365972	3265.203059	8952.515746
34.537500	-0.005105	-0.000169	0.001874	-0.000775	4292.315494	16041.566963	3269.504762	9050.020085
35.035000	-0.004541	-0.000174	0.005543	0.002466	4284.513949	15944.866311	3269.793953	9005.048975
35.535500	-0.005557	0.001276	-0.013898	0.002819	4280.543584	15977.453807	3256.720285	9000.165236
36.038000	-0.004147	0.000772	0.008943	0.004536	4279.651317	15911.539339	3270.693442	8976.488142
36.536000	-0.008239	-0.001581	-0.005679	0.000218	4280.305979	15969.833818	3263.792734	9036.201585
37.036000	0.002625	0.000269	0.005254	0.003208	4303.317521	15935.999677	3269.098001	8994.795813
37.536500	-0.005129	0.000401	0.002051	0.003151	4280.819827	15941.588828	3266.984666	8995.574691
38.037000	0.001124	-0.000248	0.003756	0.001999	4302.455294	15956.533290	3268.903485	9011.506715
38.537000	-0.000401	0.001596	-0.003298	0.002990	4295.063592	15981.896985	3263.534355	8997.801168
39.034500	-0.001537	-0.000281	-0.011043	0.001790	4295.251344	15961.751833	3259.238883	9014.398215
39.535000	-0.001026	-0.000525	0.003713	0.001770	4296.807364	15955.086893	3269.028578	9014.672490
40.035000	-0.002494	0.001015	0.013460	0.001676	4292.783095	16003.745580	3275.736112	9015.973026
40.535500	-0.006323	0.000054	0.004032	0.001779	4281.337084	15972.052450	3269.237673	9014.554092
41.035500	-0.001798	-0.001002	-0.004982	0.000294	4298.874762	15984.837643	3264.204092	9035.151113
41.536000	-0.003185	-0.000673	0.007167	0.000732	4293.523975	15981.578599	3272.071369	9029.062041
42.036500	-0.002385	0.001498	0.011495	0.004702	4284.283507	15928.137346	3272.315770	8974.214166
42.536500	-0.004478	-0.000358	0.003464	0.002003	4286.043832	15953.141603	3268.703857	9011.446645
43.037000	-0.004067	-0.000412	-0.007083	0.001727	4288.043787	15959.755603	3261.871522	9015.275367
43.537500	-0.005883	0.000088	-0.006679	0.001349	4283.858941	15985.832279	3262.385509	9020.499439
44.035000	-0.001159	-0.000448	0.002267	0.002900	4293.106968	15923.841862	3267.297750	8999.042748
44.535000	-0.006073	0.000729	-0.002830	0.002409	4280.237301	15973.408173	3264.228811	9005.837660
45.035500	-0.008018	-0.001113	-0.005456	0.001666	4276.760231	15940.733609	3262.983567	9016.119913
45.538500	-0.004523	0.000026	-0.001883	-0.001677	4296.661461	16074.408392	3267.584084	9062.591413
46.036000	-0.005954	0.000276	-0.001544	0.005394	4271.963164	15871.501410	3263.105044	8964.698701
46.536000	0.000282	0.000419	-0.003784	0.000807	4303.488227	16011.863216	3264.658191	9028.020558
47.036500	-0.003161	0.000038	-0.003957	-0.000078	4295.963913	16026.920307	3265.131604	9040.313549
47.537000	-0.004750	0.000471	0.001173	0.000935	4288.361039	16009.606461	3267.881899	9026.250193
48.037000	-0.005762	-0.001146	-0.001556	0.003753	4277.247694	15877.988994	3264.182523	8987.280230
48.545500	-0.006455	-0.000430	-0.004260	-0.000196	4286.689254	16016.483238	3265.008612	9041.960856
49.037500	-0.004441	-0.001681	0.018981	0.003239	4282.561771	15877.355536	3278.477026	8994.371886
49.535000	-0.003193	0.001463	-0.003224	0.001318	4291.786379	16027.798798	3264.691172	9020.937052
50.049500	-0.007296	0.000727	0.001544	0.005535	4267.705144	15880.670757	3265.056845	8962.760575
50.535500	-0.004597	0.000057	-0.008620	0.000152	4291.091547	16020.614933	3261.896620	9037.117482
51.036000	-0.006498	-0.000812	0.000434	0.005197	4270.966546	15845.243000	3264.544890	8967.409747
51.536500	-0.003606	0.000052	0.016247	-0.003037	4303.358431	16116.035101	3280.950766	9081.607544
52.037000	-0.002251	0.000659	-0.008705	0.003000	4289.625253	15953.743603	3259.974427	8997.663759
52.537000	-0.002132	0.001118	-0.001598	-0.001099	4301.990410	16089.825873	3267.387159	9054.529053
53.037000	-0.052519	-0.030172	0.000258	0.334976	3548.132257	8648.105658	3111.172561	5792.980969
53.535000	-0.023279	-0.013708	-0.020450	0.068392	4061.024648	13789.338448	3213.822142	8159.400559
54.034000	0.004647	-0.006147	0.014787	-0.097277	4644.226452	19051.708937	3353.492621	10555.234970
54.535000	0.018056	-0.001621	0.011174	-0.044173	4502.591343	17358.632455	3307.321848	9685.736973
55.038000	0.007567	-0.000289	0.019857	0.028799	4243.855437	15183.193212	3261.784903	8651.801697
55.536000	0.031415	0.009241	0.036267	0.016337	4350.339248	15813.265012	3281.404417	8816.303925
56.036000	0.040414	0.013188	0.059989	0.035647	4319.189986	15369.772910	3284.518887	8563.394067
56.536500	0.065808	0.020589	0.071151	0.076727	4273.197041	14450.705486	3264.005290	8061.334854
57.036500	0.081615	0.029686	0.097261	0.120174	4196.093670	13583.940976	3252.749154	7579.569685
57.536500	0.110686	0.043243	0.119306	0.153794	4183.865770	13108.519519	3245.479779	7238.481173
58.037500	0.121736	0.053460	0.147506	0.195837	4103.889939	12397.992485	3237.037802	6847.470823
58.537500	0.139515	0.064133	0.155835	0.235662	4050.377077	11791.301389	3218.802378	6510.416066
59.035000	0.148766	0.068712	0.166278	0.260614	4013.889627	11390.848427	3210.837343	6314.456088
59.536000	0.165113	0.077960	0.181106	0.272248	4024.704841	11345.165884	3212.568170	6226.867014
60.035500	0.175302	0.087964	0.193300	0.289048	4009.567474	11216.418744	3210.076254	6104.452935
60.535500	0.181981	0.093480	0.198491	0.302571	3994.135980	11067.281967	3205.635239	6009.295456
61.036500	0.195092	0.099240	0.219199	0.320316	3983.825918	10849.147148	3207.204532	5888.847540
61.536500	0.204940	0.107852	0.213682	0.334775	3973.677274	10744.902221	3196.827521	5794.279099
62.036500	0.208758	0.110246	0.215888	0.347468	3954.439747	10564.618303	3191.567492	5713.810291
62.540000	0.216873	0.112001	0.223585	0.366809	3930.664301	10266.544537	3185.874847	5595.639206
63.034500	0.215556	0.117444	0.209117	0.370937	3919.352038	10288.407798	3177.093432	5571.090047
63.534000	0.231081	0.124130	0.244647	0.368024	3958.238170	10450.105225	3195.671083	5588.387160
64.035500	0.226771	0.121189	0.226354	0.356165	3974.643357	10603.584745	3192.446393	5660.022519
64.538500	0.231286	0.122047	0.232723	0.354236	3988.872349	10652.189727	3196.614673	5671.862705
65.036000	0.227812	0.124674	0.220371	0.356385	3976.444789	10660.570140	3189.381963	5658.676922
65.549500	0.228736	0.126447	0.218015	0.352742	3986.524756	10756.023230	3190.013829	5681.062203
66.036000	0.228566	0.123744	0.244101	0.349386	3993.620798	10767.610740	3204.999465	5701.854746
66.537000	0.232373	0.127314	0.214328	0.351307	3997.848630	10796.961201	3188.909152	5689.935748
67.037000	0.222559	0.124057	0.227601	0.354035	3970.089874	10690.966837	3194.132671	5673.095740
67.537500	0.228327	0.125018	0.227380	0.351331	3988.752484	10755.699095	3195.381599	5689.787991
68.037500	0.230044	0.125420	0.243396	0.351711	3991.728405	10756.079536	3203.410187	5687.431896
68.535000	0.225435	0.122847	0.226861	0.350548	3984.072664	10731.129991	3195.514661	5694.639216
69.038000	0.234162	0.123931	0.232427	0.351375	4001.719930	10735.679865	3197.919356	5689.516725
69.536000	0.230382	0.125950	0.240093	0.355765	3983.474673	10693.848296	3199.596838	5662.474330
70.035500	0.231950	0.126790	0.237185	0.361924	3973.372275	10600.829244	3194.984597	5624.992665
70.536500	0.224989	0.127167	0.239027	0.355958	3971.195833	10711.865015	3198.950392	5661.287380
71.035500	0.228623	0.127738	0.232909	0.357263	3976.295724	10698.950384	3195.178666	5653.308102
71.537000	0.225634	0.127082	0.254122	0.357750	3968.695914	10678.862800	3205.874166	5650.336948
72.037000	0.226613	0.126206	0.224512	0.364798	3955.566952	10540.974750	3187.296807	5607.681805
72.537500	0.232591	0.127295	0.227147	0.357590	3984.324400	10685.401013	3192.131966	5651.308944
73.037500	0.229492	0.125914	0.240348	0.359236	3973.875550	10632.397733	3197.949704	5641.284032
73.534500	0.224988	0.126444	0.215978	0.358973	3964.633057	10646.234490	3185.985222	5642.883719
74.035000	0.231890	0.126706	0.223553	0.367434	3961.256186	10504.218443	3185.558010	5591.904244
74.536000	0.230591	0.128009	0.240051	0.363487	3966.997498	10594.855660	3195.641406	5615.563772
75.035000	0.227459	0.126306	0.230073	0.367238	3952.148727	10500.733152	3188.817868	5593.074833
75.536000	0.226578	0.128083	0.242151	0.363452	3958.387334	10596.753562	3196.722190	5615.774937
76.036500	0.226414	0.125583	0.238318	0.367663	3949.009066	10481.072171	3192.678331	5590.541263
76.537000	0.235450	0.129909	0.234138	0.364890	3974.540983	10603.490079	3191.978695	5607.129856
77.037000	0.226210	0.125400	0.221554	0.367211	3949.538626	10485.667473	3184.704207	5593.236667
77.535000	0.233729	0.127583	0.245200	0.363669	3973.445993	10584.304516	3198.163602	5614.467665
78.034500	0.228398	0.126596	0.234287	0.364248	3960.595052	10557.200226	3192.371186	5610.984026
78.538000	0.233897	0.127774	0.249873	0.364783	3971.377557	10568.311658	3199.988347	5607.769882
79.034500	0.228492	0.126405	0.237901	0.367110	3954.636788	10504.620673	3192.745723	5593.839062
79.536000	0.233897	0.126981	0.237727	0.364696	3971.567582	10556.111180	3193.864893	5608.294938
80.036500	0.233643	0.129269	0.244063	0.368112	3963.581546	10536.645666	3195.332161	5587.862883
80.536500	0.233707	0.127997	0.237701	0.366821	3966.523375	10536.962569	3192.789825	5595.564426
81.037000	0.233160	0.130067	0.235525	0.367984	3962.814776	10552.616990	3191.132328	5588.625607
81.537500	0.231488	0.127477	0.249893	0.366059	3963.363457	10541.155806	3199.342969	5600.126544
82.034500	0.234140	0.127039	0.235569	0.365818	3969.649991	10537.756208	3192.228432	5601.569392
82.535000	0.228760	0.127035	0.246613	0.365115	3959.507325	10549.820308	3198.146853	5605.782906
83.034500	0.234259	0.124770	0.232938	0.365549	3970.495221	10503.363517	3191.057413	5603.178015
83.535500	0.228416	0.126734	0.250423	0.367046	3954.612874	10511.382203	3199.108397	5594.225236
84.035500	0.233124	0.126602	0.225594	0.365895	3967.270529	10528.895433	3187.289819	5601.108255
84.536000	0.232373	0.127252	0.235711	0.368071	3960.922828	10502.669085	3191.181542	5588.107348
85.036500	0.226661	0.124275	0.233723	0.368796	3947.120972	10439.427792	3189.843654	5583.790688
85.536500	0.234725	0.126729	0.245079	0.367991	3966.193968	10495.086761	3195.906395	5588.587976
86.037000	0.234015	0.124397	0.250193	0.365466	3970.145459	10498.384496	3199.802094	5603.677654
86.537000	0.231936	0.125162	0.238662	0.366609	3963.141267	10491.906325	3193.375557	5596.831273
87.034500	0.232477	0.123814	0.248540	0.370027	3956.931168	10410.721061	3196.627669	5576.481757
87.535000	0.233358	0.123814	0.242764	0.366552	3966.350692	10469.827125	3195.464087	5597.176387
88.038000	0.231237	0.123803	0.248479	0.367867	3958.912497	10447.218949	3197.694630	5589.322365
88.536000	0.236597	0.127038	0.241677	0.369279	3967.461196	10478.319984	3193.547833	5580.921146
89.035000	0.228228	0.123230	0.251186	0.369192	3949.616642	10414.973203	3198.400050	5581.438053
89.535500	0.230679	0.123315	0.225665	0.366237	3961.227085	10466.695413	3187.157961	5599.058803
90.036000	0.227501	0.123287	0.218635	0.368687	3949.144940	10424.511108	3182.606881	5584.444340
90.536500	0.229368	0.123753	0.231743	0.368286	3953.995367	10439.236848	3189.122827	5586.830397
91.037000	0.228776	0.122300	0.226072	0.366603	3956.334956	10443.149144	3187.177567	5596.867429
91.534000	0.229592	0.122046	0.245215	0.367290	3956.612830	10427.143396	3196.329767	5592.765242
92.034500	0.226180	0.121318	0.233636	0.374036	3935.023856	10301.342297	3187.241654	5552.814950
92.535500	0.232667	0.118190	0.235532	0.365966	3966.121190	10384.285440	3192.136321	5600.681441
93.035500	0.228816	0.119542	0.226619	0.367736	3953.989340	10377.241286	3186.893799	5590.107651
93.535500	0.229850	0.120613	0.239939	0.368317	3954.961747	10385.496325	3193.160075	5586.642572
94.035500	0.228165	0.120877	0.232644	0.373080	3941.223332	10309.936578	3187.224079	5558.440059
94.536000	0.233990	0.122596	0.230743	0.369402	3961.543941	10400.684667	3188.088623	5580.194188
95.036500	0.225591	0.120252	0.221722	0.370405	3941.436628	10344.282266	3183.257751	5574.243427
95.612000	0.226927	0.120803	0.243000	0.367573	3950.294180	10401.281998	3195.067998	5591.075523
96.034000	0.232217	0.121753	0.232585	0.376044	3943.526013	10275.116956	3185.761322	5541.040189
96.540500	0.229388	0.119974	0.230772	0.368990	3952.527344	10363.373620	3188.303658	5582.638269
97.035500	0.227178	0.120932	0.222032	0.371160	3943.197842	10343.010534	3183.046108	5569.772754
97.535000	0.230407	0.118182	0.240479	0.367450	3958.023737	10359.147241	3193.863775	5591.812890
98.035500	0.229558	0.120989	0.231182	0.376698	3936.528590	10251.572390	3184.771754	5537.217302
98.536500	0.230018	0.120957	0.234105	0.370798	3950.010181	10349.515146	3189.049204	5571.912269
99.035500	0.229689	0.118871	0.240961	0.370867	3949.160157	10313.390265	3192.398762	5571.504075
