sample name	sample
index	1280
start time	 04-29-2021  02:37:23 PM
880	0.423185
Peak Time (s)	92.535
Peak Height 	0.4232
calc peak height	90,93
Baseline Time (s)	10.037
Baseline Value 	-0.003867
subtract baseline	10,4
Abs	0.302648
Peak Time (s)	91.535
Peak Height 	0.3026
calc peak height	90,93
Baseline Time (s)	11.535
Baseline Value 	0.002405
subtract baseline	10,3
PK_550	0.168435
Peak Time (s)	92.035
Peak Height 	0.1684
calc peak height	90,93
Baseline Time (s)	10.037
Baseline Value 	6.7117E-4
subtract baseline	10,2
PK_880	0.285102
Peak Time (s)	92.035
Peak Height 	0.2851
calc peak height	90,93
Baseline Time (s)	11.535
Baseline Value 	0.002004
subtract baseline	10,1


Time (s)	A880-A510	A880-A775	A880-A975	A880	I510	I775	I975	I880	
0.034000	-0.002544	-0.000370	-0.002477	0.002084	6288.605399	41307.843965	3850.350662	20920.148240
0.541500	-0.002371	-0.000296	-0.011073	0.004731	6269.738238	41081.592077	3827.159944	20811.064218
1.038000	-0.000819	-0.000896	-0.002574	0.002464	6298.920501	41228.079280	3849.356360	20904.482402
1.535000	0.001182	-0.000191	-0.002165	0.000542	6329.156942	41459.996053	3854.234192	20984.045906
2.035500	-0.001380	-0.001220	-0.003030	-0.000831	6319.962226	41490.511677	3855.300327	21041.113697
2.540000	-0.003510	-0.000927	-0.009938	0.005844	6252.654574	40928.874775	3827.203599	20765.348248
3.036500	0.000389	-0.000252	0.002130	-0.000849	6333.788737	41578.003065	3866.246012	21041.868570
3.536500	-0.000466	-0.000081	-0.003625	0.000398	6317.531182	41482.459593	3851.475926	20990.012486
4.036500	0.001998	-0.000367	-0.002586	-0.000111	6340.552359	41502.297675	3854.722254	21011.168734
4.540000	0.000833	-0.001529	-0.001977	-0.000485	6334.411086	41432.509124	3856.787958	21026.725018
5.037000	-0.001771	-0.000551	-0.001363	-0.000170	6311.844220	41491.163702	3857.416054	21013.614587
5.535000	-0.000688	-0.000463	0.002298	-0.000443	6322.310660	41523.288451	3865.739617	21024.978329
6.035500	0.000438	-0.000388	-0.001236	-0.000365	6330.412015	41522.913704	3858.095705	21021.713799
6.535500	-0.002058	-0.000864	-0.005268	-0.000518	6312.318690	41494.306767	3849.955537	21028.078107
7.035500	-0.001241	-0.000812	-0.004999	-0.000788	6320.695991	41522.841487	3851.082006	21039.301852
7.536000	-0.000573	-0.000737	-0.001746	-0.000799	6325.948900	41530.425898	3857.933724	21039.762325
8.036500	0.000288	-0.000357	0.006872	-0.000309	6328.824472	41520.746031	3875.222476	21019.393470
8.536500	-0.000880	-0.000341	-0.001474	-0.000216	6319.073615	41513.929991	3857.281494	21015.542217
9.036500	0.001631	-0.000747	0.000705	-0.000577	6341.313595	41509.876080	3862.643256	21030.523814
9.537500	-0.001112	-0.000430	-0.000688	-0.000466	6319.215467	41528.213730	3859.464320	21025.935133
10.037500	0.000277	0.000000	0.005624	0.000000	6326.347775	41524.990850	3871.885088	21006.548440
10.535000	-0.003253	0.000001	0.003344	0.000079	6298.540303	41518.071281	3866.853916	21003.286346
11.035000	0.002474	0.000134	-0.007160	0.000297	6341.072877	41510.560240	3844.319095	20994.206325
11.535000	0.000000	0.000521	0.000000	0.000267	6322.137730	41547.527834	3859.368525	20995.452986
12.036000	-0.002327	0.000078	0.004048	-0.000044	6306.600205	41535.849741	3868.614867	21008.387445
12.536000	0.000281	0.000494	0.002903	0.000103	6325.577843	41559.662723	3865.864193	21002.256504
13.036500	-0.001615	-0.000856	0.000395	-0.001181	6320.846835	41553.875212	3863.266928	21055.684573
13.536500	0.001860	0.000237	0.001123	0.000258	6336.613715	41523.101078	3861.760224	20995.827374
14.040000	-0.000083	-0.000190	0.003639	0.002391	6305.130106	41296.698346	3862.573006	20907.494043
14.537000	-0.003295	-0.000792	-0.003812	0.004623	6263.536193	41047.537547	3842.292174	20815.485468
15.035000	0.000657	0.000600	-0.002584	0.000334	6326.700798	41548.558304	3853.789939	20992.665326
15.541000	0.000046	0.000013	0.003319	-0.000332	6327.123240	41555.566020	3867.674427	21020.337642
16.035500	0.002580	0.000695	0.004378	0.000542	6339.990832	41538.517076	3868.068502	20984.030410
16.535000	-0.002481	-0.000408	0.001979	0.005305	6264.538592	41021.449555	3852.936807	20787.480945
17.036000	0.004906	0.001000	-0.000716	-0.002114	6378.914415	41802.220380	3862.889464	21094.582223
17.536500	-0.001984	-0.000507	0.001461	0.000752	6303.114339	41413.442489	3861.432043	20975.340541
18.036500	-0.000602	0.000270	-0.000729	0.001336	6309.255958	41430.543674	3855.582219	20951.139352
18.537000	-0.001096	-0.000253	-0.004443	0.003101	6291.907959	41228.611151	3844.139986	20878.173884
19.037000	-0.001494	-0.000009	-0.003797	0.001606	6300.322614	41382.029294	3848.595271	20939.961723
19.534500	0.000442	0.000910	0.003174	0.001815	6313.599851	41444.753329	3862.805926	20931.274704
20.035500	0.000169	-0.000144	-0.003639	0.001368	6314.947664	41391.085627	3849.419689	20949.795496
20.535500	-0.002617	0.000386	-0.000815	0.002317	6286.269071	41354.040470	3853.343345	20910.541603
21.035500	-0.000264	0.000289	0.002292	0.001534	6310.330246	41414.670459	3861.534603	20942.919549
21.535500	-0.003070	-0.000160	0.003855	0.001101	6292.107915	41413.344638	3865.768175	20960.880571
22.036000	0.000136	-0.000097	0.003541	0.001272	6315.433645	41403.696301	3864.736071	20953.773450
22.536000	-0.000764	0.000313	0.000534	0.002015	6302.787157	41374.259267	3856.809062	20923.014658
23.036500	-0.001784	0.000361	-0.002716	0.001493	6298.964227	41424.718755	3851.088840	20944.638627
23.540000	-0.000075	0.000622	0.004474	0.001717	6310.375801	41428.019401	3865.773872	20935.362541
24.036500	-0.002092	0.000274	-0.002656	0.001570	6296.007971	41410.224021	3851.051951	20941.446922
24.534500	0.001847	0.000265	0.002116	0.001450	6327.272503	41420.063082	3861.341430	20946.418287
25.035000	-0.002116	0.000087	0.001287	0.001393	6297.176333	41409.296586	3859.708429	20948.748453
25.535500	-0.000514	-0.000151	0.002719	0.001303	6310.183305	41396.250319	3862.927558	20952.495024
26.035000	-0.000355	-0.000323	0.004287	0.000995	6313.782168	41408.216567	3866.911685	20965.262296
26.536000	-0.000034	-0.000318	-0.001157	0.001137	6315.159182	41396.101563	3855.101748	20959.365380
27.036500	-0.002236	-0.000841	-0.002895	0.001095	6298.547467	41353.617603	3851.545418	20961.116704
27.536500	0.001174	-0.000332	0.005371	-0.000400	6336.395231	41530.998034	3872.200651	21023.173281
28.037000	-0.000115	0.000355	0.002399	0.000692	6317.971758	41495.080155	3863.544397	20977.828508
28.537500	-0.000610	-0.000144	0.007204	-0.000044	6319.827539	41516.106838	3875.367106	21008.384893
29.037500	0.000201	-0.000971	-0.000265	-0.000352	6328.474265	41470.085328	3860.114966	21021.158749
29.535000	-0.000262	0.000264	0.002756	0.000072	6321.617508	41542.024688	3865.618053	21003.549608
30.035000	-0.000600	-0.000014	0.002842	0.000298	6317.266106	41497.354781	3865.320599	20994.179074
30.535000	-0.003249	-0.000969	-0.005902	0.005420	6257.840831	40962.307620	3836.333403	20782.743245
31.035500	-0.003627	0.000231	0.004134	0.002927	6273.910338	41286.578730	3862.484803	20885.351425
31.536000	0.000149	-0.000409	0.002755	0.000108	6324.521539	41479.123570	3865.538044	21002.060919
32.036500	0.002045	-0.000471	-0.000141	-0.000124	6341.014723	41494.192600	3859.897384	21011.703536
32.537000	-0.003295	-0.000531	-0.004810	0.005700	6255.375399	40976.118303	3838.006082	20771.273348
33.039500	0.000249	0.000222	0.000347	0.000479	6322.428301	41502.163366	3859.654636	20986.662949
33.537500	0.000738	-0.000379	0.001327	0.000028	6329.695741	41488.911635	3862.679250	21005.396021
34.034500	-0.001935	-0.000243	0.000810	0.001191	6300.120039	41397.989247	3859.127274	20957.129096
34.535000	-0.001783	-0.000276	0.002704	0.003783	6281.449573	41166.581750	3857.658286	20850.070277
35.035000	0.000143	-0.000153	0.001087	0.001535	6313.460469	41375.571997	3858.987533	20942.898011
35.535000	-0.000978	0.000836	-0.000727	0.002428	6297.968993	41384.003661	3853.294062	20905.934454
36.036000	-0.001684	-0.000464	0.006342	0.001442	6300.121768	41356.266773	3870.337587	20946.730583
36.536500	-0.003143	-0.000060	-0.000807	0.003310	6274.676712	41227.164955	3851.280206	20869.538067
37.036000	0.000405	-0.000734	-0.001977	0.001419	6316.371121	41334.423544	3852.787580	20947.668858
37.539500	-0.001716	-0.000312	0.001671	0.001644	6298.322214	41351.857636	3859.989495	20938.377495
38.034500	-0.000868	-0.000967	-0.000257	0.000890	6310.637270	41360.601167	3857.513432	20969.601097
38.534500	-0.001808	-0.000689	-0.001520	0.001893	6295.708260	41296.637079	3852.754238	20928.072596
39.035000	-0.001717	0.000077	-0.001140	0.001795	6297.162943	41372.922917	3853.756647	20932.135190
39.535500	0.000124	-0.000382	0.003534	0.001405	6314.314840	41366.778037	3864.437946	20948.261928
40.035500	-0.002497	-0.000308	0.000167	0.001439	6293.908162	41370.266001	3857.249115	20946.851058
40.536000	0.000495	0.000192	-0.001388	0.003120	6303.974887	41266.147199	3850.463671	20877.400482
41.036000	-0.003144	-0.000259	0.001458	0.001636	6287.445585	41357.185658	3859.555760	20938.690272
41.536000	-0.002105	-0.000724	-0.000619	0.001061	6299.808568	41366.955870	3856.391181	20962.503484
42.036500	-0.001613	-0.000450	0.003421	0.001332	6301.513061	41367.261658	3864.354700	20951.296703
42.537000	-0.000604	0.000562	-0.004094	0.003160	6295.231962	41295.208992	3844.742175	20875.744964
43.037500	-0.000494	-0.000280	-0.000659	0.000870	6313.672283	41423.082384	3856.709583	20970.429307
43.537500	0.001066	0.000329	0.006172	0.002064	6316.498941	41371.395898	3868.648762	20921.004999
44.035000	0.001412	-0.000138	0.002858	-0.002741	6356.465388	41756.580574	3871.832637	21120.788886
44.535000	-0.003633	-0.000085	-0.001469	0.005190	6256.671531	41059.779042	3845.978399	20792.186093
45.035500	0.001050	0.000331	0.002840	0.000359	6329.553790	41522.487853	3865.185971	20991.642043
45.536000	0.002383	0.000521	0.003030	0.000488	6338.882650	41527.906825	3865.316244	20986.282068
46.035500	-0.000591	-0.000292	0.006625	-0.000412	6322.820110	41535.587111	3874.913076	21023.670934
46.536000	-0.000589	-0.000204	-0.002748	0.006022	6273.475642	40976.582588	3841.599147	20758.086541
47.039500	-0.000931	0.000054	0.004696	-0.000179	6318.395534	41545.718189	3870.284465	21013.990358
47.537000	-0.000464	-0.000013	0.000043	0.002333	6302.646392	41317.376669	3855.109185	20909.870233
48.037000	-0.002593	0.000249	-0.000668	0.002584	6284.410029	41318.376596	3853.091352	20899.496717
48.537000	-0.002213	0.000026	-0.003515	0.006280	6259.178565	40974.083583	3839.481612	20747.512903
49.035000	0.001988	-0.000587	0.003888	-0.000685	6344.934394	41533.649896	3869.640206	21035.030400
49.535500	-0.002094	-0.001336	0.003695	-0.000789	6314.130893	41476.494707	3869.450716	21039.360990
50.036000	0.001535	-0.000662	0.007244	-0.003209	6361.085474	41751.615213	3882.274269	21140.373363
50.536000	-0.003001	-0.000835	0.002145	0.007297	6245.519253	40810.221414	3849.118793	20705.911425
51.036500	0.000043	-0.001304	0.002907	0.000750	6318.738379	41343.173631	3864.499331	20975.411739
51.536500	-0.009704	-0.032885	0.019801	0.407273	4251.907186	16978.329498	3318.628626	10026.467195
52.036500	-0.022375	-0.037402	-0.000326	-0.124461	7213.983165	50077.705911	4163.367554	26994.887746
52.537000	-0.034798	-0.043535	-0.004778	-0.169367	7543.863241	54474.518803	4282.521887	29612.870902
53.037500	-0.019222	-0.045865	-0.000411	-0.225264	8362.718311	61232.573547	4481.932684	33273.545299
53.535500	-0.007534	-0.033081	0.006812	-0.204200	8247.460102	60132.795877	4433.657752	31838.470890
54.035000	0.000476	-0.022820	0.020407	-0.153237	7750.152273	55020.929607	4310.746341	28641.202132
54.535000	-0.001243	-0.013543	0.023947	-0.065978	6863.943947	46469.627342	4070.915719	23967.044786
55.036000	0.014363	-0.006123	0.029304	-0.052428	6882.434418	45860.257486	4049.833516	23321.802053
55.536500	0.029937	0.002092	0.040529	-0.061991	7115.787819	47651.506597	4104.109221	23775.088265
56.036500	0.045545	0.013608	0.047783	-0.046056	7112.668960	47199.411918	4081.128718	23025.284127
56.539500	0.053505	0.021413	0.058216	-0.001781	6780.054423	43638.757329	3995.795689	21080.701667
57.037000	0.069315	0.028135	0.077084	0.011056	6806.247573	43070.412200	4010.518144	20552.979224
57.534500	0.082470	0.034751	0.088827	0.046939	6610.473499	40458.719505	3952.792955	19158.003979
58.034500	0.094703	0.040956	0.104162	0.084851	6401.244614	37820.863617	3901.632702	17804.124342
58.535000	0.112396	0.050957	0.116175	0.117353	6286.087989	36062.346400	3857.448209	16733.899132
59.035500	0.124077	0.058563	0.134614	0.148368	6141.546626	34327.102421	3831.343992	15784.708227
59.536000	0.131462	0.062217	0.144476	0.167948	6053.630709	33198.909911	3811.682631	15219.444080
60.036000	0.142252	0.068250	0.154822	0.193066	5953.435803	31900.251796	3782.626235	14530.632628
60.536000	0.148886	0.071976	0.169358	0.214124	5855.860533	30769.384810	3770.110276	13983.092676
61.036500	0.157776	0.077483	0.180258	0.237374	5761.883780	29657.442807	3746.915495	13408.596541
61.537000	0.163760	0.081581	0.184773	0.291198	5470.296490	26772.807514	3660.616189	12190.949301
62.037000	0.164655	0.086475	0.187171	0.248112	5737.152972	29550.440311	3739.864976	13153.468089
62.537500	0.168783	0.092997	0.188671	0.252187	5737.489345	29700.490296	3735.153947	13058.294755
63.034500	0.177955	0.098502	0.198713	0.248107	5823.353626	30296.538639	3761.341547	13153.595721
63.535000	0.188371	0.102197	0.201123	0.247607	5896.070614	30561.478958	3766.844031	13165.326170
64.038500	0.191290	0.106355	0.205770	0.251406	5890.141452	30584.367581	3768.456084	13076.478528
64.536500	0.192216	0.110840	0.202344	0.258218	5850.781641	30436.858367	3749.218767	12919.050718
65.036500	0.200497	0.112285	0.205607	0.258874	5901.870277	30486.758847	3754.074135	12904.023821
65.537000	0.204254	0.115978	0.216259	0.262817	5900.616834	30470.988537	3766.704135	12814.182609
66.039500	0.207861	0.119428	0.222417	0.266599	5899.431723	30449.932026	3771.221407	12728.746560
66.537000	0.208731	0.121249	0.220087	0.273177	5861.133749	30150.856483	3754.404036	12581.937395
67.037000	0.213976	0.122807	0.225968	0.272737	5899.277223	30276.069462	3766.303829	12591.689925
67.538000	0.219038	0.126057	0.224621	0.276013	5911.366878	30274.484214	3757.584401	12519.334162
68.035000	0.221192	0.127086	0.221849	0.278357	5910.075835	30192.006492	3748.043239	12467.890815
68.535500	0.222326	0.128672	0.231806	0.283415	5883.597450	29975.363517	3757.176951	12357.816170
69.036000	0.226826	0.131314	0.234771	0.285885	5897.262791	29986.117031	3758.105513	12304.534628
69.535500	0.228256	0.132968	0.234130	0.290863	5873.424102	29780.323993	3747.627078	12198.069506
70.036500	0.230365	0.134873	0.238112	0.296302	5851.215200	29563.174289	3744.930042	12083.117110
70.539500	0.228043	0.135154	0.238855	0.304636	5781.290432	29075.053881	3731.032092	11909.754840
71.037000	0.233972	0.137791	0.246252	0.307379	5802.013177	29068.682443	3739.522749	11853.408591
71.537000	0.234704	0.138518	0.238729	0.312266	5775.016448	28820.096270	3717.081622	11753.923111
72.034500	0.235596	0.139343	0.247760	0.317979	5744.014275	28531.088798	3723.019047	11639.038095
72.535000	0.237334	0.140008	0.250127	0.326702	5699.691237	28061.579328	3711.683953	11466.488605
73.035000	0.240287	0.142626	0.255188	0.330151	5696.571884	28013.660978	3714.543573	11399.218634
73.535500	0.240928	0.143666	0.251047	0.335130	5669.440468	27787.795006	3698.506450	11303.046687
74.035000	0.243237	0.143079	0.245156	0.339067	5659.327299	27530.880294	3681.599740	11227.782520
74.536000	0.242592	0.144702	0.255899	0.345119	5618.117339	27281.850252	3689.620737	11113.385771
75.036000	0.245368	0.145331	0.257075	0.348824	5612.454587	27110.486216	3685.284915	11044.153913
75.536500	0.250074	0.146698	0.255494	0.353821	5610.677513	26909.669124	3674.123524	10951.684621
76.036500	0.249402	0.146612	0.262864	0.357844	5582.245815	26684.532027	3679.782430	10878.025946
76.537500	0.251231	0.148836	0.258070	0.362964	5562.502593	26527.076782	3663.149436	10785.250041
77.037500	0.252122	0.149488	0.266456	0.365904	5550.281808	26403.395839	3672.239873	10732.472706
77.535000	0.254740	0.149653	0.269765	0.369601	5543.869233	26213.766334	3671.587575	10666.602628
78.035000	0.255077	0.151025	0.269873	0.371781	5532.955894	26170.624618	3668.119155	10628.028706
78.536000	0.256216	0.150707	0.275921	0.373512	5529.458566	26061.499859	3675.364190	10597.530229
79.036000	0.257734	0.152970	0.272641	0.377014	5517.776678	25995.821598	3664.014962	10536.217275
79.536000	0.258447	0.153707	0.268241	0.378154	5515.268854	25974.495902	3654.874485	10516.364992
80.039000	0.261374	0.154309	0.277121	0.380978	5515.869265	25857.163363	3664.871691	10467.387866
80.536500	0.261868	0.155493	0.275363	0.383066	5506.528993	25809.651273	3658.506538	10431.392845
81.037500	0.262086	0.154610	0.277157	0.384321	5500.477396	25697.644963	3659.395441	10409.852829
81.537000	0.263000	0.157668	0.279432	0.387869	5485.151240	25671.964547	3657.296755	10349.244125
82.035000	0.264062	0.156037	0.277497	0.388148	5489.696571	25572.463900	3653.664322	10344.504409
82.535000	0.261677	0.155958	0.278148	0.395595	5433.212927	25184.541319	3642.627197	10218.988298
83.035000	0.271923	0.158833	0.281948	0.394090	5500.872614	25409.532883	3651.229503	10244.193186
83.535500	0.268850	0.159302	0.284348	0.395507	5474.807828	25360.657855	3652.835083	10220.473076
84.036000	0.267965	0.157022	0.284496	0.394937	5472.982630	25272.735654	3654.008202	10230.001717
84.536000	0.266502	0.158977	0.288392	0.403592	5415.260514	24931.634046	3646.257977	10086.588985
85.036500	0.269851	0.159854	0.290858	0.399715	5456.348286	25173.152315	3656.607567	10150.483459
85.537000	0.268492	0.160368	0.287389	0.399802	5448.070888	25194.961835	3650.786146	10149.041183
86.037000	0.273890	0.159578	0.284894	0.400613	5474.421157	25113.281963	3645.417773	10135.634909
86.534500	0.274366	0.161780	0.284231	0.407895	5435.421979	24856.036304	3632.682648	10016.353397
87.034000	0.277491	0.161734	0.286844	0.405321	5468.037437	24983.651955	3640.970148	10058.286967
87.535500	0.276458	0.163923	0.288341	0.408205	5445.573390	24948.460479	3638.743444	10011.314049
88.035500	0.278070	0.164574	0.293694	0.409629	5446.651581	24909.479260	3645.069229	9988.249638
88.535500	0.274979	0.163701	0.290330	0.416116	5392.549969	24541.195761	3629.320317	9884.077325
89.036000	0.278135	0.163919	0.298137	0.411195	5438.089294	24797.642214	3649.736088	9962.951708
89.539000	0.278466	0.165577	0.295968	0.413528	5426.720459	24763.780679	3642.445523	9925.443213
90.036500	0.278955	0.166156	0.295994	0.414829	5422.125028	24727.632782	3640.393728	9904.611747
90.536000	0.276538	0.166665	0.299406	0.422800	5364.085957	24357.401777	3633.110375	9778.361484
91.037500	0.279192	0.166312	0.296540	0.416690	5412.964207	24642.448924	3638.285885	9874.932574
91.534500	0.281434	0.165532	0.302648	0.416921	5424.318664	24592.119937	3647.761152	9871.254977
92.035000	0.285102	0.168435	0.298720	0.419619	5429.813428	24602.369009	3637.089029	9828.475722
92.535500	0.276825	0.165829	0.296240	0.423185	5363.545281	24297.404825	3627.489787	9772.319582
93.035500	0.284619	0.166928	0.300019	0.418579	5432.977595	24579.146620	3640.838067	9844.935300
93.536500	0.287093	0.168543	0.297581	0.420638	5435.335860	24557.064894	3633.647049	9812.379970
94.036000	0.285154	0.168378	0.299790	0.420669	5424.163374	24547.354082	3637.120650	9811.895218
94.536000	0.285641	0.169686	0.300069	0.421658	5421.318583	24563.152553	3635.985334	9796.301090
95.037000	0.286725	0.169190	0.306186	0.421064	5430.820965	24567.984815	3646.778418	9805.653760
95.537500	0.285437	0.167612	0.291461	0.419961	5429.772073	24544.460647	3625.043917	9823.066293
96.035000	0.286662	0.170501	0.305031	0.422031	5424.987902	24585.157192	3643.349745	9790.444363
96.534000	0.287537	0.169947	0.292774	0.422869	5425.195269	24516.018139	3622.542533	9777.280477
