sample name	sample
index	1136
start time	 04-22-2021  02:35:01 PM


Wavelength (nm)	Absorbance
494.344910	NaN
494.563924	NaN
494.782919	NaN
495.001897	-0.374125
495.220856	0.187078
495.439797	0.087510
495.658719	0.134801
495.877624	0.022501
496.096510	0.065581
496.315378	0.030613
496.534227	-0.074860
496.753059	0.188947
496.971872	0.306492
497.190667	0.150061
497.409444	0.148134
497.628203	0.149230
497.846943	0.149072
498.065665	0.152386
498.284369	0.149706
498.503055	0.150174
498.721723	0.148187
498.940372	0.148255
499.159003	0.147688
499.377616	0.147428
499.596210	0.146667
499.814787	0.147288
500.033345	0.147142
500.251885	0.148297
500.470406	0.148761
500.688910	0.148990
500.907395	0.149529
501.125862	0.152210
501.344311	0.153953
501.562742	0.154530
501.781154	0.154527
501.999548	0.153699
502.217924	0.154002
502.436282	0.152425
502.654621	0.152241
502.872942	0.150300
503.091245	0.149239
503.309530	0.147094
503.527797	0.147294
503.746045	0.147299
503.964275	0.147780
504.182487	0.147075
504.400681	0.147980
504.618856	0.148676
504.837013	0.149384
505.055152	0.149153
505.273273	0.150122
505.491376	0.149860
505.709460	0.150010
505.927526	0.149542
506.145574	0.151663
506.363604	0.152273
506.581615	0.152022
506.799608	0.152313
507.017583	0.152542
507.235540	0.153000
507.453478	0.152601
507.671399	0.152454
507.889301	0.151999
508.107185	0.150865
508.325050	0.150293
508.542898	0.150316
508.760727	0.151285
508.978538	0.151040
509.196330	0.151872
509.414105	0.151693
509.631861	0.152428
509.849599	0.153618
510.067319	0.154338
510.285021	0.154812
510.502704	0.155950
510.720369	0.155933
510.938016	0.157011
511.155645	0.156598
511.373255	0.158356
511.590848	0.158513
511.808422	0.159925
512.025977	0.159625
512.243515	0.159692
512.461034	0.159568
512.678536	0.159841
512.896018	0.159636
513.113483	0.158788
513.330930	0.158460
513.548358	0.158879
513.765768	0.157641
513.983160	0.157052
514.200533	0.157531
514.417889	0.157868
514.635226	0.157548
514.852545	0.157729
515.069845	0.158818
515.287128	0.158469
515.504392	0.158145
515.721638	0.158051
515.938866	0.157588
516.156075	0.157349
516.373267	0.157547
516.590440	0.159086
516.807594	0.158399
517.024731	0.158846
517.241850	0.159627
517.458950	0.159524
517.676032	0.160025
517.893095	0.161405
518.110141	0.162324
518.327168	0.162256
518.544177	0.161839
518.761168	0.163312
518.978141	0.163289
519.195095	0.163757
519.412031	0.164386
519.628949	0.165118
519.845849	0.165580
520.062731	0.165773
520.279594	0.165891
520.496439	0.165987
520.713266	0.166035
520.930074	0.166980
521.146865	0.166066
521.363637	0.166129
521.580391	0.166112
521.797127	0.166379
522.013844	0.166198
522.230543	0.167474
522.447224	0.167748
522.663887	0.168188
522.880532	0.167716
523.097158	0.168457
523.313766	0.169191
523.530356	0.169163
523.746928	0.169411
523.963481	0.169370
524.180017	0.169865
524.396534	0.170313
524.613032	0.170141
524.829513	0.171189
525.045975	0.171952
525.262420	0.171903
525.478845	0.172502
525.695253	0.171753
525.911643	0.172403
526.128014	0.172293
526.344367	0.172105
526.560702	0.172996
526.777018	0.172489
526.993316	0.172121
527.209597	0.173036
527.425858	0.172822
527.642102	0.173632
527.858328	0.174482
528.074535	0.174674
528.290724	0.175686
528.506894	0.175558
528.723047	0.176204
528.939181	0.177587
529.155297	0.177650
529.371395	0.178139
529.587475	0.178880
529.803536	0.179049
530.019579	0.179115
530.235604	0.178604
530.451611	0.178565
530.667600	0.178718
530.883570	0.178219
531.099522	0.178915
531.315456	0.179883
531.531372	0.180267
531.747269	0.180178
531.963148	0.179913
532.179009	0.180342
532.394852	0.181038
532.610676	0.181676
532.826482	0.182998
533.042271	0.183216
533.258040	0.183732
533.473792	0.184561
533.689525	0.184517
533.905240	0.185423
534.120937	0.186329
534.336616	0.186638
534.552277	0.186626
534.767919	0.186400
534.983543	0.186178
535.199149	0.186031
535.414736	0.186131
535.630306	0.186786
535.845857	0.186807
536.061390	0.186456
536.276904	0.186619
536.492401	0.187529
536.707879	0.187259
536.923339	0.187460
537.138781	0.188109
537.354204	0.187895
537.569610	0.187993
537.784997	0.188198
538.000366	0.188719
538.215716	0.188945
538.431049	0.188700
538.646363	0.188971
538.861659	0.189268
539.076937	0.189352
539.292196	0.189440
539.507438	0.189942
539.722661	0.190165
539.937866	0.190833
540.153052	0.191727
540.368221	0.192020
540.583371	0.192482
540.798503	0.192731
541.013617	0.192615
541.228712	0.193460
541.443789	0.193960
541.658848	0.194683
541.873889	0.194913
542.088912	0.194697
542.303916	0.194889
542.518902	0.195139
542.733870	0.195566
542.948820	0.195979
543.163752	0.196227
543.378665	0.196533
543.593560	0.196631
543.808437	0.197123
544.023295	0.197364
544.238136	0.197876
544.452958	0.198087
544.667762	0.198479
544.882548	0.199099
545.097315	0.198886
545.312064	0.198862
545.526795	0.199584
545.741508	0.199318
545.956203	0.200334
546.170879	0.200085
546.385537	0.200797
546.600177	0.201256
546.814799	0.201158
547.029402	0.201680
547.243988	0.201919
547.458555	0.201967
547.673103	0.202424
547.887634	0.202394
548.102146	0.203363
548.316640	0.203376
548.531116	0.203616
548.745574	0.204053
548.960013	0.204388
549.174435	0.204956
549.388838	0.205400
549.603222	0.205558
549.817589	0.205448
550.031937	0.205419
550.246267	0.205642
550.460579	0.205632
550.674873	0.206010
550.889148	0.206010
551.103405	0.206129
551.317644	0.205791
551.531865	0.205934
551.746068	0.206492
551.960252	0.206572
552.174418	0.207128
552.388566	0.207447
552.602696	0.207309
552.816807	0.207680
553.030900	0.208094
553.244975	0.208388
553.459032	0.208735
553.673070	0.208756
553.887091	0.209593
554.101093	0.209623
554.315077	0.209693
554.529042	0.209774
554.742990	0.210195
554.956919	0.209922
555.170830	0.210062
555.384722	0.210090
555.598597	0.210056
555.812453	0.209773
556.026291	0.210091
556.240111	0.210119
556.453913	0.210451
556.667696	0.210095
556.881461	0.210520
557.095208	0.211156
557.308937	0.211494
557.522647	0.211346
557.736339	0.211276
557.950013	0.211046
558.163669	0.211202
558.377307	0.211579
558.590926	0.211689
558.804527	0.211782
559.018110	0.211343
559.231675	0.211242
559.445221	0.211726
559.658749	0.211861
559.872259	0.211945
560.085751	0.211916
560.299225	0.211851
560.512680	0.212012
560.726117	0.211941
560.939536	0.212279
561.152937	0.212496
561.366319	0.212252
561.579683	0.211936
561.793029	0.212532
562.006357	0.213014
562.219667	0.212904
562.432958	0.213002
562.646231	0.213549
562.859486	0.213498
563.072723	0.213139
563.285941	0.213831
563.499141	0.214791
563.712323	0.214139
563.925487	0.213663
564.138632	0.213737
564.351760	0.214303
564.564869	0.213980
564.777960	0.214150
564.991032	0.214737
565.204087	0.214623
565.417123	0.214066
565.630141	0.214492
565.843140	0.214707
566.056122	0.215166
566.269085	0.215022
566.482030	0.215475
566.694957	0.215515
566.907866	0.216007
567.120756	0.216033
567.333628	0.216674
567.546482	0.216968
567.759318	0.217344
567.972135	0.217253
568.184935	0.217535
568.397716	0.217539
568.610478	0.217875
568.823223	0.217391
569.035949	0.217396
569.248657	0.217555
569.461347	0.217829
569.674019	0.218051
569.886672	0.218079
570.099308	0.218240
570.311925	0.218216
570.524523	0.218287
570.737104	0.218560
570.949666	0.218607
571.162210	0.218974
571.374736	0.218906
571.587244	0.218712
571.799733	0.219002
572.012205	0.218883
572.224658	0.219371
572.437092	0.219569
572.649509	0.219286
572.861907	0.220023
573.074287	0.219574
573.286649	0.219523
573.498993	0.219704
573.711318	0.219601
573.923625	0.219864
574.135914	0.219545
574.348185	0.218982
574.560438	0.219225
574.772672	0.218623
574.984888	0.218742
575.197086	0.218870
575.409266	0.218899
575.621427	0.218817
575.833570	0.218847
576.045695	0.218867
576.257802	0.219258
576.469890	0.219646
576.681961	0.220352
576.894013	0.220527
577.106046	0.220648
577.318062	0.221048
577.530059	0.221209
577.742039	0.221523
577.954000	0.221810
578.165942	0.222352
578.377867	0.222430
578.589773	0.222255
578.801661	0.221945
579.013531	0.222133
579.225382	0.222308
579.437216	0.222678
579.649031	0.222509
579.860828	0.222652
580.072606	0.222680
580.284367	0.222897
580.496109	0.222816
580.707833	0.223291
580.919539	0.223350
581.131227	0.223538
581.342896	0.223418
581.554547	0.223311
581.766180	0.223567
581.977795	0.223707
582.189391	0.223740
582.400969	0.223949
582.612529	0.223919
582.824071	0.224312
583.035595	0.224241
583.247100	0.224358
583.458587	0.224749
583.670056	0.224444
583.881506	0.224668
584.092939	0.224760
584.304353	0.224875
584.515749	0.225279
584.727127	0.225255
584.938486	0.225277
585.149828	0.225277
585.361151	0.225284
585.572456	0.225863
585.783742	0.225713
585.995011	0.225893
586.206261	0.226011
586.417493	0.226301
586.628706	0.225954
586.839902	0.226169
587.051079	0.226234
587.262238	0.226512
587.473379	0.226193
587.684502	0.226358
587.895606	0.226462
588.106692	0.226624
588.317760	0.226535
588.528810	0.226821
588.739841	0.227252
588.950855	0.228108
589.161850	0.228340
589.372827	0.229011
589.583785	0.228996
589.794726	0.229184
590.005648	0.229219
590.216552	0.229187
590.427437	0.229649
590.638305	0.229511
590.849154	0.229229
591.059985	0.229031
591.270798	0.228731
591.481592	0.229290
591.692369	0.229408
591.903127	0.230289
592.113867	0.230650
592.324588	0.231049
592.535292	0.231285
592.745977	0.231927
592.956644	0.232498
593.167293	0.232908
593.377923	0.232746
593.588536	0.233203
593.799130	0.232904
594.009706	0.233021
594.220263	0.233271
594.430803	0.233455
594.641324	0.233250
594.851827	0.233425
595.062312	0.233724
595.272778	0.234160
595.483227	0.233611
595.693657	0.234053
595.904069	0.234554
596.114462	0.234247
596.324838	0.234363
596.535195	0.234524
596.745534	0.234755
596.955855	0.234646
597.166157	0.234420
597.376441	0.235122
597.586707	0.234977
597.796955	0.234891
598.007185	0.235204
598.217396	0.235166
598.427589	0.235223
598.637764	0.234894
598.847921	0.235157
599.058060	0.235407
599.268180	0.235317
599.478282	0.235243
599.688366	0.234846
599.898431	0.234686
600.108479	0.235093
600.318508	0.235283
600.528519	0.235654
600.738511	0.235490
600.948486	0.235471
601.158442	0.235548
601.368380	0.235688
601.578300	0.236128
601.788202	0.236571
601.998085	0.236330
602.207950	0.236345
602.417797	0.236436
602.627626	0.236540
602.837436	0.236832
603.047228	0.237110
603.257002	0.237426
603.466758	0.237608
603.676496	0.237561
603.886215	0.238010
604.095916	0.238466
604.305599	0.238494
604.515264	0.238571
604.724910	0.238614
604.934538	0.238679
605.144148	0.238499
605.353740	0.238573
605.563314	0.238554
605.772869	0.238444
605.982406	0.238505
606.191925	0.238807
606.401425	0.239282
606.610908	0.239612
606.820372	0.239505
607.029818	0.239277
607.239246	0.239479
607.448655	0.239810
607.658047	0.239952
607.867420	0.239944
608.076775	0.239970
608.286111	0.240016
608.495430	0.240308
608.704730	0.240781
608.914012	0.241590
609.123275	0.241497
609.332521	0.241551
609.541748	0.241659
609.750957	0.241749
609.960148	0.242045
610.169321	0.242133
610.378475	0.242066
610.587611	0.241828
610.796729	0.242092
611.005829	0.242449
611.214910	0.243017
611.423974	0.243671
611.633019	0.244126
611.842045	0.244317
612.051054	0.244545
612.260044	0.244489
612.469017	0.244787
612.677970	0.244487
612.886906	0.244405
613.095824	0.244001
613.304723	0.243807
613.513604	0.243393
613.722467	0.243019
613.931311	0.243013
614.140138	0.243115
614.348946	0.243330
614.557736	0.243884
614.766507	0.244066
614.975261	0.244280
615.183996	0.244366
615.392713	0.244548
615.601412	0.244810
615.810092	0.245043
616.018754	0.245098
616.227399	0.245361
616.436024	0.245018
616.644632	0.245377
616.853222	0.245255
617.061793	0.245078
617.270346	0.245457
617.478880	0.245580
617.687397	0.245693
617.895895	0.245894
618.104375	0.245539
618.312837	0.245686
618.521281	0.245629
618.729706	0.245818
618.938113	0.246178
619.146502	0.246289
619.354873	0.246516
619.563226	0.246471
619.771560	0.246943
619.979876	0.247468
620.188174	0.247604
620.396453	0.247508
620.604715	0.247789
620.812958	0.247789
621.021183	0.247870
621.229390	0.247880
621.437578	0.248178
621.645748	0.248019
621.853900	0.247683
622.062034	0.247810
622.270150	0.247913
622.478247	0.248066
622.686326	0.248212
622.894387	0.248419
623.102430	0.248510
623.310454	0.248403
623.518461	0.248473
623.726449	0.248840
623.934418	0.249025
624.142370	0.249384
624.350303	0.249468
624.558218	0.249598
624.766115	0.249605
624.973994	0.249836
625.181855	0.249864
625.389697	0.250099
625.597521	0.249906
625.805327	0.249995
626.013114	0.250127
626.220883	0.250172
626.428634	0.250285
626.636367	0.250442
626.844082	0.250366
627.051778	0.250651
627.259457	0.250739
627.467117	0.251347
627.674758	0.251536
627.882382	0.251754
628.089987	0.252148
628.297574	0.252438
628.505143	0.252336
628.712694	0.252643
628.920226	0.252710
629.127740	0.252724
629.335236	0.252644
629.542714	0.252649
629.750174	0.252706
629.957615	0.252506
630.165038	0.252286
630.372443	0.252448
630.579829	0.252588
630.787198	0.253077
630.994548	0.253277
631.201880	0.253447
631.409194	0.253936
631.616489	0.254091
631.823766	0.254278
632.031025	0.254805
632.238266	0.254624
632.445489	0.254829
632.652693	0.254705
632.859879	0.254618
633.067047	0.254688
633.274197	0.254544
633.481329	0.254523
633.688442	0.254605
633.895537	0.254642
634.102614	0.255013
634.309672	0.255001
634.516713	0.255212
634.723735	0.255697
634.930739	0.256101
635.137724	0.255885
635.344692	0.256094
635.551641	0.256313
635.758572	0.256439
635.965485	0.256802
636.172379	0.256874
636.379256	0.256942
636.586114	0.257008
636.792954	0.256901
636.999775	0.257365
637.206579	0.257722
637.413364	0.257833
637.620131	0.257972
637.826880	0.257969
638.033610	0.258280
638.240323	0.258517
638.447017	0.258704
638.653692	0.259001
638.860350	0.259208
639.066990	0.259511
639.273611	0.259855
639.480214	0.259978
639.686798	0.260259
639.893365	0.260266
640.099913	0.260482
640.306443	0.260592
640.512955	0.260688
640.719449	0.260650
640.925924	0.260703
641.132381	0.260825
641.338820	0.260786
641.545241	0.261174
641.751644	0.261398
641.958028	0.261643
642.164394	0.261914
642.370742	0.261907
642.577071	0.262331
642.783383	0.262119
642.989676	0.262088
643.195951	0.262672
643.402207	0.262403
643.608446	0.262665
643.814666	0.262665
644.020868	0.262879
644.227052	0.263078
644.433218	0.262882
644.639365	0.263236
644.845494	0.263163
645.051605	0.263160
645.257698	0.263394
645.463772	0.263523
645.669828	0.263766
645.875866	0.263664
646.081886	0.264236
646.287888	0.264750
646.493871	0.264819
646.699836	0.265413
646.905783	0.265423
647.111712	0.265768
647.317622	0.265752
647.523514	0.265549
647.729388	0.265516
647.935244	0.265572
648.141082	0.265670
648.346901	0.265695
648.552702	0.265724
648.758485	0.265953
648.964250	0.265992
649.169996	0.266502
649.375724	0.266988
649.581434	0.267425
649.787126	0.267469
649.992800	0.267638
650.198455	0.267913
650.404092	0.268137
650.609711	0.268303
650.815311	0.268476
651.020894	0.268606
651.226458	0.268642
651.432004	0.269036
651.637532	0.269176
651.843041	0.268963
652.048532	0.269374
652.254006	0.269490
652.459460	0.269628
652.664897	0.269810
652.870315	0.269808
653.075716	0.269854
653.281097	0.269800
653.486461	0.270054
653.691807	0.270535
653.897134	0.270602
654.102443	0.270871
654.307734	0.270979
654.513006	0.271080
654.718261	0.271315
654.923497	0.271849
655.128715	0.272304
655.333915	0.272520
655.539096	0.272644
655.744259	0.272697
655.949404	0.272855
656.154531	0.273283
656.359640	0.273667
656.564730	0.273989
656.769802	0.273917
656.974856	0.274017
657.179892	0.274194
657.384909	0.274607
657.589908	0.274786
657.794889	0.275136
657.999852	0.274963
658.204797	0.275341
658.409723	0.275600
658.614631	0.275998
658.819521	0.276071
659.024393	0.276224
659.229246	0.276405
659.434081	0.276763
659.638898	0.276765
659.843697	0.277344
660.048478	0.277333
660.253240	0.277122
660.457984	0.276879
660.662710	0.277071
660.867417	0.277063
661.072107	0.276907
661.276778	0.276877
661.481431	0.276969
661.686066	0.277034
661.890682	0.276869
662.095281	0.277135
662.299861	0.277606
662.504422	0.277841
662.708966	0.278100
662.913491	0.278412
663.117999	0.278613
663.322488	0.278872
663.526958	0.278795
663.731411	0.279215
663.935845	0.279342
664.140261	0.279437
664.344659	0.279291
664.549038	0.279237
664.753400	0.279294
664.957743	0.279543
665.162068	0.279693
665.366375	0.280052
665.570663	0.279858
665.774933	0.280135
665.979185	0.280277
666.183419	0.280528
666.387635	0.280811
666.591832	0.281061
666.796011	0.281325
667.000172	0.281322
667.204315	0.281366
667.408439	0.282081
667.612545	0.282332
667.816634	0.282563
668.020703	0.282778
668.224755	0.283161
668.428788	0.283601
668.632803	0.284092
668.836800	0.284618
669.040779	0.285054
669.244739	0.285276
669.448681	0.285539
669.652605	0.285754
669.856511	0.286310
670.060399	0.286469
670.264268	0.286538
670.468119	0.286460
670.671952	0.286658
670.875767	0.286862
671.079563	0.287065
671.283341	0.287439
671.487101	0.287921
671.690843	0.288154
671.894567	0.288296
672.098272	0.288790
672.301959	0.289042
672.505628	0.289193
672.709278	0.289647
672.912911	0.289802
673.116525	0.289620
673.320121	0.289722
673.523699	0.289681
673.727258	0.289826
673.930799	0.289869
674.134322	0.290193
674.337827	0.290244
674.541314	0.290038
674.744782	0.290237
674.948232	0.290703
675.151664	0.290532
675.355078	0.290403
675.558474	0.290717
675.761851	0.290986
675.965210	0.291172
676.168551	0.291242
676.371873	0.291729
676.575178	0.292051
676.778464	0.292137
676.981732	0.292476
677.184981	0.292891
677.388213	0.293135
677.591426	0.293081
677.794621	0.292956
677.997798	0.293449
678.200956	0.293333
678.404097	0.293263
678.607219	0.293506
678.810323	0.293848
679.013408	0.294398
679.216476	0.295020
679.419525	0.295049
679.622556	0.295415
679.825569	0.295577
680.028563	0.296031
680.231540	0.296161
680.434498	0.296554
680.637438	0.296749
680.840359	0.296899
681.043263	0.296774
681.246148	0.297128
681.449015	0.297237
681.651864	0.297535
681.854694	0.297657
682.057506	0.298062
682.260301	0.298114
682.463076	0.298499
682.665834	0.298446
682.868573	0.298669
683.071295	0.299102
683.273998	0.299373
683.476682	0.299364
683.679349	0.299521
683.881997	0.299609
684.084627	0.299902
684.287239	0.299932
684.489833	0.300038
684.692408	0.299987
684.894965	0.300091
685.097504	0.300006
685.300025	0.300084
685.502527	0.300106
685.705012	0.300192
685.907478	0.300206
686.109925	0.300110
686.312355	0.300267
686.514766	0.300698
686.717159	0.300737
686.919534	0.301011
687.121891	0.301214
687.324230	0.301297
687.526550	0.301607
687.728852	0.301705
687.931136	0.302047
688.133401	0.302346
688.335649	0.302325
688.537878	0.302553
688.740089	0.302881
688.942281	0.302991
689.144456	0.303147
689.346612	0.303414
689.548750	0.303375
689.750870	0.303302
689.952971	0.303331
690.155055	0.303352
690.357120	0.303469
690.559167	0.303488
690.761195	0.303666
690.963206	0.303928
691.165198	0.303755
691.367172	0.303779
691.569128	0.303792
691.771065	0.303973
691.972984	0.304017
692.174885	0.304208
692.376768	0.304379
692.578633	0.304569
692.780479	0.304367
692.982308	0.304693
693.184118	0.305199
693.385909	0.305823
693.587683	0.306025
693.789438	0.306339
693.991175	0.306391
694.192894	0.306500
694.394595	0.306494
694.596277	0.307082
694.797941	0.307125
694.999587	0.307168
695.201215	0.307270
695.402824	0.307641
695.604416	0.307741
695.805989	0.307700
696.007543	0.307808
696.209080	0.308112
696.410598	0.308131
696.612099	0.308560
696.813580	0.308611
697.015044	0.308712
697.216490	0.308431
697.417917	0.308641
697.619326	0.308832
697.820717	0.309013
698.022089	0.308847
698.223444	0.308828
698.424780	0.308757
698.626098	0.308750
698.827397	0.308787
699.028679	0.308891
699.229942	0.308921
699.431187	0.309071
699.632414	0.309286
699.833622	0.309658
700.034813	0.309988
700.235985	0.309988
700.437139	0.310275
700.638274	0.310249
700.839392	0.310589
701.040491	0.310822
701.241572	0.310900
701.442635	0.310788
701.643679	0.310867
701.844706	0.310907
702.045714	0.310927
702.246704	0.310848
702.447675	0.311018
702.648629	0.310869
702.849564	0.310711
703.050481	0.310795
703.251380	0.310794
703.452260	0.310989
703.653122	0.310969
703.853966	0.310923
704.054792	0.310952
704.255600	0.310686
704.456389	0.310688
704.657160	0.310726
704.857913	0.310833
705.058648	0.310669
705.259365	0.310201
705.460063	0.310215
705.660743	0.310424
705.861405	0.310485
706.062048	0.310635
706.262674	0.310468
706.463281	0.310226
706.663870	0.309911
706.864441	0.309816
707.064993	0.310175
707.265527	0.310016
707.466043	0.309848
707.666541	0.309776
707.867021	0.309690
708.067482	0.309758
708.267925	0.310046
708.468350	0.310095
708.668757	0.310398
708.869145	0.310375
709.069516	0.310675
709.269868	0.310656
709.470201	0.310730
709.670517	0.310985
709.870814	0.311060
710.071093	0.311189
710.271354	0.311540
710.471597	0.311638
710.671821	0.311952
710.872028	0.311899
711.072216	0.311915
711.272385	0.312061
711.472537	0.312148
711.672670	0.312414
711.872785	0.312476
712.072882	0.312362
712.272961	0.312141
712.473021	0.311815
712.673063	0.311793
712.873087	0.311925
713.073093	0.311851
713.273081	0.311736
713.473050	0.311560
713.673001	0.311498
713.872934	0.311471
714.072849	0.311550
714.272745	0.311739
714.472623	0.311514
714.672483	0.311410
714.872325	0.311434
715.072148	0.311375
715.271954	0.311369
715.471741	0.311243
715.671509	0.310984
715.871260	0.310881
716.070992	0.310622
716.270707	0.310556
716.470403	0.310372
716.670080	0.310140
716.869740	0.309749
717.069381	0.309787
717.269004	0.309464
717.468609	0.309560
717.668195	0.309458
717.867764	0.309266
718.067314	0.309296
718.266846	0.309193
718.466360	0.309091
718.665855	0.309002
718.865332	0.308648
719.064791	0.308653
719.264232	0.308420
719.463655	0.308723
719.663059	0.308732
719.862445	0.308640
720.061813	0.308870
720.261163	0.308953
720.460494	0.309204
720.659807	0.309231
720.859102	0.309379
721.058379	0.309525
721.257638	0.309272
721.456878	0.309083
721.656100	0.308986
721.855304	0.308519
722.054490	0.308314
722.253657	0.308357
722.452806	0.308382
722.651937	0.307872
722.851050	0.307890
723.050145	0.307515
723.249221	0.307280
723.448279	0.307321
723.647319	0.307659
723.846340	0.307460
724.045344	0.307129
724.244329	0.306779
724.443296	0.306879
724.642245	0.306548
724.841175	0.306268
725.040088	0.306397
725.238982	0.306248
725.437857	0.305955
725.636715	0.306302
725.835554	0.306263
726.034376	0.306222
726.233179	0.306140
726.431963	0.305984
726.630730	0.306219
726.829478	0.306237
727.028208	0.305903
727.226920	0.305644
727.425614	0.305075
727.624289	0.304703
727.822946	0.304525
728.021585	0.304540
728.220206	0.304497
728.418808	0.304089
728.617392	0.303652
728.815958	0.303772
729.014506	0.303749
729.213036	0.303404
729.411547	0.303269
729.610040	0.302970
729.808515	0.302486
730.006972	0.302452
730.205410	0.302521
730.403831	0.302643
730.602233	0.302259
730.800616	0.301892
730.998982	0.302105
731.197329	0.301729
731.395658	0.301668
731.593969	0.301868
731.792262	0.301711
731.990536	0.301623
732.188793	0.301107
732.387031	0.301074
732.585250	0.301194
732.783452	0.301097
732.981635	0.301417
733.179800	0.301467
733.377947	0.301146
733.576076	0.300619
733.774186	0.300484
733.972278	0.300689
734.170352	0.300334
734.368408	0.299972
734.566446	0.299750
734.764465	0.299588
734.962466	0.299292
735.160449	0.299164
735.358413	0.299318
735.556360	0.298785
735.754288	0.298621
735.952198	0.298498
736.150090	0.298413
736.347963	0.298025
736.545818	0.297639
736.743655	0.297782
736.941474	0.297310
737.139275	0.296912
737.337057	0.296824
737.534821	0.296591
737.732567	0.296540
737.930295	0.296402
738.128005	0.296530
738.325696	0.296551
738.523369	0.296184
738.721024	0.296185
738.918660	0.296172
739.116279	0.296142
739.313879	0.295839
739.511461	0.295613
739.709024	0.295372
739.906570	0.295043
740.104097	0.294854
740.301606	0.294624
740.499097	0.294399
740.696569	0.294238
740.894024	0.294229
741.091460	0.294018
741.288878	0.293831
741.486277	0.293703
741.683659	0.293444
741.881022	0.292970
742.078367	0.292776
742.275694	0.292748
742.473002	0.292340
742.670293	0.292148
742.867565	0.292084
743.064819	0.291892
743.262054	0.291664
743.459272	0.291615
743.656471	0.291620
743.853652	0.291531
744.050815	0.291334
744.247959	0.291182
744.445085	0.290868
744.642194	0.290363
744.839283	0.290236
745.036355	0.290057
745.233408	0.289804
745.430444	0.289532
745.627461	0.289165
745.824459	0.288775
746.021440	0.289000
746.218402	0.288952
746.415346	0.289089
746.612272	0.288985
746.809180	0.288922
747.006069	0.288677
747.202940	0.288878
747.399793	0.288880
747.596628	0.288829
747.793444	0.288357
747.990243	0.287857
748.187023	0.287426
748.383784	0.287118
748.580528	0.286883
748.777253	0.286626
748.973960	0.286267
749.170649	0.285990
749.367320	0.285807
749.563973	0.285517
749.760607	0.285691
749.957223	0.285577
750.153821	0.285469
750.350400	0.285100
750.546962	0.284976
750.743505	0.284710
750.940030	0.284663
751.136536	0.284584
751.333025	0.284429
751.529495	0.284175
751.725947	0.284011
751.922381	0.283534
752.118796	0.283317
752.315194	0.283215
752.511573	0.282823
752.707934	0.282551
752.904276	0.282168
753.100601	0.281992
753.296907	0.281722
753.493195	0.281420
753.689465	0.281473
753.885716	0.281486
754.081949	0.281216
754.278164	0.281252
754.474361	0.280891
754.670540	0.280956
754.866700	0.280777
755.062843	0.280631
755.258967	0.280721
755.455072	0.280534
755.651160	0.280189
755.847229	0.280345
756.043280	0.280413
756.239313	0.280044
756.435328	0.279721
756.631324	0.279683
756.827302	0.279715
757.023262	0.279660
757.219204	0.279525
757.415127	0.279318
757.611033	0.278794
757.806920	0.278581
758.002788	0.278649
758.198639	0.278361
758.394471	0.278119
758.590286	0.277960
758.786081	0.277883
758.981859	0.277753
759.177619	0.277915
759.373360	0.278014
759.569083	0.277817
759.764788	0.277947
759.960474	0.277941
760.156143	0.277904
760.351793	0.277546
760.547425	0.276770
760.743038	0.276675
760.938634	0.276018
761.134211	0.275587
761.329770	0.275140
761.525311	0.274589
761.720833	0.274268
761.916338	0.273816
762.111824	0.273405
762.307292	0.273608
762.502741	0.273105
762.698173	0.273283
762.893586	0.273174
763.088981	0.273178
763.284358	0.273142
763.479716	0.273316
763.675057	0.273424
763.870379	0.273432
764.065683	0.273281
764.260968	0.273638
764.456236	0.273733
764.651485	0.273749
764.846716	0.273542
765.041929	0.273375
765.237123	0.273296
765.432299	0.273409
765.627457	0.273244
765.822597	0.273357
766.017719	0.273377
766.212822	0.273319
766.407907	0.273354
766.602974	0.273423
766.798023	0.273705
766.993054	0.273606
767.188066	0.273676
767.383060	0.273978
767.578036	0.273892
767.772993	0.273863
767.967933	0.273608
768.162854	0.273812
768.357757	0.273855
768.552642	0.273540
768.747508	0.273248
768.942356	0.272837
769.137186	0.272451
769.331998	0.272161
769.526792	0.271640
769.721567	0.271457
769.916324	0.270805
770.111063	0.270239
770.305784	0.270135
770.500486	0.270119
770.695171	0.270049
770.889837	0.269992
771.084484	0.269851
771.279114	0.269603
771.473725	0.269726
771.668318	0.269615
771.862893	0.269899
772.057450	0.269729
772.251988	0.269444
772.446509	0.269272
772.641011	0.268889
772.835494	0.268838
773.029960	0.269066
773.224407	0.268595
773.418836	0.268791
773.613247	0.268689
773.807640	0.268555
774.002014	0.268712
774.196370	0.268789
774.390708	0.268914
774.585028	0.269048
774.779330	0.268634
774.973613	0.268707
775.167878	0.268221
775.362125	0.268010
775.556354	0.267946
775.750564	0.267880
775.944756	0.267579
776.138930	0.267691
776.333086	0.267409
776.527223	0.267600
776.721343	0.267477
776.915444	0.267411
777.109526	0.267331
777.303591	0.267603
777.497637	0.267609
777.691666	0.267364
777.885676	0.267202
778.079667	0.267223
778.273641	0.267163
778.467596	0.267359
778.661533	0.267783
778.855452	0.267852
779.049352	0.267612
779.243235	0.267543
779.437099	0.267726
779.630945	0.267985
779.824773	0.268103
780.018582	0.267868
780.212373	0.267916
780.406146	0.267782
780.599901	0.267853
780.793638	0.267791
780.987356	0.267838
781.181056	0.267934
781.374738	0.267809
781.568402	0.267644
781.762047	0.267935
781.955674	0.267709
782.149283	0.267581
782.342874	0.267697
782.536447	0.267776
782.730001	0.267598
782.923537	0.267633
783.117055	0.267736
783.310555	0.267786
783.504036	0.268009
783.697499	0.268033
783.890944	0.267950
784.084371	0.267949
784.277780	0.268104
784.471170	0.268419
784.664542	0.268508
784.857896	0.268299
785.051231	0.268453
785.244549	0.268165
785.437848	0.268309
785.631129	0.268513
785.824392	0.268450
786.017636	0.268433
786.210863	0.268334
786.404071	0.268203
786.597260	0.268249
786.790432	0.268108
786.983585	0.268115
787.176721	0.268008
787.369838	0.268118
787.562936	0.268112
787.756017	0.268105
787.949079	0.268253
788.142123	0.268111
788.335149	0.268095
788.528156	0.268141
788.721146	0.268505
788.914117	0.268790
789.107070	0.268989
789.300005	0.269273
789.492921	0.269486
789.685819	0.269465
789.878699	0.269903
790.071561	0.270137
790.264405	0.270471
790.457230	0.270468
790.650037	0.270560
790.842826	0.270335
791.035597	0.270472
791.228349	0.270676
791.421084	0.270737
791.613800	0.270704
791.806497	0.270938
791.999177	0.270848
792.191838	0.270738
792.384481	0.270685
792.577106	0.271106
792.769713	0.270854
792.962301	0.270891
793.154871	0.270961
793.347423	0.271313
793.539957	0.271366
793.732473	0.271818
793.924970	0.272398
794.117449	0.272572
794.309910	0.272539
794.502353	0.272833
794.694777	0.273048
794.887183	0.273353
795.079571	0.273450
795.271941	0.273574
795.464293	0.273635
795.656626	0.273348
795.848941	0.273597
796.041238	0.274041
796.233516	0.274400
796.425777	0.274472
796.618019	0.274723
796.810243	0.274714
797.002449	0.274937
797.194636	0.275025
797.386805	0.275348
797.578956	0.275288
797.771089	0.275214
797.963204	0.275215
798.155300	0.275276
798.347378	0.275217
798.539438	0.275678
798.731480	0.275742
798.923503	0.275533
799.115509	0.275712
799.307496	0.275932
799.499465	0.276248
799.691415	0.276417
799.883348	0.276633
800.075262	0.277106
800.267158	0.277123
800.459035	0.277648
800.650895	0.278248
800.842736	0.278388
801.034559	0.278824
801.226364	0.278714
801.418150	0.279088
801.609919	0.279346
801.801669	0.279360
801.993401	0.279618
802.185114	0.279727
802.376810	0.279843
802.568487	0.280082
802.760146	0.280368
802.951787	0.280729
803.143409	0.280920
803.335014	0.280974
803.526600	0.281099
803.718168	0.281571
803.909717	0.281747
804.101249	0.281924
804.292762	0.282500
804.484257	0.282526
804.675734	0.282603
804.867192	0.282703
805.058632	0.282958
805.250054	0.283573
805.441458	0.283603
805.632844	0.283747
805.824211	0.284146
806.015561	0.284008
806.206891	0.284365
806.398204	0.284862
806.589499	0.285297
806.780775	0.285729
806.972033	0.285713
807.163273	0.286042
807.354495	0.286276
807.545698	0.286468
807.736883	0.286912
807.928050	0.287351
808.119199	0.287611
808.310329	0.287517
808.501441	0.287824
808.692535	0.288139
808.883611	0.288311
809.074669	0.288562
809.265708	0.288724
809.456729	0.288799
809.647732	0.288975
809.838717	0.289461
810.029683	0.289673
810.220632	0.289657
810.411562	0.289666
810.602474	0.289974
810.793367	0.290397
810.984242	0.290844
811.175100	0.291491
811.365938	0.291627
811.556759	0.291852
811.747562	0.292264
811.938346	0.292645
812.129112	0.293521
812.319860	0.293975
812.510589	0.294256
812.701300	0.294572
812.891994	0.294516
813.082668	0.295061
813.273325	0.295481
813.463964	0.296024
813.654584	0.296694
813.845186	0.296611
814.035769	0.296939
814.226335	0.297105
814.416882	0.297786
814.607411	0.298265
814.797922	0.298714
814.988415	0.298971
815.178889	0.299207
815.369345	0.299567
815.559783	0.299966
815.750203	0.299908
815.940605	0.300352
816.130988	0.299943
816.321353	0.299969
816.511700	0.300197
816.702028	0.300445
816.892339	0.300819
817.082631	0.300905
817.272905	0.301269
817.463161	0.301689
817.653398	0.302083
817.843617	0.302729
818.033819	0.303202
818.224001	0.303181
818.414166	0.303483
818.604312	0.303830
818.794440	0.304211
818.984550	0.304402
819.174642	0.304589
819.364716	0.304786
819.554771	0.305092
819.744808	0.305815
819.934827	0.306234
820.124827	0.306429
820.314810	0.306575
820.504774	0.306594
820.694720	0.306892
820.884647	0.307537
821.074557	0.307942
821.264448	0.308294
821.454321	0.308356
821.644176	0.308600
821.834012	0.309057
822.023831	0.309564
822.213631	0.310365
822.403413	0.310670
822.593176	0.311122
822.782922	0.311458
822.972649	0.311815
823.162358	0.312451
823.352049	0.312980
823.541721	0.313269
823.731376	0.313686
823.921012	0.313752
824.110629	0.314486
824.300229	0.314656
824.489811	0.315303
824.679374	0.315645
824.868919	0.315897
825.058445	0.316664
825.247954	0.317279
825.437444	0.317562
825.626916	0.318229
825.816370	0.318581
826.005806	0.319018
826.195223	0.319154
826.384622	0.319632
826.574003	0.319953
826.763366	0.320041
826.952711	0.320276
827.142037	0.320877
827.331345	0.321172
827.520635	0.321437
827.709906	0.321961
827.899160	0.322395
828.088395	0.322889
828.277612	0.323284
828.466810	0.323818
828.655991	0.324382
828.845153	0.324772
829.034297	0.325164
829.223423	0.325973
829.412531	0.326283
829.601620	0.326414
829.790691	0.327050
829.979744	0.327282
830.168779	0.327689
830.357795	0.327945
830.546793	0.328203
830.735773	0.328837
830.924735	0.328851
831.113679	0.329433
831.302604	0.330692
831.491511	0.331187
831.680400	0.331820
831.869271	0.332198
832.058123	0.332930
832.246957	0.333282
832.435773	0.333464
832.624571	0.334032
832.813351	0.334392
833.002112	0.334716
833.190855	0.335166
833.379580	0.336073
833.568287	0.336508
833.756975	0.336792
833.945645	0.337596
834.134297	0.338347
834.322931	0.339052
834.511547	0.339512
834.700144	0.339605
834.888723	0.340017
835.077284	0.340400
835.265826	0.340995
835.454351	0.341342
835.642857	0.342016
835.831345	0.342449
836.019815	0.342800
836.208266	0.343347
836.396699	0.343736
836.585114	0.344055
836.773511	0.344356
836.961890	0.344732
837.150250	0.345540
837.338592	0.345745
837.526916	0.346203
837.715222	0.346743
837.903510	0.347138
838.091779	0.347735
838.280030	0.348077
838.468263	0.348735
838.656477	0.348741
838.844674	0.348906
839.032852	0.349318
839.221012	0.349621
839.409153	0.350149
839.597277	0.350717
839.785382	0.351063
839.973469	0.351583
840.161538	0.351983
840.349589	0.352761
840.537621	0.353356
840.725635	0.353811
840.913631	0.354496
841.101609	0.354771
841.289568	0.355088
841.477509	0.355989
841.665432	0.356479
841.853337	0.356762
842.041224	0.357861
842.229092	0.358297
842.416942	0.358981
842.604774	0.359216
842.792588	0.360037
842.980383	0.360563
843.168160	0.360528
843.355919	0.361419
843.543660	0.362013
843.731382	0.362138
843.919087	0.362659
844.106773	0.363232
844.294441	0.363761
844.482090	0.363965
844.669722	0.364562
844.857335	0.365858
845.044930	0.366057
845.232507	0.366567
845.420065	0.367226
845.607605	0.367658
845.795127	0.368130
845.982631	0.369199
846.170117	0.369941
846.357584	0.370558
846.545033	0.370753
846.732464	0.371471
846.919877	0.372127
847.107272	0.373006
847.294648	0.373652
847.482006	0.374314
847.669346	0.374612
847.856667	0.375212
848.043971	0.375547
848.231256	0.376230
848.418523	0.376431
848.605771	0.376849
848.793002	0.376775
848.980214	0.377539
849.167408	0.377821
849.354584	0.378662
849.541742	0.378838
849.728881	0.379365
849.916002	0.379637
850.103105	0.380462
850.290190	0.381059
850.477256	0.381527
850.664304	0.381778
850.851334	0.382143
851.038346	0.381853
851.225340	0.382634
851.412315	0.383238
851.599272	0.383736
851.786211	0.384184
851.973132	0.384359
852.160034	0.384619
852.346918	0.384721
852.533784	0.384902
852.720632	0.385767
852.907462	0.385994
853.094273	0.386413
853.281066	0.386365
853.467841	0.386491
853.654598	0.386917
853.841336	0.387466
854.028056	0.388473
854.214758	0.388966
854.401442	0.389218
854.588107	0.389776
854.774755	0.390198
854.961384	0.390594
855.147995	0.390990
855.334587	0.390934
855.521162	0.391408
855.707718	0.391837
855.894256	0.392574
856.080775	0.393195
856.267277	0.393305
856.453760	0.393740
856.640225	0.394539
856.826672	0.395356
857.013101	0.396337
857.199511	0.396900
857.385903	0.397299
857.572277	0.397559
857.758633	0.397785
857.944970	0.398129
858.131290	0.398444
858.317591	0.399210
858.503873	0.399455
858.690138	0.399949
858.876384	0.400474
859.062612	0.401097
859.248822	0.401735
859.435014	0.402179
859.621188	0.402930
859.807343	0.403132
859.993480	0.403058
860.179599	0.403791
860.365699	0.403930
860.551781	0.404188
860.737846	0.404253
860.923891	0.404956
861.109919	0.405383
861.295929	0.405500
861.481920	0.406063
861.667893	0.406353
861.853848	0.406147
862.039784	0.406697
862.225702	0.407256
862.411603	0.407374
862.597484	0.407401
862.783348	0.407543
862.969193	0.408167
863.155021	0.408751
863.340830	0.409529
863.526620	0.410192
863.712393	0.410865
863.898147	0.411150
864.083883	0.411398
864.269601	0.412111
864.455301	0.412816
864.640982	0.413173
864.826645	0.413612
865.012290	0.413913
865.197917	0.414273
865.383526	0.414671
865.569116	0.415411
865.754688	0.416473
865.940242	0.416973
866.125777	0.417445
866.311295	0.417791
866.496794	0.418343
866.682275	0.418996
866.867737	0.419678
867.053182	0.419690
867.238608	0.419963
867.424016	0.420128
867.609406	0.420102
867.794778	0.420988
867.980131	0.421308
868.165466	0.421515
868.350783	0.421638
868.536082	0.421907
868.721362	0.422663
868.906625	0.423006
869.091869	0.423293
869.277094	0.423839
869.462302	0.423768
869.647491	0.424047
869.832662	0.424711
870.017815	0.425015
870.202950	0.425245
870.388066	0.425545
870.573165	0.426057
870.758245	0.426389
870.943306	0.426608
871.128350	0.426894
871.313375	0.427327
871.498382	0.427330
871.683371	0.427728
871.868342	0.427918
872.053294	0.427788
872.238229	0.427912
872.423144	0.427891
872.608042	0.428347
872.792922	0.428333
872.977783	0.428672
873.162626	0.428242
873.347451	0.428785
873.532258	0.429165
873.717046	0.430095
873.901816	0.430321
874.086568	0.431427
874.271302	0.431233
874.456017	0.432020
874.640715	0.432848
874.825394	0.433655
875.010055	0.434299
875.194697	0.434833
875.379322	0.434682
875.563928	0.435045
875.748516	0.434931
875.933085	0.435437
876.117637	0.435716
876.302170	0.435245
876.486685	0.435037
876.671182	0.434852
876.855661	0.434852
877.040121	0.435535
877.224563	0.435546
877.408987	0.435674
877.593393	0.435791
877.777780	0.435520
877.962150	0.435811
878.146501	0.436764
878.330833	0.436377
878.515148	0.436805
878.699444	0.436620
878.883722	0.437167
879.067982	0.437395
879.252224	0.438185
879.436447	0.438760
879.620653	0.439074
879.804840	0.439049
879.989008	0.439608
880.173159	0.439566
880.357291	0.439865
880.541405	0.439957
880.725501	0.439946
880.909579	0.440396
881.093638	0.440438
881.277680	0.441118
881.461703	0.441535
881.645707	0.442076
881.829694	0.442427
882.013662	0.443198
882.197612	0.443320
882.381544	0.444188
882.565458	0.443517
882.749353	0.443467
882.933230	0.443004
883.117089	0.443300
883.300930	0.442990
883.484753	0.442696
883.668557	0.442292
883.852343	0.442297
884.036111	0.441857
884.219861	0.441662
884.403592	0.441494
884.587305	0.441697
884.771000	0.441509
884.954677	0.441895
885.138335	0.441984
885.321976	0.442472
885.505598	0.442018
885.689201	0.442026
885.872787	0.442216
886.056354	0.442729
886.239904	0.442488
886.423434	0.442396
886.606947	0.442270
886.790442	0.442209
886.973918	0.441463
887.157376	0.441881
887.340816	0.441983
887.524237	0.442116
887.707641	0.441619
887.891026	0.442171
888.074393	0.442064
888.257741	0.442521
888.441072	0.442786
888.624384	0.442417
888.807678	0.442550
888.990954	0.442048
889.174211	0.441920
889.357451	0.441972
889.540672	0.441647
889.723875	0.441559
889.907059	0.440890
890.090226	0.440443
890.273374	0.440785
890.456504	0.440072
890.639616	0.440767
890.822709	0.440829
891.005785	0.441016
891.188842	0.440893
891.371881	0.441310
891.554901	0.441209
891.737904	0.441590
891.920888	0.441899
892.103854	0.442551
892.286802	0.441923
892.469731	0.441651
892.652643	0.441297
892.835536	0.441168
893.018410	0.440909
893.201267	0.440759
893.384106	0.440913
893.566926	0.440990
893.749728	0.440799
893.932511	0.440828
894.115277	0.441521
894.298024	0.441735
894.480753	0.440915
894.663464	0.440798
894.846157	0.441165
895.028831	0.440751
895.211487	0.440320
895.394125	0.439945
895.576745	0.440124
895.759346	0.439013
895.941930	0.439035
896.124495	0.439947
896.307041	0.440068
896.489570	0.439446
896.672080	0.439938
896.854573	0.439821
897.037046	0.440081
897.219502	0.439310
897.401940	0.439557
897.584359	0.439294
897.766760	0.438778
897.949143	0.438371
898.131507	0.438361
898.313854	0.437943
898.496182	0.437488
898.678492	0.436463
898.860783	0.436886
899.043057	0.437217
899.225312	0.436833
899.407549	0.436791
899.589768	0.436710
899.771968	0.436147
899.954151	0.435110
900.136315	0.434917
900.318461	0.435292
900.500588	0.435194
900.682698	0.434285
900.864789	0.434252
901.046862	0.434014
901.228917	0.433771
901.410953	0.433841
901.592971	0.433900
901.774972	0.433732
901.956953	0.432954
902.138917	0.432581
902.320862	0.431999
902.502790	0.431853
902.684699	0.431043
902.866589	0.430024
903.048462	0.429835
903.230316	0.429664
903.412152	0.428794
903.593970	0.428527
903.775770	0.427752
903.957551	0.427897
904.139314	0.427032
904.321059	0.426436
904.502786	0.426651
904.684494	0.425993
904.866185	0.424816
905.047857	0.424954
905.229510	0.424602
905.411146	0.423685
905.592763	0.422777
905.774363	0.422188
905.955943	0.422666
906.137506	0.421833
906.319051	0.421583
906.500577	0.421603
906.682085	0.420876
906.863575	0.420485
907.045046	0.420420
907.226500	0.420646
907.407935	0.420295
907.589352	0.419444
907.770750	0.419473
907.952131	0.419099
908.133493	0.418712
908.314837	0.418429
908.496163	0.417592
908.677470	0.417178
908.858760	0.415910
909.040031	0.416027
909.221284	0.414839
909.402518	0.413487
909.583735	0.412262
909.764933	0.411381
909.946113	0.410451
910.127275	0.410407
910.308418	0.409255
910.489544	0.409154
910.670651	0.407705
910.851740	0.407422
911.032810	0.407323
911.213863	0.406891
911.394897	0.405927
911.575913	0.405166
911.756911	0.405045
911.937890	0.405592
912.118851	0.404875
912.299794	0.404387
912.480719	0.403936
912.661626	0.402930
912.842514	0.402719
913.023384	0.402559
913.204236	0.401759
913.385070	0.400483
913.565886	0.399532
913.746683	0.398735
913.927462	0.398351
914.108223	0.397316
914.288965	0.396807
914.469690	0.395519
914.650396	0.395187
914.831084	0.395583
915.011754	0.394511
915.192405	0.393641
915.373038	0.393402
915.553653	0.392674
915.734250	0.392524
915.914829	0.392305
916.095389	0.392115
916.275931	0.391198
916.456455	0.389769
916.636961	0.389043
916.817448	0.388048
916.997917	0.387618
917.178368	0.386598
917.358801	0.385646
917.539216	0.384545
917.719612	0.383146
917.899990	0.382985
918.080350	0.382388
918.260692	0.382385
918.441015	0.382530
918.621320	0.381194
918.801607	0.381177
918.981876	0.380824
919.162127	0.379695
919.342359	0.380063
919.522573	0.378755
919.702769	0.378313
919.882947	0.377663
920.063106	0.376782
920.243247	0.375748
920.423370	0.375018
920.603475	0.374172
920.783562	0.373927
920.963630	0.372216
921.143680	0.371811
921.323712	0.370359
921.503725	0.370113
921.683721	0.369541
921.863698	0.369068
922.043657	0.367868
922.223598	0.366843
922.403520	0.366983
922.583424	0.366524
922.763311	0.366152
922.943178	0.365705
923.123028	0.364007
923.302859	0.362034
923.482673	0.360713
923.662467	0.360027
923.842244	0.358970
924.022003	0.357149
924.201743	0.356808
924.381465	0.355647
924.561169	0.355715
924.740854	0.354271
924.920522	0.354244
925.100171	0.353368
925.279802	0.352065
925.459414	0.351325
925.639009	0.350526
925.818585	0.349392
925.998143	0.348457
926.177683	0.346143
926.357205	0.345664
926.536708	0.344285
926.716193	0.344383
926.895660	0.343706
927.075109	0.343385
927.254539	0.342425
927.433951	0.341485
927.613345	0.339787
927.792721	0.339238
927.972079	0.338517
928.151418	0.336591
928.330739	0.334788
928.510042	0.334043
928.689327	0.332159
928.868593	0.330737
929.047841	0.329223
929.227071	0.327803
929.406283	0.326699
929.585476	0.324807
929.764652	0.324887
929.943809	0.323892
930.122948	0.322186
930.302068	0.321845
930.481171	0.320799
930.660255	0.320716
930.839321	0.320225
931.018369	0.319525
931.197398	0.319692
931.376409	0.317433
931.555402	0.316732
931.734377	0.315592
931.913334	0.314701
932.092272	0.313014
932.271192	0.311547
932.450094	0.310362
932.628978	0.308944
932.807844	0.307181
932.986691	0.306731
933.165520	0.305477
933.344331	0.305035
933.523123	0.303247
933.701898	0.302646
933.880654	0.301046
934.059392	0.299698
934.238111	0.298801
934.416813	0.298093
934.595496	0.296586
934.774161	0.294863
934.952808	0.293337
935.131437	0.291923
935.310047	0.291543
935.488639	0.290559
935.667213	0.289656
935.845769	0.288923
936.024306	0.286473
936.202825	0.286757
936.381326	0.285655
936.559809	0.284753
936.738274	0.283789
936.916720	0.281796
937.095148	0.280239
937.273558	0.278991
937.451950	0.277423
937.630323	0.277881
937.808678	0.275448
937.987015	0.274866
938.165334	0.274169
938.343635	0.272910
938.521917	0.271950
938.700181	0.271570
938.878427	0.271291
939.056655	0.269873
939.234864	0.267819
939.413055	0.266811
939.591228	0.264645
939.769383	0.262031
939.947519	0.261279
940.125638	0.259797
940.303738	0.259053
940.481820	0.257200
940.659883	0.256277
940.837929	0.254259
941.015956	0.253374
941.193965	0.253243
941.371955	0.252884
941.549928	0.252037
941.727882	0.251457
941.905818	0.249470
942.083736	0.247835
942.261636	0.246488
942.439517	0.246275
942.617380	0.245311
942.795225	0.243601
942.973052	0.242844
943.150860	0.241853
943.328651	0.240770
943.506423	0.239760
943.684176	0.239927
943.861912	0.238425
944.039629	0.236930
944.217328	0.235305
944.395009	0.233277
944.572672	0.230977
944.750317	0.228564
944.927943	0.227447
945.105551	0.226329
945.283141	0.224716
945.460712	0.223536
945.638265	0.222605
945.815801	0.220916
945.993317	0.220897
946.170816	0.219137
946.348297	0.218105
946.525759	0.214939
946.703203	0.213521
946.880629	0.210008
947.058036	0.208990
947.235425	0.207924
947.412797	0.206941
947.590149	0.205230
947.767484	0.203955
947.944800	0.203584
948.122099	0.203370
948.299379	0.202074
948.476640	0.202940
948.653884	0.200848
948.831109	0.199029
949.008316	0.199617
949.185505	0.198383
949.362676	0.198376
949.539828	0.196687
949.716962	0.197264
949.894078	0.196590
950.071176	0.196168
950.248256	0.195931
950.425317	0.195384
950.602360	0.193188
950.779385	0.193109
950.956391	0.192794
951.133380	0.190507
951.310350	0.188421
951.487302	0.187253
951.664235	0.186321
951.841151	0.187327
952.018048	0.185759
952.194927	0.184747
952.371788	0.183281
952.548631	0.181167
952.725455	0.180892
952.902261	0.179522
953.079049	0.175735
953.255819	0.173455
953.432570	0.171587
953.609303	0.172646
953.786018	0.173040
953.962715	0.173037
954.139394	0.172709
954.316054	0.175000
954.492696	0.174100
954.669320	0.176693
954.845926	0.176307
955.022513	0.173829
955.199083	0.170891
955.375634	0.168331
955.552166	0.166012
955.728681	0.165925
955.905177	0.163595
956.081655	0.163861
956.258115	0.162327
956.434557	0.159614
956.610980	0.159101
956.787385	0.157558
956.963772	0.158470
957.140141	0.157073
957.316492	0.155385
957.492824	0.153869
957.669138	0.151502
957.845434	0.151229
958.021712	0.152783
958.197971	0.153208
958.374212	0.154712
958.550435	0.153434
958.726640	0.154843
958.902826	0.154737
959.078995	0.154340
959.255145	0.156193
959.431277	0.156411
959.607390	0.154500
959.783486	0.151525
959.959563	0.151908
960.135622	0.150156
960.311662	0.150155
960.487685	0.149585
960.663689	0.148558
960.839675	0.146989
961.015643	0.147384
961.191593	0.146724
961.367524	0.147714
961.543437	0.145954
961.719332	0.147347
961.895209	0.149107
962.071067	0.147850
962.246907	0.148469
962.422730	0.149027
962.598533	0.146797
962.774319	0.145144
962.950086	0.144325
963.125835	0.142133
963.301566	0.142167
963.477279	0.139410
963.652973	0.142006
963.828650	0.140428
964.004308	0.140064
964.179947	0.141916
964.355569	0.145477
964.531172	0.145701
964.706757	0.146168
964.882324	0.146165
965.057873	0.145584
965.233403	0.142823
965.408916	0.142421
965.584410	0.142068
965.759885	0.139985
965.935343	0.138004
966.110782	0.137278
966.286203	0.137704
966.461606	0.135820
966.636991	0.135793
966.812357	0.136588
966.987705	0.138550
967.163035	0.137845
967.338347	0.136723
967.513641	0.137961
967.688916	0.139538
967.864173	0.139914
968.039412	0.141528
968.214632	0.143222
968.389835	0.144765
968.565019	0.143088
968.740185	0.142563
968.915333	0.142679
969.090462	0.142250
969.265573	0.141694
969.440667	0.141907
969.615741	0.141936
969.790798	0.140593
969.965836	0.137406
970.140856	0.138174
970.315858	0.138328
970.490842	0.140744
970.665808	0.140716
970.840755	0.143316
971.015684	0.142395
971.190595	0.140661
971.365487	0.140588
971.540362	0.141940
971.715218	0.143181
971.890056	0.143641
972.064875	0.141378
972.239677	0.139364
972.414460	0.136460
972.589225	0.137762
972.763972	0.139198
972.938700	0.141448
973.113411	0.142202
973.288103	0.141022
973.462777	0.142057
973.637432	0.143296
973.812070	0.144646
973.986689	0.143768
974.161290	0.141079
974.335873	0.139892
974.510437	0.139197
974.684984	0.137487
974.859512	0.139365
975.034022	0.137934
975.208513	0.136221
975.382987	0.135938
975.557442	0.138806
975.731879	0.141443
975.906298	0.141093
976.080698	0.139274
976.255080	0.142599
976.429445	0.142377
976.603790	0.142842
976.778118	0.143512
976.952427	0.146001
977.126719	0.145576
977.300992	0.145621
977.475246	0.145911
977.649483	0.146480
977.823701	0.146110
977.997901	0.144647
978.172083	0.145533
978.346247	0.144125
978.520392	0.144057
978.694519	0.142920
978.868628	0.141099
979.042719	0.141516
979.216791	0.142084
979.390845	0.140645
979.564882	0.142117
979.738899	0.139307
979.912899	0.139495
980.086880	0.138983
980.260843	0.139736
980.434788	0.142625
980.608715	0.143290
980.782623	0.142879
980.956514	0.141649
981.130386	0.139090
981.304240	0.140755
981.478075	0.141244
981.651892	0.139021
981.825692	0.139137
981.999472	0.137065
982.173235	0.135268
982.346980	0.135702
982.520706	0.137785
982.694414	0.139335
982.868104	0.138829
983.041775	0.139154
983.215428	0.141610
983.389064	0.142106
983.562680	0.143292
983.736279	0.145332
983.909860	0.146602
984.083422	0.145474
984.256966	0.145269
984.430491	0.146579
984.603999	0.149091
984.777488	0.145674
984.950959	0.144538
985.124412	0.143246
985.297847	0.141272
985.471263	0.138594
985.644661	0.138051
985.818041	0.136548
985.991403	0.136455
986.164747	0.135759
986.338072	0.137205
986.511379	0.139221
986.684668	0.138080
986.857938	0.140023
987.031191	0.139177
987.204425	0.140593
987.377641	0.141965
987.550839	0.142189
987.724018	0.141633
987.897179	0.142627
988.070322	0.139625
988.243447	0.141390
988.416554	0.141454
988.589642	0.142605
988.762712	0.142192
988.935764	0.142344
989.108798	0.142766
989.281813	0.143107
989.454811	0.141817
989.627790	0.143414
989.800751	0.143086
989.973693	0.143741
990.146617	0.144339
990.319524	0.144889
990.492412	0.144374
990.665281	0.142345
990.838133	0.142870
991.010966	0.143553
991.183781	0.143810
991.356578	0.143020
991.529356	0.140877
991.702117	0.141756
991.874859	0.140300
992.047583	0.139626
992.220288	0.139177
992.392976	0.137793
992.565645	0.137717
992.738296	0.138355
992.910929	0.137669
993.083543	0.138394
993.256139	0.137174
993.428718	0.139234
993.601277	0.139943
993.773819	0.142340
993.946342	0.143577
994.118848	0.144370
994.291335	0.140416
994.463803	0.143132
994.636254	0.143521
994.808686	0.144128
994.981100	0.142379
995.153496	0.142389
995.325874	0.139884
995.498233	0.140318
995.670574	0.137449
995.842897	0.139225
996.015202	0.139760
996.187488	0.140069
996.359757	0.139354
996.532007	0.140320
996.704239	0.139295
996.876452	0.139680
997.048648	0.138251
997.220825	0.140298
997.392984	0.140024
997.565124	0.139005
997.737247	0.138430
997.909351	0.140112
998.081437	0.141245
998.253505	0.144002
998.425554	0.146448
998.597586	0.147712
998.769599	0.147582
998.941594	0.147373
999.113571	0.147212
999.285529	0.145491
999.457469	0.144062
999.629391	0.141583
999.801295	0.138257
999.973181	0.138190
1000.145048	0.136070
1000.316897	0.135569
1000.488728	0.136550
1000.660541	0.135085
1000.832335	0.136317
1001.004111	0.137531
1001.175869	0.137267
1001.347609	0.138736
1001.519331	0.136462
1001.691034	0.136997
1001.862719	0.138640
1002.034386	0.139901
1002.206035	0.139949
1002.377665	0.139149
1002.549277	0.138279
1002.720871	0.139852
1002.892447	0.139880
1003.064004	0.141354
1003.235544	0.141703
1003.407065	0.140560
1003.578568	0.139904
1003.750052	0.141147
1003.921519	0.142806
1004.092967	0.143156
1004.264397	0.140376
1004.435809	0.142612
1004.607202	0.140246
1004.778577	0.138550
1004.949934	0.137736
1005.121273	0.137659
1005.292594	0.138452
1005.463896	0.137667
1005.635180	0.138622
1005.806446	0.141202
1005.977694	0.138100
1006.148923	0.140000
1006.320135	0.141279
1006.491328	0.143045
1006.662503	0.142697
1006.833659	0.141426
1007.004798	0.140656
1007.175918	0.137728
1007.347020	0.137169
1007.518103	0.136146
1007.689169	0.135686
1007.860216	0.135619
1008.031245	0.135363
1008.202256	0.134512
1008.373248	0.135167
1008.544223	0.135927
1008.715179	0.138089
1008.886117	0.138462
1009.057036	0.141025
1009.227938	0.141477
1009.398821	0.141411
1009.569686	0.140826
1009.740533	0.142823
1009.911361	0.142124
1010.082172	0.142197
1010.252964	0.140306
1010.423738	0.140683
1010.594493	0.140859
1010.765231	0.140192
1010.935950	0.141537
1011.106651	0.142237
1011.277334	0.140473
1011.447998	0.140105
1011.618645	0.140179
1011.789273	0.141528
1011.959882	0.140065
1012.130474	0.137940
1012.301048	0.139045
1012.471603	0.139985
1012.642140	0.139549
1012.812658	0.141160
1012.983159	0.141358
1013.153641	0.141409
1013.324105	0.142513
1013.494551	0.143220
1013.664979	0.143852
1013.835388	0.143563
1014.005779	0.140331
1014.176152	0.140311
1014.346507	0.137913
1014.516843	0.138419
1014.687162	0.138512
1014.857462	0.136105
1015.027744	0.136949
1015.198007	0.136626
1015.368252	0.136985
1015.538480	0.139452
1015.708689	0.139346
1015.878879	0.140212
1016.049052	0.141178
1016.219206	0.141231
1016.389342	0.142184
1016.559460	0.139764
1016.729559	0.140580
1016.899641	0.139852
1017.069704	0.138450
1017.239749	0.138314
1017.409775	0.136208
1017.579784	0.133621
1017.749774	0.133527
1017.919746	0.132908
1018.089700	0.136708
1018.259635	0.136170
1018.429553	0.135996
1018.599452	0.135396
1018.769333	0.134699
1018.939195	0.136743
1019.109040	0.138819
1019.278866	0.138575
1019.448674	0.138191
1019.618464	0.135748
1019.788235	0.136488
1019.957989	0.135434
1020.127724	0.137674
1020.297441	0.138073
1020.467139	0.139739
1020.636820	0.138643
1020.806482	0.139236
1020.976126	0.139810
1021.145752	0.139516
1021.315359	0.140549
1021.484948	0.141511
1021.654519	0.139063
1021.824072	0.139551
1021.993607	0.138216
1022.163123	0.138490
1022.332621	0.137408
1022.502101	0.138836
1022.671563	0.138678
1022.841007	0.138158
1023.010432	0.137434
1023.179839	0.139262
1023.349228	0.138826
1023.518598	0.138245
1023.687951	0.136928
1023.857285	0.135487
1024.026601	0.136370
1024.195899	0.138013
1024.365178	0.136800
1024.534439	0.137073
1024.703682	0.134750
1024.872907	0.136717
1025.042114	0.137116
1025.211302	0.138269
1025.380472	0.140727
1025.549624	0.137649
1025.718758	0.136734
1025.887873	0.138544
1026.056970	0.140170
1026.226049	0.140790
1026.395110	0.137671
1026.564153	0.137061
1026.733177	0.136962
1026.902183	0.135327
1027.071171	0.136143
1027.240141	0.134379
1027.409092	0.133237
1027.578026	0.132830
1027.746940	0.132490
1027.915837	0.134062
1028.084716	0.135724
1028.253576	0.135483
1028.422418	0.136006
1028.591242	0.135348
1028.760048	0.137055
1028.928835	0.137577
1029.097604	0.136568
1029.266355	0.137037
1029.435088	0.136053
1029.603803	0.135356
1029.772499	0.134643
1029.941177	0.135257
1030.109837	0.135205
1030.278478	0.136161
1030.447102	0.135987
1030.615707	0.136178
1030.784294	0.136704
1030.952863	0.134842
1031.121413	0.135548
1031.289945	0.138465
1031.458460	0.136021
1031.626955	0.138099
1031.795433	0.137973
1031.963892	0.138848
1032.132334	0.139272
1032.300756	0.139000
1032.469161	0.141315
1032.637548	0.140652
1032.805916	0.138425
1032.974266	0.140506
1033.142598	0.141726
1033.310911	0.140461
1033.479207	0.138878
1033.647484	0.139292
1033.815743	0.137464
1033.983983	0.138921
1034.152206	0.139652
1034.320410	0.139986
1034.488596	0.138296
1034.656764	0.134816
1034.824914	0.133867
1034.993045	0.133475
1035.161158	0.133143
1035.329253	0.134233
1035.497330	0.132086
1035.665388	0.128874
1035.833428	0.128140
1036.001450	0.130139
1036.169454	0.131474
1036.337440	0.134202
1036.505407	0.135300
1036.673356	0.135778
1036.841287	0.136454
1037.009200	0.137250
1037.177094	0.138246
1037.344970	0.141167
1037.512828	0.142043
1037.680668	0.142116
1037.848489	0.142360
1038.016293	0.141495
1038.184078	0.140935
1038.351845	0.141458
1038.519593	0.141595
1038.687324	0.143791
1038.855036	0.141228
1039.022730	0.139368
1039.190406	0.139961
1039.358063	0.136402
1039.525702	0.135737
1039.693323	0.135169
1039.860926	0.133035
1040.028511	0.132272
1040.196077	0.131013
1040.363625	0.132288
1040.531155	0.133391
1040.698667	0.132330
1040.866161	0.131441
1041.033636	0.133122
1041.201093	0.133714
1041.368532	0.135407
1041.535952	0.135641
1041.703355	0.134270
1041.870739	0.135157
1042.038105	0.134364
1042.205452	0.133578
1042.372782	0.137733
1042.540093	0.135860
1042.707386	0.135416
1042.874661	0.135718
1043.041918	0.137148
1043.209156	0.139649
1043.376376	0.138478
1043.543578	0.137686
1043.710762	0.137904
1043.877927	0.135397
1044.045074	0.135431
1044.212203	0.136220
1044.379314	0.134927
1044.546407	0.133129
1044.713481	0.131020
1044.880537	0.128733
1045.047575	0.128701
1045.214595	0.129881
1045.381596	0.131298
1045.548579	0.130157
1045.715544	0.127509
1045.882491	0.128658
1046.049420	0.128659
1046.216330	0.130533
1046.383222	0.130545
1046.550096	0.132091
1046.716951	0.132018
1046.883789	0.129815
1047.050608	0.129948
1047.217409	0.132170
1047.384192	0.131412
1047.550956	0.132160
1047.717703	0.130556
1047.884431	0.132538
1048.051140	0.132089
1048.217832	0.131775
1048.384505	0.132137
1048.551161	0.132195
1048.717798	0.133100
1048.884416	0.134132
1049.051017	0.134309
1049.217599	0.134336
1049.384163	0.132675
1049.550709	0.134105
1049.717237	0.133636
1049.883746	0.133216
1050.050237	0.134348
1050.216710	0.133575
1050.383165	0.131938
1050.549601	0.131587
1050.716019	0.133603
1050.882420	0.134492
1051.048801	0.133903
1051.215165	0.132391
1051.381510	0.134138
1051.547837	0.133804
1051.714146	0.135673
1051.880437	0.136499
1052.046709	0.135249
1052.212964	0.132814
1052.379200	0.132001
1052.545417	0.130126
1052.711617	0.132364
1052.877798	0.131141
1053.043961	0.131318
1053.210106	0.128675
1053.376233	0.128552
1053.542341	0.129563
1053.708432	0.130710
1053.874504	0.132096
1054.040557	0.133262
1054.206593	0.131614
1054.372610	0.132972
1054.538609	0.134204
1054.704590	0.132758
1054.870553	0.133654
1055.036497	0.135394
1055.202424	0.135809
1055.368331	0.136451
1055.534221	0.139014
1055.700093	0.139561
1055.865946	0.139649
1056.031781	0.140725
1056.197598	0.142298
1056.363397	0.141113
1056.529177	0.139957
1056.694939	0.137103
1056.860683	0.139210
1057.026409	0.137051
1057.192116	0.138957
1057.357806	0.139240
1057.523477	0.136420
1057.689130	0.136209
1057.854764	0.138516
1058.020381	0.140116
1058.185979	0.141177
1058.351559	0.137519
1058.517120	0.137470
1058.682664	0.135906
1058.848189	0.135618
1059.013696	0.135949
1059.179185	0.137200
1059.344656	0.135433
1059.510108	0.132664
1059.675542	0.133415
1059.840958	0.133350
1060.006356	0.134097
1060.171735	0.132510
1060.337096	0.130875
1060.502439	0.132288
1060.667764	0.132818
1060.833071	0.131536
1060.998359	0.131450
1061.163629	0.130381
1061.328881	0.131432
1061.494115	0.132756
1061.659330	0.136551
1061.824527	0.138529
1061.989706	0.138217
1062.154867	0.136667
1062.320010	0.140282
1062.485134	0.142429
1062.650240	0.145277
1062.815328	0.145867
1062.980398	0.143843
1063.145449	0.140731
1063.310482	0.140822
1063.475497	0.139035
1063.640494	0.140606
1063.805473	0.137587
1063.970433	0.137520
1064.135375	0.137071
1064.300299	0.135577
1064.465204	0.135492
1064.630092	0.137921
1064.794961	0.136961
1064.959812	0.139698
1065.124645	0.136710
1065.289459	0.136496
1065.454256	0.135381
1065.619034	0.133272
1065.783793	0.133437
1065.948535	0.132495
1066.113258	0.131420
1066.277964	0.133232
1066.442651	0.133000
1066.607319	0.135667
1066.771970	0.135889
1066.936602	0.135482
1067.101216	0.136956
1067.265812	0.136891
1067.430389	0.138796
1067.594949	0.139915
1067.759490	0.139498
1067.924013	0.139832
1068.088518	0.139783
1068.253004	0.140452
1068.417472	0.141435
1068.581922	0.141245
1068.746354	0.144317
1068.910768	0.142153
1069.075163	0.138748
1069.239540	0.139350
1069.403899	0.140067
1069.568240	0.138933
1069.732562	0.140824
1069.896866	0.140699
1070.061152	0.140030
1070.225420	0.139964
1070.389670	0.139741
1070.553901	0.140813
1070.718114	0.138911
1070.882309	0.135915
1071.046486	0.132846
1071.210644	0.131875
1071.374784	0.134835
1071.538906	0.136903
1071.703010	0.134064
1071.867096	0.133379
1072.031163	0.136513
1072.195212	0.137692
1072.359243	0.139638
1072.523256	0.144979
1072.687250	0.144790
1072.851226	0.142754
1073.015184	0.142025
1073.179124	0.143862
1073.343045	0.146905
1073.506949	0.142682
1073.670834	0.141807
1073.834701	0.142636
1073.998549	0.139252
1074.162380	0.139137
1074.326192	0.137214
1074.489986	0.134014
1074.653761	0.135710
1074.817519	0.136302
1074.981258	0.137598
1075.144979	0.140039
1075.308682	0.137045
1075.472367	0.137964
1075.636033	0.139809
1075.799681	0.140764
1075.963311	0.142498
1076.126923	0.141071
1076.290516	0.138325
1076.454092	0.139285
1076.617649	0.135660
1076.781187	0.136863
1076.944708	0.139917
1077.108210	0.137157
1077.271695	0.137020
1077.435160	0.136601
1077.598608	0.135626
1077.762038	0.135592
1077.925449	0.136901
1078.088842	0.139167
1078.252217	0.140646
1078.415573	0.140948
1078.578912	0.141436
1078.742232	0.145240
1078.905534	0.149527
1079.068817	0.150460
1079.232083	0.151123
1079.395330	0.149562
1079.558559	0.148741
1079.721770	0.149628
1079.884962	0.145959
1080.048136	0.147420
1080.211293	0.144158
1080.374430	0.142241
1080.537550	0.144594
1080.700651	0.146303
1080.863735	0.145985
1081.026800	0.147853
1081.189846	0.148098
1081.352875	0.146844
1081.515885	0.147100
1081.678877	0.145467
1081.841851	0.146127
1082.004807	0.142911
1082.167744	0.142753
1082.330663	0.141592
1082.493564	0.139069
1082.656447	0.138207
1082.819312	0.144706
1082.982158	0.144208
1083.144986	0.148052
1083.307796	0.144417
1083.470587	0.144198
1083.633361	0.144188
1083.796116	0.147201
1083.958853	0.150708
1084.121571	0.154096
1084.284272	0.153388
1084.446954	0.152670
1084.609618	0.153492
1084.772264	0.160005
1084.934892	0.163939
1085.097501	0.165653
1085.260092	0.161971
1085.422665	0.158755
1085.585220	0.155402
1085.747756	0.152515
1085.910274	0.154657
1086.072774	0.152111
1086.235256	0.146831
1086.397720	0.142652
1086.560165	0.142134
1086.722592	0.146877
1086.885001	0.147216
1087.047392	0.146634
1087.209764	0.144515
1087.372119	0.144496
1087.534455	0.145332
1087.696772	0.147533
1087.859072	0.150750
1088.021353	0.150004
1088.183616	0.149894
1088.345861	0.151031
1088.508088	0.151555
1088.670296	0.155810
1088.832486	0.153718
1088.994658	0.152312
1089.156812	0.151755
1089.318948	0.151343
1089.481065	0.150275
1089.643164	0.147613
1089.805245	0.147126
1089.967308	0.145453
1090.129352	0.143492
1090.291378	0.145253
1090.453386	0.143417
1090.615376	0.143272
1090.777347	0.141351
1090.939301	0.137246
1091.101236	0.139062
1091.263153	0.139114
1091.425051	0.140665
1091.586932	0.140275
1091.748794	0.137017
1091.910638	0.140592
1092.072463	0.143039
1092.234271	0.143105
1092.396060	0.149883
1092.557831	0.152426
1092.719584	0.156222
1092.881319	0.156808
1093.043035	0.157926
1093.204733	0.161686
1093.366413	0.160626
1093.528075	0.162914
1093.689718	0.161989
1093.851343	0.159024
1094.012950	0.158657
1094.174539	0.157091
1094.336110	0.155186
1094.497662	0.155756
1094.659196	0.154583
1094.820712	0.153446
1094.982210	0.149731
1095.143689	0.150314
1095.305151	0.148352
1095.466594	0.145418
1095.628018	0.145777
1095.789425	0.145517
1095.950813	0.145395
1096.112183	0.143224
1096.273535	0.144410
1096.434869	0.143451
1096.596184	0.145537
1096.757482	0.149566
1096.918761	0.149283
1097.080021	0.146136
1097.241264	0.144265
1097.402488	0.144369
1097.563694	0.145227
1097.724882	0.146262
1097.886052	0.150389
1098.047203	0.148779
1098.208336	0.148094
1098.369451	0.145573
1098.530548	0.145380
1098.691627	0.151999
1098.852687	0.151318
1099.013729	0.153509
1099.174753	0.153363
1099.335758	0.146338
1099.496746	0.147235
1099.657715	0.148894
1099.818666	0.151050
1099.979599	0.154863
1100.140513	0.150804
1100.301409	0.148732
1100.462287	0.148672
1100.623147	0.146217
1100.783989	0.152483
1100.944812	0.151818
1101.105617	0.152668
1101.266404	0.155317
1101.427173	0.155119
1101.587923	0.156105
1101.748656	0.158718
1101.909370	0.159273
1102.070066	0.156779
1102.230743	0.151886
1102.391403	0.153694
1102.552044	0.149851
1102.712667	0.151529
1102.873271	0.151723
1103.033858	0.155421
1103.194426	0.159637
1103.354976	0.155565
1103.515508	0.158898
1103.676021	0.165552
1103.836517	0.166462
1103.996994	0.168155
1104.157453	0.159841
1104.317893	0.160265
1104.478316	0.159090
1104.638720	0.153744
1104.799106	0.159319
1104.959474	0.162184
1105.119823	0.161691
1105.280155	0.165589
1105.440468	0.167835
1105.600763	0.174985
1105.761039	0.167968
1105.921298	0.165581
1106.081538	0.169462
1106.241760	0.170461
1106.401964	0.165729
1106.562149	0.164492
1106.722316	0.164394
1106.882465	0.161747
1107.042596	0.160732
1107.202709	0.161376
1107.362803	0.164674
1107.522879	0.165677
1107.682937	0.165527
1107.842977	0.172042
1108.002999	0.173473
1108.163002	0.164699
1108.322987	0.164426
1108.482954	0.169204
1108.642902	0.167490
1108.802833	0.164141
1108.962745	0.164609
1109.122639	0.159523
1109.282515	0.158942
1109.442372	0.161708
1109.602211	0.167126
1109.762032	0.171410
1109.921835	0.162957
1110.081620	0.172982
1110.241386	0.173903
1110.401134	0.170288
1110.560864	0.175095
1110.720576	0.173026
1110.880269	0.166827
1111.039945	0.166379
1111.199602	0.163684
1111.359240	0.162165
1111.518861	0.157799
1111.678463	0.159437
1111.838047	0.157692
1111.997613	0.158531
1112.157161	0.154638
1112.316690	0.155097
1112.476202	0.158096
1112.635695	0.158343
1112.795169	0.162880
1112.954626	0.167040
1113.114064	0.165552
1113.273484	0.164340
1113.432886	0.164572
1113.592270	0.166421
1113.751635	0.164650
1113.910983	0.159058
1114.070312	0.160048
1114.229622	0.162731
1114.388915	0.163419
1114.548189	0.157625
1114.707445	0.160251
1114.866683	0.156214
1115.025903	0.159326
1115.185104	0.161911
1115.344287	0.167745
1115.503452	0.165101
1115.662599	0.163156
1115.821727	0.162398
1115.980838	0.176237
1116.139930	0.178972
1116.299004	0.179596
1116.458059	0.182218
1116.617097	0.188613
1116.776116	0.185321
1116.935117	0.190331
1117.094099	0.187684
1117.253064	0.183524
1117.412010	0.171699
1117.570938	0.173028
1117.729848	0.175976
1117.888740	0.169560
1118.047613	0.162191
1118.206468	0.159174
1118.365305	0.155900
1118.524124	0.157881
1118.682924	0.157367
1118.841707	0.165553
1119.000471	0.161201
1119.159216	0.159441
1119.317944	0.161937
1119.476653	0.159638
1119.635344	0.159229
1119.794017	0.162383
1119.952672	0.167838
1120.111308	0.172126
1120.269927	0.170067
1120.428527	0.176372
1120.587108	0.178492
1120.745672	0.180740
1120.904217	0.177708
1121.062744	0.179643
1121.221253	0.176343
1121.379744	0.168002
1121.538216	0.167790
1121.696671	0.172060
1121.855107	0.164462
1122.013524	0.159396
1122.171924	0.158345
1122.330305	0.167705
1122.488668	0.168978
1122.647013	0.170815
1122.805340	0.170780
1122.963648	0.164838
1123.121938	0.160896
1123.280210	0.166305
1123.438464	0.170378
1123.596700	0.179700
1123.754917	0.184328
1123.913116	0.184975
1124.071297	0.185681
1124.229459	0.193005
1124.387604	0.194125
1124.545730	0.198705
1124.703838	0.203621
1124.861928	0.202891
1125.019999	0.193000
1125.178052	0.192039
1125.336088	0.199069
1125.494104	0.197527
1125.652103	0.193482
1125.810083	0.197402
1125.968045	0.190473
1126.125989	0.186615
1126.283915	0.181608
1126.441823	0.176870
1126.599712	0.170470
1126.757583	0.162158
1126.915436	0.163748
1127.073270	0.159147
1127.231087	0.166962
1127.388885	0.166650
1127.546665	0.167384
1127.704426	0.168593
1127.862170	0.173349
1128.019895	0.177963
1128.177602	0.172968
1128.335291	0.168114
1128.492961	0.179376
1128.650614	0.174546
1128.808248	0.170138
1128.965864	0.161923
1129.123461	0.164355
1129.281041	0.169171
1129.438602	0.171359
1129.596145	0.178396
1129.753670	0.187078
1129.911176	0.185077
1130.068665	0.176535
1130.226135	0.190789
1130.383587	0.199499
1130.541020	0.199720
1130.698436	0.206258
1130.855833	0.201990
1131.013212	0.200684
1131.170573	0.189198
1131.327915	0.186691
1131.485239	0.189071
1131.642545	0.186149
1131.799833	0.178195
1131.957103	0.181452
1132.114354	0.169142
1132.271588	0.160956
1132.428803	0.163212
1132.585999	0.170478
1132.743178	0.180276
1132.900338	0.179584
1133.057480	0.181074
1133.214604	0.190449
1133.371710	0.190496
1133.528797	0.189704
1133.685866	0.205075
1133.842917	0.203277
1133.999950	0.195027
1134.156964	0.189318
1134.313960	0.184914
1134.470938	0.185890
1134.627898	0.174510
1134.784840	0.171650
1134.941763	0.170220
1135.098668	0.155074
1135.255555	0.160743
1135.412424	0.166483
1135.569274	0.176210
1135.726107	0.183309
1135.882921	0.179799
1136.039716	0.190376
1136.196494	0.197416
1136.353253	0.208832
1136.509995	0.216373
1136.666717	0.212917
1136.823422	0.220088
1136.980109	0.210539
1137.136777	0.205019
1137.293427	0.202413
1137.450059	0.201953
1137.606672	0.199069
1137.763267	0.180398
1137.919844	0.183614
1138.076403	0.180452
1138.232944	0.175496
1138.389466	0.167957
1138.545971	0.181106
1138.702457	0.174042
1138.858924	0.168665
1139.015374	0.161081
1139.171805	0.174200
1139.328218	0.167160
1139.484613	0.168472
1139.640990	0.175018
1139.797348	0.185925
1139.953688	0.177023
1140.110010	0.178920
1140.266314	0.185552
1140.422600	0.199007
1140.578867	0.202632
1140.735116	0.205019
1140.891347	0.211276
1141.047559	0.190241
1141.203754	0.184863
1141.359930	0.190384
1141.516088	0.193608
1141.672228	0.201025
1141.828349	0.204460
1141.984452	0.195454
1142.140537	0.187673
1142.296604	0.188433
1142.452653	0.209843
1142.608683	0.214880
1142.764695	0.202737
1142.920689	0.200870
1143.076665	0.182364
1143.232622	0.174988
1143.388562	0.184237
1143.544483	0.203914
1143.700385	0.204024
1143.856270	0.200910
1144.012136	0.194195
1144.167985	0.198864
1144.323814	0.202422
1144.479626	0.211981
1144.635420	0.213485
1144.791195	0.209846
1144.946952	0.196912
1145.102691	0.190305
1145.258411	0.190622
1145.414113	0.183833
1145.569798	0.184881
1145.725463	0.166555
1145.881111	0.162657
1146.036741	0.155377
1146.192352	0.154199
1146.347945	0.157221
1146.503519	0.146171
1146.659076	0.152217
1146.814614	0.147650
1146.970134	0.153379
1147.125636	0.161369
1147.281120	0.165618
1147.436585	0.163147
1147.592032	0.167233
1147.747461	0.165995
1147.902872	0.182297
1148.058265	0.164589
1148.213639	0.158958
1148.368995	0.156768
1148.524333	0.168239
1148.679653	0.171868
1148.834954	0.172722
1148.990237	0.162425
1149.145502	0.161488
1149.300749	0.155640
1149.455977	0.166821
1149.611188	0.182511
1149.766380	0.177870
1149.921553	0.165853
1150.076709	0.159604
1150.231846	0.181694
1150.386966	0.205176
1150.542066	0.213263
1150.697149	0.209018
1150.852214	0.191291
1151.007260	0.203157
1151.162288	0.206275
1151.317298	0.222618
1151.472289	0.226751
1151.627263	0.208736
1151.782218	0.184181
1151.937155	0.186004
1152.092073	0.187247
1152.246974	0.193064
1152.401856	0.181745
1152.556720	0.169343
1152.711566	0.160202
1152.866393	0.155391
1153.021203	0.162627
1153.175994	0.175024
1153.330767	0.166936
1153.485521	0.172906
1153.640258	0.181187
1153.794976	0.177252
1153.949676	0.182871
1154.104358	0.187905
1154.259021	0.189383
1154.413667	0.183068
1154.568294	0.173319
1154.722903	0.181513
1154.877493	0.177342
1155.032066	0.163822
1155.186620	0.169669
1155.341156	0.173934
1155.495674	0.175644
1155.650173	0.179138
1155.804654	0.184841
1155.959118	0.204216
1156.113562	0.199180
1156.267989	0.192664
1156.422397	0.204571
1156.576788	0.177223
1156.731160	0.187144
1156.885513	0.171250
1157.039849	0.174845
1157.194166	0.166943
1157.348465	0.151421
1157.502746	0.158460
1157.657009	0.164729
1157.811253	0.178486
1157.965479	0.208694
1158.119687	0.198433
1158.273877	0.205609
1158.428048	0.195995
1158.582201	0.199354
1158.736337	0.197124
1158.890453	0.193289
1159.044552	0.196950
1159.198632	0.162860
1159.352694	0.162430
1159.506738	0.171706
1159.660764	0.177315
1159.814771	0.176481
1159.968761	0.179909
1160.122732	0.175917
1160.276685	0.167661
1160.430619	0.167908
1160.584535	0.176428
1160.738434	0.167884
1160.892313	0.154892
1161.046175	0.158250
1161.200019	0.144978
1161.353844	0.133998
1161.507651	0.153614
1161.661440	0.166601
1161.815210	0.159341
1161.968962	0.184729
1162.122697	0.195685
1162.276412	0.213956
1162.430110	0.205497
1162.583789	0.232617
1162.737451	0.233103
1162.891094	0.207065
1163.044718	0.184578
1163.198325	0.186536
1163.351913	0.172579
1163.505483	0.148699
1163.659035	0.133266
1163.812569	0.139053
1163.966084	0.144785
1164.119581	0.143275
1164.273060	0.155381
1164.426521	0.164402
1164.579964	0.173905
1164.733388	0.176782
1164.886794	0.174725
1165.040182	0.172515
1165.193551	0.184372
1165.346903	0.181842
1165.500236	0.180945
1165.653551	0.176318
1165.806848	0.155519
1165.960126	0.128349
1166.113386	0.115287
1166.266628	0.144209
1166.419852	0.153959
1166.573058	0.142165
1166.726245	0.120049
1166.879414	0.122094
1167.032565	0.121591
1167.185698	0.147016
1167.338812	0.169653
1167.491909	0.186202
1167.644987	0.148803
1167.798046	0.163077
1167.951088	0.154831
1168.104111	0.167202
1168.257117	0.177798
1168.410103	0.186063
1168.563072	0.164553
1168.716023	0.176058
1168.868955	0.157204
1169.021869	0.177026
1169.174765	0.156565
1169.327642	0.161835
1169.480501	0.148590
1169.633343	0.161219
1169.786165	0.128454
1169.938970	0.151255
1170.091757	0.129899
1170.244525	0.142497
1170.397275	0.153290
1170.550007	0.179247
1170.702720	0.190081
1170.855415	0.205408
1171.008092	0.173471
1171.160751	0.196038
1171.313392	0.180711
1171.466014	0.168957
1171.618619	0.095777
1171.771205	0.095777
1171.923772	0.095777
