sample name	sample
index	782
start time	 03-31-2021  01:50:02 PM
880	0.259069
Peak Time (s)	92.035
Peak Height 	0.2591
calc peak height	90,93
Baseline Time (s)	11.536
Baseline Value 	-0.001212
subtract baseline	10,4
Abs	0.146185
Peak Time (s)	91.535
Peak Height 	0.1462
calc peak height	90,93
Baseline Time (s)	9.035
Baseline Value 	0.002578
subtract baseline	10,3
PK_550	0.031844
Peak Time (s)	90.535
Peak Height 	0.03184
calc peak height	90,93
Baseline Time (s)	8.537
Baseline Value 	4.6557E-4
subtract baseline	10,2
PK_880	0.134810
Peak Time (s)	92.536
Peak Height 	0.1348
calc peak height	90,93
Baseline Time (s)	11.536
Baseline Value 	4.04E-4
subtract baseline	10,1


Time (s)	A880-A510	A880-A775	A880-A975	A880	I510	I775	I975	I880	
0.035000	-0.001238	-0.000597	-0.004198	0.001035	6789.004320	40863.966038	4075.801366	22348.338279
0.535500	-0.001340	-0.001244	-0.004387	0.002397	6776.656456	40689.855290	4072.308675	22288.091025
1.036000	-0.000014	-0.000361	-0.001245	0.002699	6785.285296	40740.181787	4078.713729	22274.773845
1.536000	0.000634	0.000332	0.001319	0.001154	6803.842172	40934.364371	4088.055866	22343.084696
2.036500	0.000376	-0.000867	-0.002953	0.000032	6811.171273	40927.640672	4080.885522	22392.811316
2.536500	-0.001769	-0.000770	0.002795	0.000259	6791.070285	40916.330459	4093.483212	22382.734904
3.037000	0.001541	0.000104	-0.001970	-0.001371	6833.055413	41134.742685	4086.311440	22455.184038
3.537000	-0.000640	-0.000858	-0.000564	0.000119	6801.803579	40920.869749	4086.117371	22388.927451
4.037500	-0.001527	-0.000183	-0.000497	0.000100	6794.459161	40981.263384	4086.314968	22389.788090
4.537500	-0.000851	-0.000085	-0.000449	0.000114	6800.068799	40988.658371	4086.392722	22389.177904
5.035000	-0.001032	-0.000436	0.000225	-0.000088	6800.243162	40975.659126	4088.392688	22398.147829
5.535500	-0.000285	-0.000194	0.001235	-0.000023	6806.022715	40991.011897	4090.552448	22395.248897
6.036000	0.000025	-0.000760	-0.000900	-0.000352	6811.452259	40970.450653	4086.427064	22409.880026
6.536000	-0.000068	0.000751	-0.001460	0.000329	6804.874611	41042.678699	4083.601631	22379.616956
7.038500	0.001159	-0.000219	0.001719	-0.000233	6820.082928	41007.172756	4092.142621	22404.570673
7.537000	-0.002667	-0.000962	-0.005392	0.003293	6757.987670	40636.899783	4068.047234	22248.584962
8.037000	-0.000537	-0.000331	-0.000921	-0.000432	6807.349431	41014.727522	4086.561400	22413.397141
8.537000	-0.000153	0.000000	-0.002354	0.000154	6805.641430	40992.521814	4081.967648	22387.393761
9.035000	-0.000164	-0.000486	0.000000	-0.000479	6810.924528	41005.289759	4088.771269	22415.502003
9.535000	0.000596	0.000224	0.003320	0.000191	6811.693224	41008.832454	4094.847920	22385.762248
10.035000	0.001828	0.000458	0.004269	0.000428	6820.150123	41008.592914	4096.483934	22375.238240
10.535500	-0.001980	-0.000785	-0.001046	-0.000846	6798.637535	41011.233039	4087.220240	22431.830702
11.035500	0.000294	0.000047	-0.000980	-0.000360	6813.810031	41041.488615	4086.264480	22410.232961
11.536000	0.000000	-0.000251	0.001092	0.000000	6808.246985	40984.053876	4090.172642	22394.225767
12.036500	0.000305	-0.000849	0.000649	-0.000815	6817.771600	41003.010501	4091.024656	22430.444313
12.537000	-0.000021	-0.000278	0.002877	-0.000286	6810.497787	41006.584196	4094.923282	22406.920062
13.036500	0.002174	-0.000204	0.001883	-0.000244	6828.831287	41009.353796	4092.543306	22405.047842
13.537000	0.000311	-0.000708	-0.002600	-0.000104	6811.770400	40953.278405	4081.995293	22398.835231
14.035000	-0.001096	-0.000422	-0.002810	0.001441	6786.776394	40843.952595	4078.021529	22330.374308
14.535500	-0.002690	-0.001463	-0.003565	0.000681	6779.738357	40819.511227	4078.031220	22364.003520
15.035500	0.000645	-0.001383	-0.003697	-0.001030	6822.491046	40975.122586	4081.605504	22439.993681
15.535500	0.000620	-0.000136	0.004731	-0.000129	6814.617958	41005.363422	4098.835438	22399.967282
16.039000	0.001559	-0.000824	0.001550	-0.000401	6824.926537	40969.057394	4092.140900	22412.031723
16.539500	0.000331	-0.000225	0.000133	0.000304	6808.474115	40959.802921	4087.285532	22380.722900
17.037000	0.000217	-0.000707	0.001981	-0.003820	6842.688431	41278.247426	4101.009623	22564.576001
17.537000	-0.001498	-0.000534	0.000636	0.000499	6791.331655	40916.034888	4087.990642	22372.081942
18.037500	0.001383	0.000309	0.001980	0.001594	6806.456274	40894.087745	4088.559248	22323.583545
18.535000	-0.000480	-0.001263	-0.000413	0.000049	6803.761784	40891.771243	4086.624214	22392.062308
19.035000	0.001007	-0.000367	-0.000941	0.000550	6812.134442	40926.115099	4084.280145	22369.841505
19.535000	-0.002494	-0.000678	0.001734	0.000452	6783.318444	40907.590351	4090.606619	22374.159462
20.035500	-0.002817	-0.000532	-0.001758	0.000806	6777.618191	40889.498137	4081.842177	22358.486461
20.536000	0.000443	-0.000892	0.000611	0.000497	6807.790994	40885.097861	4087.938502	22372.187525
21.038500	0.001182	-0.000483	0.006385	0.000920	6810.478122	40883.884742	4100.233419	22353.446090
21.536500	0.001164	0.000398	-0.002397	0.001759	6803.199714	40887.516153	4078.234979	22316.309327
22.036500	-0.001408	-0.000856	-0.003737	0.000365	6793.220442	40899.623210	4078.356630	22378.019048
22.537000	-0.001104	-0.001075	0.000621	0.000502	6794.638514	40868.691567	4087.947298	22371.943297
23.034000	0.000605	0.000305	-0.004010	0.001250	6802.767587	40923.644897	4075.740205	22338.797035
23.535000	0.000326	-0.000097	-0.003262	0.001822	6795.567096	40839.049655	4076.138859	22313.503406
24.035500	0.000248	0.000243	0.002505	0.001369	6798.747469	40907.905111	4090.274755	22333.557833
24.535000	-0.000270	-0.000899	-0.006071	0.000835	6798.881464	40855.066225	4072.036473	22357.194404
25.035500	0.000299	0.000642	0.001523	0.001413	6798.801571	40938.828625	4087.928811	22331.609779
25.535500	-0.001073	-0.000655	0.000100	0.000992	6790.755158	40862.585560	4085.642977	22350.221627
26.036500	-0.000738	-0.001052	-0.002950	0.000408	6798.528935	40878.912404	4080.040498	22376.114971
26.536500	-0.001057	-0.000144	0.004705	0.001430	6787.189350	40869.016526	4095.181815	22330.848651
27.037000	0.002298	0.000204	0.000748	-0.001833	6843.490528	41183.901583	4093.587424	22475.782289
27.537500	0.000621	-0.000888	-0.005671	-0.000639	6818.962690	40984.268221	4076.256446	22422.606926
28.037500	0.000814	0.000754	-0.000685	0.000912	6807.414255	40992.156040	4084.037621	22353.782031
28.535000	0.002001	-0.000095	-0.005384	0.000460	6821.353763	40957.557738	4074.423507	22373.797202
29.035500	0.001075	-0.000415	0.002992	0.000107	6816.477346	40960.507754	4094.285632	22389.478200
29.536000	-0.001404	-0.000338	-0.003396	-0.000235	6798.337576	40996.937141	4080.486626	22404.655290
30.035500	0.000827	-0.000039	0.002257	0.000131	6814.158410	40991.100796	4092.543151	22388.418548
30.539000	-0.000409	-0.000263	-0.001362	0.001928	6788.457418	40815.476231	4080.195937	22308.829389
31.037000	-0.000212	0.000075	-0.004400	0.001066	6797.411514	40919.643996	4075.275744	22346.953156
31.536500	-0.001902	-0.001240	-0.000588	0.002146	6774.036869	40711.906859	4081.453972	22299.177629
32.037000	0.000546	-0.000267	0.000332	-0.000033	6813.163669	40985.555517	4088.511015	22395.683684
32.537500	0.001132	-0.000259	-0.003363	0.000338	6814.993808	40953.991221	4079.264157	22379.240107
33.131000	-0.001342	-0.001560	0.002275	-0.001383	6808.595710	40990.537394	4096.062971	22455.711202
33.535000	0.000663	-0.001074	0.002699	0.001273	6803.073871	40801.965972	4090.938621	22337.804915
34.035500	-0.000352	-0.000357	-0.002137	0.001786	6790.142987	40819.615140	4078.762341	22315.113564
34.535500	0.000734	-0.000830	-0.000237	0.001049	6805.568404	40842.498581	4084.745899	22347.705836
35.036000	-0.000005	-0.000165	0.001943	0.001861	6792.438256	40829.765683	4087.864724	22311.800664
35.536500	0.000175	-0.000326	-0.004105	0.001674	6795.541750	40831.992408	4074.571821	22320.044801
36.036500	0.000011	-0.000738	-0.002353	0.000886	6800.820005	40864.566446	4080.308344	22354.911859
36.536500	-0.001037	-0.000426	-0.001204	0.001171	6789.554186	40867.013686	4082.270954	22342.326095
37.037500	-0.000289	0.000214	0.004653	0.002258	6786.686668	40828.232603	4093.159386	22294.254030
37.540000	-0.000665	-0.000424	-0.001879	0.001821	6787.204172	40810.800691	4079.265878	22313.551958
38.035000	-0.001146	-0.000459	-0.000455	0.001338	6787.216870	40849.616491	4083.592008	22334.900300
38.538000	-0.001470	-0.000704	0.003387	0.000850	6788.607570	40870.775706	4093.486896	22356.541508
39.038000	-0.001776	-0.000110	-0.002337	0.001411	6781.289684	40873.567261	4079.156932	22331.684560
39.539000	-0.002036	0.000003	-0.002859	0.001448	6778.786553	40880.216948	4077.892908	22330.060807
40.038500	-0.004360	-0.000638	-0.002694	0.001134	6761.898299	40851.790682	4078.977668	22343.953667
40.558500	-0.000858	0.000098	0.001174	0.001562	6787.753446	40878.506164	4086.790705	22324.988342
41.037500	0.000642	-0.000883	0.002575	0.001144	6803.987186	40829.597847	4090.948691	22343.485251
41.537000	0.001240	-0.000704	0.000762	0.001532	6805.767125	40811.557141	4085.920669	22326.335712
42.037000	0.000459	-0.001180	-0.002400	0.000916	6804.367137	40823.692452	4080.134553	22353.590357
42.535000	-0.000546	-0.000668	-0.003545	0.001550	6790.496356	40813.107141	4076.113692	22325.557949
43.035000	-0.002728	-0.001327	0.000889	0.000602	6780.087823	40838.184823	4088.333851	22367.539828
43.538500	0.002955	0.000517	0.001400	-0.002647	6856.119526	41282.702908	4096.959670	22512.101428
44.198000	-0.000297	-0.000596	0.003759	0.000291	6803.260042	40928.675537	4095.625844	22381.318888
44.539500	-0.000777	-0.000581	-0.001568	-0.000055	6802.121720	40960.063298	4084.226955	22396.648310
45.039000	-0.000059	0.000340	0.003401	0.000515	6803.375213	40990.694427	4094.287061	22371.362050
45.537000	0.001113	-0.000473	0.000075	-0.000159	6819.069066	40978.594089	4088.212063	22401.304370
46.164000	-0.001175	0.000263	0.000737	0.000303	6795.716903	41002.472881	4088.667212	22380.772537
46.536500	0.000620	-0.000214	0.000873	0.000018	6813.358882	40985.752246	4089.629893	22393.421952
47.038000	0.000542	-0.001223	0.001354	0.001204	6802.630924	40794.963309	4088.020250	22340.854339
47.544000	0.001583	0.000096	0.003024	0.002818	6797.779804	40769.444614	4088.146771	22269.530763
48.038000	-0.001281	-0.000080	0.003252	0.000253	6795.241544	40976.923881	4094.547161	22382.991162
48.536000	0.000692	0.000178	0.002080	0.000493	6809.934827	40978.458902	4091.304517	22372.330824
49.042500	-0.001065	-0.000656	0.001204	-0.000482	6803.306436	40990.813135	4091.532995	22415.644766
49.539000	0.001281	-0.000031	0.000283	-0.002647	6841.743791	41234.633881	4094.387434	22512.075706
50.036500	0.000349	-0.000219	0.002544	0.003116	6784.826292	40716.331195	4086.372669	22256.387934
50.536500	0.002642	0.000473	0.008726	0.023541	6635.017246	39047.780365	4054.427045	21376.996093
51.037000	-0.048622	-0.002499	-0.017830	0.091630	5790.646268	33629.840631	3866.791103	18726.944972
51.537000	-0.044639	-0.014491	-0.023961	-0.136341	7675.098858	53266.017854	4380.486811	29504.652623
52.037500	-0.031941	-0.083274	-0.007222	-0.299155	9943.009308	65380.452363	5038.042535	41507.865026
52.535000	-0.024320	-0.082812	0.006677	-0.297809	10042.290898	65253.788446	5094.984239	41388.985215
53.035000	-0.019616	-0.056872	0.011014	-0.261132	9551.059173	63737.482558	4951.553671	38289.404345
53.535500	-0.012026	-0.047380	0.020202	-0.245519	9433.363101	62889.547597	4924.305341	37047.325228
54.038500	0.008268	-0.020953	0.023283	-0.198009	9049.919867	60058.836355	4746.536847	33531.040195
54.536000	0.008589	-0.022724	0.029123	-0.199950	9080.888294	60081.069621	4776.370049	33667.294398
55.036500	0.017889	-0.012149	0.036363	-0.167335	8769.367361	57264.149524	4681.015009	31456.861785
55.536500	0.033289	-0.000325	0.047804	-0.109165	8239.634297	51787.086477	4519.349533	27903.903349
56.040000	0.037809	0.003978	0.054401	-0.071863	7867.482475	48228.574036	4422.207256	25863.585624
56.537500	0.045495	0.010570	0.064147	-0.015614	7365.339732	43358.313230	4287.559308	23099.993397
57.035000	0.054586	0.016917	0.071857	0.030245	7020.801157	39861.868898	4187.374066	21097.223691
57.535500	0.059517	0.020370	0.079330	0.067293	6742.819917	37129.305951	4115.541315	19626.827288
58.035500	0.066151	0.023549	0.086713	0.106362	6482.182576	34434.430774	4043.820505	18206.237243
58.535500	0.074910	0.028033	0.089817	0.130732	6363.508514	33034.298047	3998.536603	17382.695076
59.036000	0.080672	0.030425	0.097255	0.151150	6255.920028	31819.474421	3971.967769	16727.419282
59.536000	0.082757	0.034782	0.105124	0.170622	6132.891402	30838.865173	3948.879370	16130.539852
60.036500	0.091288	0.036484	0.112792	0.175762	6156.496833	30620.577369	3953.856009	15977.397059
60.537000	0.103558	0.046337	0.110572	0.235969	5839.284245	27613.552641	3839.027806	14312.287393
61.037000	0.098600	0.042548	0.110428	0.185753	6137.836743	30373.359699	3929.802761	15684.872881
61.537500	0.111182	0.052197	0.108140	0.187264	6215.728180	30888.213477	3922.543233	15641.222669
62.035000	0.115145	0.050527	0.111007	0.193145	6202.085567	30410.140267	3916.827744	15472.729824
62.535500	0.115547	0.049693	0.111650	0.193391	6203.196368	30342.424906	3917.576888	15465.724557
63.036500	0.119134	0.051517	0.111119	0.196052	6209.773720	30290.088117	3911.563722	15390.281739
63.547000	0.116463	0.050213	0.112689	0.198898	6170.781410	30031.981343	3909.169855	15310.087871
64.044000	0.118435	0.051647	0.119379	0.203121	6155.020608	29859.919780	3913.801478	15192.081927
64.536500	0.121658	0.051201	0.118392	0.207405	6147.614429	29570.625105	3903.938229	15073.525509
65.037500	0.124440	0.051106	0.119299	0.210824	6143.183775	29357.779399	3899.281732	14979.762600
65.537000	0.122642	0.050008	0.116617	0.212237	6120.921018	29206.719671	3891.744132	14941.224080
66.037500	0.122227	0.047776	0.113496	0.212423	6116.772685	29062.048631	3885.708881	14936.149782
66.535000	0.122102	0.047117	0.125715	0.213321	6109.722741	28969.352103	3906.560127	14911.737878
67.035000	0.122707	0.049096	0.120402	0.216649	6091.036168	28889.190370	3890.594527	14821.662549
67.535500	0.123117	0.049158	0.119256	0.218806	6079.115588	28765.373031	3884.577988	14763.672575
68.035500	0.125967	0.049443	0.118381	0.221971	6076.972497	28596.105476	3877.277508	14679.077155
68.536000	0.126564	0.050324	0.122921	0.224928	6060.953980	28474.776156	3880.130655	14600.620741
69.036000	0.127487	0.049938	0.120697	0.225594	6062.691231	28413.508937	3874.930514	14583.008865
69.536500	0.125954	0.048082	0.124711	0.225431	6053.432976	28315.249424	3882.456391	14587.326938
70.037000	0.127866	0.047970	0.123210	0.226026	6062.335144	28274.305685	3878.671066	14571.618384
70.537000	0.127239	0.049416	0.130134	0.227584	6047.573529	28267.825005	3888.399978	14530.590301
71.034500	0.125976	0.048051	0.118550	0.227795	6037.656709	28176.792826	3867.172027	14525.026591
71.538000	0.127632	0.047827	0.129325	0.228688	6042.791087	28112.599360	3884.917512	14501.608970
72.035000	0.128980	0.047267	0.122063	0.229989	6043.101817	28005.824136	3869.519313	14467.543504
72.535500	0.125655	0.046075	0.123732	0.230043	6020.458418	27934.611655	3872.399745	14466.123217
73.038000	0.129215	0.046901	0.132334	0.232509	6027.770967	27841.235399	3883.443703	14401.856164
73.536000	0.130201	0.047317	0.132566	0.234023	6024.241771	27778.928371	3881.123546	14362.582987
74.036500	0.130651	0.045732	0.125257	0.234657	6023.012587	27653.419419	3866.897794	14346.170456
74.536500	0.131234	0.046219	0.126940	0.235908	6018.548336	27610.297570	3867.665115	14313.850686
75.036500	0.132613	0.046513	0.129217	0.237766	6015.353833	27522.425100	3868.410213	14266.048779
75.537500	0.129459	0.044771	0.130694	0.237804	5994.156767	27422.692035	3870.972603	14265.065442
76.035000	0.131540	0.044921	0.129486	0.239525	5996.547049	27335.102484	3865.765765	14220.976088
76.535000	0.131669	0.043730	0.129244	0.239650	5996.565627	27261.921551	3865.115274	14217.774332
77.038000	0.131021	0.044472	0.130202	0.241285	5981.487798	27212.377249	3863.916903	14176.040531
77.536000	0.132120	0.044676	0.131043	0.242685	5979.511361	27146.207090	3862.930037	14140.448136
78.035500	0.131990	0.042394	0.130057	0.241648	5985.488400	27077.588757	3863.020874	14166.819496
78.536500	0.131221	0.042258	0.129853	0.242468	5975.030706	27024.966339	3861.214238	14145.974099
79.036000	0.133728	0.043361	0.126616	0.245164	5973.785860	26937.555774	3850.834145	14077.700551
79.536500	0.131979	0.042942	0.138301	0.243919	5970.479693	26982.862435	3873.640255	14109.178516
80.037000	0.133932	0.042291	0.132529	0.243808	5984.050515	26953.218051	3863.569942	14111.974088
80.537500	0.132650	0.041541	0.137961	0.244639	5970.158193	26866.730162	3871.744434	14090.962649
81.035000	0.131787	0.039781	0.134815	0.242837	5976.318636	26868.988216	3869.346057	14136.587533
81.535000	0.131289	0.038072	0.132699	0.242792	5973.346668	26778.339555	3865.670125	14137.737424
82.035500	0.132237	0.039854	0.132801	0.245512	5961.731630	26727.348948	3861.044510	14068.918663
82.538500	0.129217	0.037683	0.132758	0.245248	5943.761974	26624.088221	3861.434522	14075.576197
83.036500	0.131569	0.039228	0.139574	0.246286	5952.313342	26651.471382	3871.682912	14049.414412
83.536000	0.133177	0.037990	0.131074	0.245869	5965.548829	26607.113856	3857.383451	14059.916431
84.036500	0.134857	0.038063	0.136348	0.247298	5967.188596	26533.953632	3864.153265	14023.957780
84.534500	0.131618	0.036861	0.139726	0.248084	5940.930425	26427.163814	3868.748533	14004.219382
85.037500	0.132811	0.037938	0.140092	0.250454	5933.303440	26357.978088	3865.192202	13944.965449
85.535000	0.133315	0.037399	0.135169	0.251019	5932.908024	26299.098655	3855.536018	13930.881098
86.035000	0.133165	0.035718	0.135411	0.250481	5935.419110	26238.220025	3856.901551	13944.289747
86.535500	0.132499	0.035598	0.135960	0.251085	5927.207277	26199.823576	3856.806204	13929.250517
87.038500	0.133101	0.034132	0.137699	0.254021	5912.166060	25967.378339	3854.712407	13856.382001
87.536000	0.130074	0.034409	0.134643	0.251876	5906.496835	26094.968282	3853.122526	13909.559647
88.036000	0.132884	0.033338	0.141895	0.252262	5922.086684	26018.112377	3865.184473	13899.967477
88.536000	0.132512	0.034717	0.138159	0.254219	5907.112958	25987.710736	3855.170569	13851.482017
89.037000	0.130938	0.033902	0.137809	0.258032	5872.765487	25745.697163	3847.930268	13757.631360
89.534500	0.131575	0.032437	0.142400	0.254379	5900.075663	25859.744473	3862.335060	13847.514443
90.037000	0.132233	0.031508	0.145600	0.254806	5901.559893	25789.021052	3867.243171	13836.982163
90.535000	0.134078	0.031844	0.142064	0.256302	5903.795774	25728.617530	3858.360780	13800.102742
91.035000	0.132776	0.031157	0.144503	0.257146	5890.076874	25649.154368	3861.164576	13779.360431
91.535500	0.133879	0.031339	0.146185	0.258170	5890.584942	25605.629226	3862.325369	13754.252945
92.035500	0.133665	0.030947	0.137033	0.259069	5883.494088	25538.967022	3844.798826	13732.248545
92.536000	0.134810	0.029364	0.144875	0.259059	5890.851747	25458.033293	3858.454991	13732.486152
93.036000	0.133033	0.029992	0.147468	0.260380	5871.160207	25422.402562	3860.690268	13700.228980
93.536500	0.133736	0.029985	0.148443	0.261875	5866.153401	25345.588735	3859.776647	13663.871277
94.036500	0.132867	0.028077	0.148569	0.260945	5866.533500	25295.586447	3861.633548	13686.461888
94.536500	0.134085	0.028796	0.150395	0.262515	5864.311849	25252.282388	3862.085771	13648.323442
95.035000	0.136841	0.028082	0.143526	0.263417	5876.047987	25170.240734	3848.503676	13626.475674
95.537000	0.134019	0.027772	0.147133	0.264275	5852.808277	25111.113356	3853.281737	13605.730988
96.035500	0.136311	0.028212	0.148977	0.265802	5857.617893	25056.192875	3853.834712	13568.900600
